%OpenBCI Raw EXG Data
%Number of channels = 8
%Sample Rate = 250 Hz
%Board = OpenBCI_GUI$BoardCytonSerial
Sample Index, EXG Channel 0, EXG Channel 1, EXG Channel 2, EXG Channel 3, EXG Channel 4, EXG Channel 5, EXG Channel 6, EXG Channel 7, Accel Channel 0, Accel Channel 1, Accel Channel 2, Not Used, Digital Channel 0 (D11), Digital Channel 1 (D12), Digital Channel 2 (D13), Digital Channel 3 (D17), Not Used, Digital Channel 4 (D18), Analog Channel 0, Analog Channel 1, Analog Channel 2, Timestamp, Marker Channel, Timestamp (Formatted)
0.0, -169582.64047892578, -181255.41433756525, -181398.64431603486, -174477.5384041713, -171809.18715109673, -158888.91773091766, -181539.9073409924, -165809.1966282364, -0.018000000000000002, 0.454, 0.2, 192.0, 255.0, 112.0, 14.0, 48.0, 6.0, 64.0, 0.0, 0.0, 0.0, 1.7395407804833615E9, 0.0, 2025-02-14 10:46:20.483
1.0, -170254.04217887428, -181252.01687240804, -181395.85034797792, -174294.11998917104, -172047.12147082348, -159069.296308672, -181536.53222757962, -165483.44230454473, -0.018000000000000002, 0.454, 0.2, 192.0, 0.0, 0.0, 0.0, 0.0, 0.0, 0.0, 0.0, 0.0, 0.0, 1.7395407804834218E9, 0.0, 2025-02-14 10:46:20.483
2.0, -169635.65881677376, -181249.11114562885, -181394.4645398217, -174976.2505264581, -171875.01303851762, -159098.39827995282, -181533.82766650055, -165983.92021464353, -0.018000000000000002, 0.454, 0.2, 192.0, 0.0, 0.0, 0.0, 0.0, 0.0, 0.0, 0.0, 0.0, 0.0, 1.7395407804834476E9, 0.0, 2025-02-14 10:46:20.483
3.0, -168936.6750641674, -181245.1325351158, -181390.0165426751, -175152.4940314882, -171671.81332967442, -158967.88644407826, -181529.8490559875, -166418.9298652327, -0.018000000000000002, 0.454, 0.2, 192.0, 0.0, 0.0, 0.0, 0.0, 0.0, 0.0, 0.0, 0.0, 0.0, 1.7395407804834752E9, 0.0, 2025-02-14 10:46:20.483
4.0, -169521.77667877398, -181243.29969207046, -181387.1108158959, -174594.88506256166, -171883.52905315507, -158983.64442391926, -181527.8373989865, -166022.81224999574, -0.018000000000000002, 0.454, 0.2, 192.0, 0.0, 0.0, 0.0, 0.0, 0.0, 0.0, 0.0, 0.0, 0.0, 1.7395407804834955E9, 0.0, 2025-02-14 10:46:20.483
5.0, -170344.58909566273, -181240.81864843593, -181384.58506877246, -174230.64103491796, -172192.65367897198, -159166.79461798604, -181525.26694837416, -165595.04456461009, -0.018000000000000002, 0.454, 0.2, 192.0, 0.0, 0.0, 0.0, 0.0, 0.0, 0.0, 0.0, 0.0, 0.0, 1.7395407804835088E9, 0.0, 2025-02-14 10:46:20.483
6.0, -169949.74552985973, -181236.97414838962, -181382.68517049376, -174841.15658297023, -172088.80747423263, -159215.61082787643, -181521.73537275023, -165978.33227852968, -0.018000000000000002, 0.454, 0.2, 192.0, 0.0, 0.0, 0.0, 0.0, 0.0, 0.0, 0.0, 0.0, 0.0, 1.7395407804835296E9, 0.0, 2025-02-14 10:46:20.483
7.0, -169116.20427563242, -181232.43674426517, -181377.8571936914, -175182.46772080276, -171822.82171521446, -159085.43426816873, -181517.19796862578, -166528.74398574163, -0.022, 0.6880000000000001, 0.294, 192.0, 255.0, 80.0, 21.0, 128.0, 9.0, 48.0, 0.0, 0.0, 0.0, 1.739540780483728E9, 0.0, 2025-02-14 10:46:20.483
8.0, -169471.1499775827, -181228.86046515233, -181373.25273433363, -174713.90810178616, -171946.7397864747, -159083.86964605685, -181513.53228253513, -166262.46765404555, -0.022, 0.6880000000000001, 0.294, 192.0, 0.0, 0.0, 0.0, 0.0, 0.0, 0.0, 0.0, 0.0, 0.0, 1.7395407804837873E9, 0.0, 2025-02-14 10:46:20.483
9.0, -170378.83196816826, -181225.41829650622, -181369.29647556503, -174206.1658747394, -172256.7584820698, -159268.71857270226, -181509.93365167783, -165764.3813806035, -0.022, 0.6880000000000001, 0.294, 192.0, 0.0, 0.0, 0.0, 0.0, 0.0, 0.0, 0.0, 0.0, 0.0, 1.7395407804838016E9, 0.0, 2025-02-14 10:46:20.483
10.0, -170230.97517859642, -181221.30557552644, -181366.8601354194, -174683.01799094892, -172234.07146144766, -159353.45403593231, -181505.91033767586, -166004.5732265202, -0.022, 0.6880000000000001, 0.294, 192.0, 0.0, 0.0, 0.0, 0.0, 0.0, 0.0, 0.0, 0.0, 0.0, 1.7395407804838283E9, 0.0, 2025-02-14 10:46:20.483
11.0, -169330.80337414783, -181216.4775987241, -181362.2556760616, -175185.79813072662, -171943.5881905065, -159238.25314500966, -181501.21647134025, -166622.88953338738, -0.022, 0.6880000000000001, 0.294, 192.0, 0.0, 0.0, 0.0, 0.0, 0.0, 0.0, 0.0, 0.0, 0.0, 1.7395407804838417E9, 0.0, 2025-02-14 10:46:20.483
12.0, -169437.2870847329, -181215.0694388234, -181359.9087428938, -174840.91071378122, -172008.76587733816, -159191.53799909807, -181499.71890446174, -166503.01712787358, -0.022, 0.6880000000000001, 0.294, 192.0, 0.0, 0.0, 0.0, 0.0, 0.0, 0.0, 0.0, 0.0, 0.0, 1.7395407804838543E9, 0.0, 2025-02-14 10:46:20.483
13.0, -170372.61818320968, -181214.2200725341, -181358.34412078193, -174241.59338970107, -172354.3909018506, -159372.83299837506, -181498.71307596125, -165952.53836542828, -0.022, 0.6880000000000001, 0.294, 192.0, 0.0, 0.0, 0.0, 0.0, 0.0, 0.0, 0.0, 0.0, 0.0, 1.7395407804838672E9, 0.0, 2025-02-14 10:46:20.483
14.0, -170490.00954508898, -181209.3697439873, -181354.92430388025, -174531.8531431977, -172408.6385856436, -159495.63348241252, -181493.92980264782, -166035.8880205021, -0.022, 0.6880000000000001, 0.294, 192.0, 0.0, 0.0, 0.0, 0.0, 0.0, 0.0, 0.0, 0.0, 0.0, 1.7395407804838796E9, 0.0, 2025-02-14 10:46:20.483
15.0, -169590.4859412296, -181204.78763637398, -181350.99039685613, -175146.16848780736, -172123.78795430518, -159385.08175433657, -181489.50415724565, -166677.89717649188, -0.022, 0.6880000000000001, 0.294, 192.0, 0.0, 0.0, 0.0, 0.0, 0.0, 0.0, 0.0, 0.0, 0.0, 1.7395407804840496E9, 0.0, 2025-02-14 10:46:20.484
16.0, -169437.0859190328, -181202.1724822727, -181347.4588212322, -174944.10871793138, -172092.96489870132, -159315.45607035828, -181486.8890031444, -166709.27902570713, -0.022, 0.6880000000000001, 0.294, 192.0, 0.0, 0.0, 0.0, 0.0, 0.0, 0.0, 0.0, 0.0, 0.0, 1.7395407804840643E9, 0.0, 2025-02-14 10:46:20.484
17.0, -170339.58230490476, -181202.48540669508, -181346.6541584318, -174296.28810838322, -172430.18566729853, -159477.2827002147, -181487.0454653556, -166146.3726933447, -0.026000000000000002, 0.81, 0.34600000000000003, 192.0, 255.0, 48.0, 25.0, 80.0, 10.0, 208.0, 0.0, 0.0, 0.0, 1.7395407804840775E9, 0.0, 2025-02-14 10:46:20.484
18.0, -170689.32005039693, -181198.8197206044, -181344.1954665417, -174386.87972866057, -172567.31361953184, -159627.3746642321, -181483.46918624273, -166075.51766342137, -0.026000000000000002, 0.81, 0.34600000000000003, 192.0, 0.0, 0.0, 0.0, 0.0, 0.0, 0.0, 0.0, 0.0, 0.0, 1.7395407804840915E9, 0.0, 2025-02-14 10:46:20.484
19.0, -169859.9362206383, -181194.59524090236, -181340.9544635957, -175081.90722249832, -172298.28802326776, -159531.5974392411, -181479.3788170074, -166710.62013037445, -0.026000000000000002, 0.81, 0.34600000000000003, 192.0, 0.0, 0.0, 0.0, 0.0, 0.0, 0.0, 0.0, 0.0, 0.0, 1.7395407804841044E9, 0.0, 2025-02-14 10:46:20.484
20.0, -169484.15869285568, -181191.48834842307, -181337.1099635494, -175039.46125977772, -172183.2435945563, -159406.98646390278, -181476.1378140614, -166906.77903971422, -0.026000000000000002, 0.81, 0.34600000000000003, 192.0, 0.0, 0.0, 0.0, 0.0, 0.0, 0.0, 0.0, 0.0, 0.0, 1.7395407804841168E9, 0.0, 2025-02-14 10:46:20.484
21.0, -170294.85646424966, -181189.25317397751, -181333.556036181, -174396.64744098752, -172490.35656337222, -159536.51482302128, -181473.7238256602, -166374.3157832999, -0.026000000000000002, 0.81, 0.34600000000000003, 192.0, 0.0, 0.0, 0.0, 0.0, 0.0, 0.0, 0.0, 0.0, 0.0, 1.7395407804841297E9, 0.0, 2025-02-14 10:46:20.484
22.0, -170852.89011632086, -181185.7215983536, -181330.806771613, -174271.05298889315, -172710.94592940164, -159731.17616548255, -181470.326360503, -166156.58744056078, -0.026000000000000002, 0.81, 0.34600000000000003, 192.0, 0.0, 0.0, 0.0, 0.0, 0.0, 0.0, 0.0, 0.0, 0.0, 1.739540780484146E9, 0.0, 2025-02-14 10:46:20.484
23.0, -170153.14640440303, -181180.3571796843, -181326.82816109995, -174984.92300330676, -172477.8172347328, -159677.19670262298, -181465.16310753385, -166736.48109870925, -0.026000000000000002, 0.81, 0.34600000000000003, 192.0, 0.0, 0.0, 0.0, 0.0, 0.0, 0.0, 0.0, 0.0, 0.0, 1.7395407804841585E9, 0.0, 2025-02-14 10:46:20.484
24.0, -169576.40434222276, -181177.51850813848, -181323.43069594275, -175108.57285363352, -172291.3142789977, -159531.19510784093, -181462.2797324991, -167070.59497482717, -0.026000000000000002, 0.81, 0.34600000000000003, 192.0, 0.0, 0.0, 0.0, 0.0, 0.0, 0.0, 0.0, 0.0, 0.0, 1.7395407804841716E9, 0.0, 2025-02-14 10:46:20.484
25.0, -170247.09078634868, -181178.1667087277, -181322.82719884245, -174508.92025338655, -172558.26116302743, -159642.8420713952, -181462.65971215485, -166601.00717556564, -0.026000000000000002, 0.81, 0.34600000000000003, 192.0, 0.0, 0.0, 0.0, 0.0, 0.0, 0.0, 0.0, 0.0, 0.0, 1.7395407804841838E9, 0.0, 2025-02-14 10:46:20.484
26.0, -170970.92967878934, -181177.4067494162, -181322.11194301987, -174189.82674954258, -172854.6005910159, -159846.51116687193, -181461.83269761, -166253.86223243026, -0.026000000000000002, 0.81, 0.34600000000000003, 192.0, 0.0, 0.0, 0.0, 0.0, 0.0, 0.0, 0.0, 0.0, 0.0, 1.739540780484196E9, 0.0, 2025-02-14 10:46:20.484
27.0, -170463.36626569825, -181169.51658362348, -181315.9875650391, -174854.3664639433, -172681.0616470649, -159832.85425100973, -181454.2331044952, -166728.92620908335, -0.028, 0.87, 0.37, 192.0, 255.0, 32.0, 27.0, 48.0, 11.0, 144.0, 0.0, 0.0, 0.0, 1.739540780484208E9, 0.0, 2025-02-14 10:46:20.484
28.0, -169725.6022364619, -181165.35915915482, -181311.71838184816, -175155.95855187878, -172404.65997513058, -159685.198627138, -181450.09803177096, -167196.54705483283, -0.028, 0.87, 0.37, 192.0, 0.0, 0.0, 0.0, 0.0, 0.0, 0.0, 0.0, 0.0, 0.0, 1.7395407804842207E9, 0.0, 2025-02-14 10:46:20.484
29.0, -170193.60306186715, -181165.38151089926, -181310.4443324142, -174641.53315323987, -172585.95497440756, -159743.38021795516, -181449.8745143264, -166829.9337422769, -0.028, 0.87, 0.37, 192.0, 0.0, 0.0, 0.0, 0.0, 0.0, 0.0, 0.0, 0.0, 0.0, 1.7395407804842331E9, 0.0, 2025-02-14 10:46:20.484
30.0, -171033.6263219865, -181161.64876957523, -181305.92928003424, -174162.19999339583, -172942.68881591427, -159960.61682231628, -181446.11942125793, -166380.73073395857, -0.028, 0.87, 0.37, 192.0, 0.0, 0.0, 0.0, 0.0, 0.0, 0.0, 0.0, 0.0, 0.0, 1.7395407804842756E9, 0.0, 2025-02-14 10:46:20.484
31.0, -170756.7999669075, -181157.62545557326, -181304.09643698888, -174693.61271782074, -172868.43632083375, -159994.27854946596, -181442.25256946715, -166724.14293576992, -0.028, 0.87, 0.37, 192.0, 0.0, 0.0, 0.0, 0.0, 0.0, 0.0, 0.0, 0.0, 0.0, 1.7395407804842882E9, 0.0, 2025-02-14 10:46:20.484
32.0, -169921.33646265705, -181153.44567936013, -181300.09547473138, -175159.75834843618, -172566.66541894263, -159812.2235908775, -181438.07279325402, -167278.30973605035, -0.028, 0.87, 0.37, 192.0, 0.0, 0.0, 0.0, 0.0, 0.0, 0.0, 0.0, 0.0, 0.0, 1.7395407804843006E9, 0.0, 2025-02-14 10:46:20.484
33.0, -170161.08127368466, -181151.3669671258, -181296.96623050765, -174759.61741919725, -172639.82267854485, -159817.14097465767, -181435.83761880847, -167042.6329425136, -0.028, 0.87, 0.37, 192.0, 0.0, 0.0, 0.0, 0.0, 0.0, 0.0, 0.0, 0.0, 0.0, 1.7395407804843132E9, 0.0, 2025-02-14 10:46:20.484
34.0, -171050.2783716057, -181149.7129380361, -181294.2393176841, -174168.10085393203, -173011.59924406998, -160056.39404730726, -181434.11653448542, -166530.53212529805, -0.028, 0.87, 0.37, 192.0, 0.0, 0.0, 0.0, 0.0, 0.0, 0.0, 0.0, 0.0, 0.0, 1.739540780484326E9, 0.0, 2025-02-14 10:46:20.484
35.0, -171020.55055148012, -181144.52733332245, -181290.88655601582, -174530.444983297, -173024.11622096493, -160137.73204538014, -181429.15444721634, -166726.64633114892, -0.028, 0.87, 0.37, 192.0, 0.0, 0.0, 0.0, 0.0, 0.0, 0.0, 0.0, 0.0, 0.0, 1.7395407804843383E9, 0.0, 2025-02-14 10:46:20.484
36.0, -170146.55263978872, -181138.67117627518, -181285.67859955772, -175144.1344790619, -172691.4105047477, -159958.9627932266, -181423.4324006358, -167346.37079791675, -0.028, 0.87, 0.37, 192.0, 0.0, 0.0, 0.0, 0.0, 0.0, 0.0, 0.0, 0.0, 0.0, 1.7395407804843507E9, 0.0, 2025-02-14 10:46:20.484
37.0, -170135.82380245018, -181137.9559204526, -181284.0469222125, -174889.0340195935, -172710.32008055688, -159910.3924525252, -181422.53833085755, -167256.36032299523, -0.028, 0.896, 0.382, 192.0, 255.0, 32.0, 28.0, 0.0, 11.0, 240.0, 0.0, 0.0, 0.0, 1.7395407804843628E9, 0.0, 2025-02-14 10:46:20.484
38.0, -171028.19484808386, -181137.8665134748, -181282.7505210341, -174231.84802911856, -173103.4202102924, -160133.97695231164, -181422.35951690192, -166700.36067966948, -0.028, 0.896, 0.382, 192.0, 0.0, 0.0, 0.0, 0.0, 0.0, 0.0, 0.0, 0.0, 0.0, 1.739540780484376E9, 0.0, 2025-02-14 10:46:20.484
39.0, -171239.55294365322, -181133.41851632818, -181279.6436285548, -174387.68439146096, -173210.9768046113, -160255.01164853713, -181418.09033371095, -166746.53938371415, -0.028, 0.896, 0.382, 192.0, 0.0, 0.0, 0.0, 0.0, 0.0, 0.0, 0.0, 0.0, 0.0, 1.739540780484388E9, 0.0, 2025-02-14 10:46:20.484
40.0, -170390.72309621848, -181128.97051918157, -181276.15675641978, -175090.31147841353, -172867.16227139978, -160091.06160295746, -181413.6646883088, -167391.5213217165, -0.028, 0.896, 0.382, 192.0, 0.0, 0.0, 0.0, 0.0, 0.0, 0.0, 0.0, 0.0, 0.0, 1.7395407804844E9, 0.0, 2025-02-14 10:46:20.484
41.0, -170139.44478505192, -181124.92485343516, -181271.3287796174, -174996.72472437916, -172776.6824098447, -160004.31448272642, -181409.5296155846, -167460.8787847613, -0.028, 0.896, 0.382, 192.0, 0.0, 0.0, 0.0, 0.0, 0.0, 0.0, 0.0, 0.0, 0.0, 1.7395407804844122E9, 0.0, 2025-02-14 10:46:20.484
42.0, -170987.17939700835, -181122.93554817862, -181267.86425922683, -174325.21126570838, -173148.14605094746, -160223.9650754887, -181407.4732550947, -166900.96758615586, -0.028, 0.896, 0.382, 192.0, 0.0, 0.0, 0.0, 0.0, 0.0, 0.0, 0.0, 0.0, 0.0, 1.7395407804844246E9, 0.0, 2025-02-14 10:46:20.484
43.0, -171436.7623849824, -181122.46616154508, -181268.1324801603, -174249.64001770498, -173339.63344569606, -160400.856781108, -181407.00386846112, -166790.54996854663, -0.028, 0.896, 0.382, 192.0, 0.0, 0.0, 0.0, 0.0, 0.0, 0.0, 0.0, 0.0, 0.0, 1.7395407804844382E9, 0.0, 2025-02-14 10:46:20.484
44.0, -170680.22289040362, -181118.06286788738, -181265.2938086145, -175002.8491023599, -173042.55641014056, -160246.1156542439, -181402.7570370146, -167409.53682774745, -0.028, 0.896, 0.382, 192.0, 0.0, 0.0, 0.0, 0.0, 0.0, 0.0, 0.0, 0.0, 0.0, 1.7395407804844506E9, 0.0, 2025-02-14 10:46:20.484
45.0, -170205.04715502827, -181113.16783585167, -181259.99644517858, -175091.16084470283, -172878.58401281646, -160096.4930768601, -181397.83965323446, -167626.77343210857, -0.028, 0.896, 0.382, 192.0, 0.0, 0.0, 0.0, 0.0, 0.0, 0.0, 0.0, 0.0, 0.0, 1.7395407804844708E9, 0.0, 2025-02-14 10:46:20.484
46.0, -170928.12608815744, -181111.51380676197, -181256.8224974659, -174452.7726713148, -173222.0856216056, -160281.29730001657, -181395.9174032113, -167097.10414375117, -0.028, 0.896, 0.382, 192.0, 0.0, 0.0, 0.0, 0.0, 0.0, 0.0, 0.0, 0.0, 0.0, 1.7395407804844832E9, 0.0, 2025-02-14 10:46:20.484
47.0, -171562.0886161433, -181108.11634160476, -181253.44738405317, -174168.12320567647, -173505.84101746572, -160503.3395294356, -181392.47523456518, -166843.85887907253, -0.024, 0.896, 0.384, 192.0, 255.0, 64.0, 28.0, 0.0, 12.0, 0.0, 0.0, 0.0, 0.0, 1.739540780484496E9, 0.0, 2025-02-14 10:46:20.484
48.0, -170967.3533996765, -181105.27767005895, -181252.55331427496, -174876.44998746517, -173236.3013310792, -160401.32616774156, -181389.97183918618, -167392.92948161718, -0.024, 0.896, 0.384, 192.0, 0.0, 0.0, 0.0, 0.0, 0.0, 0.0, 0.0, 0.0, 0.0, 1.7395407804845088E9, 0.0, 2025-02-14 10:46:20.484
49.0, -170316.40354590458, -181101.79079792392, -181248.90997992875, -175138.7924121371, -172984.71009549024, -160215.7619852736, -181386.5073187956, -167753.97720980374, -0.024, 0.896, 0.384, 192.0, 0.0, 0.0, 0.0, 0.0, 0.0, 0.0, 0.0, 0.0, 0.0, 1.7395407804847488E9, 0.0, 2025-02-14 10:46:20.484
50.0, -170865.29533449357, -181098.10276008878, -181243.99259614857, -174563.12323369065, -173246.650188762, -160365.51867312417, -181382.5063565381, -167300.1920938721, -0.024, 0.896, 0.384, 192.0, 0.0, 0.0, 0.0, 0.0, 0.0, 0.0, 0.0, 0.0, 0.0, 1.7395407804847648E9, 0.0, 2025-02-14 10:46:20.484
51.0, -171635.53644842346, -181096.56048972136, -181241.93623565868, -174110.41100149287, -173570.5716694083, -160620.12739421456, -181380.89703093734, -166933.8022987607, -0.024, 0.896, 0.384, 192.0, 0.0, 0.0, 0.0, 0.0, 0.0, 0.0, 0.0, 0.0, 0.0, 1.7395407804847777E9, 0.0, 2025-02-14 10:46:20.484
52.0, -171242.10104252113, -181094.61588795375, -181241.84682868086, -174728.5484944044, -173411.91898726454, -160557.18488182843, -181379.17594661427, -167393.82355139538, -0.024, 0.896, 0.384, 192.0, 0.0, 0.0, 0.0, 0.0, 0.0, 0.0, 0.0, 0.0, 0.0, 1.7395407804847903E9, 0.0, 2025-02-14 10:46:20.484
53.0, -170467.76955935595, -181092.13484431923, -181239.49989551306, -175167.71556946225, -173094.27834681017, -160354.5439665966, -181376.78430995755, -167890.18874051436, -0.024, 0.896, 0.384, 192.0, 0.0, 0.0, 0.0, 0.0, 0.0, 0.0, 0.0, 0.0, 0.0, 1.7395407804848032E9, 0.0, 2025-02-14 10:46:20.484
54.0, -170814.89215074686, -181088.98324835103, -181235.23071232208, -174698.37363938973, -173285.96690725887, -160435.3231710581, -181373.43154828926, -167540.98743688912, -0.024, 0.896, 0.384, 192.0, 0.0, 0.0, 0.0, 0.0, 0.0, 0.0, 0.0, 0.0, 0.0, 1.7395407804848158E9, 0.0, 2025-02-14 10:46:20.484
55.0, -171677.64713497725, -181085.00463783796, -181230.33568028637, -174115.1942748063, -173671.86977527975, -160701.95713066545, -181369.40823428732, -167070.86319576064, -0.024, 0.896, 0.384, 192.0, 0.0, 0.0, 0.0, 0.0, 0.0, 0.0, 0.0, 0.0, 0.0, 1.739540780484828E9, 0.0, 2025-02-14 10:46:20.484
56.0, -171516.1334295432, -181080.9366203471, -181227.98874711856, -174569.80640528278, -173596.65615518764, -160723.5936192982, -181365.42962377425, -167383.3629349903, -0.024, 0.896, 0.384, 192.0, 0.0, 0.0, 0.0, 0.0, 0.0, 0.0, 0.0, 0.0, 0.0, 1.73954078048484E9, 0.0, 2025-02-14 10:46:20.484
57.0, -170660.1286721383, -181077.494451701, -181224.97126161712, -175162.0382263706, -173228.388813542, -160489.19087519537, -181362.12156559486, -167963.32364837214, -0.026000000000000002, 0.912, 0.378, 192.0, 255.0, 48.0, 28.0, 128.0, 11.0, 208.0, 0.0, 0.0, 0.0, 1.7395407804848619E9, 0.0, 2025-02-14 10:46:20.484
58.0, -170773.74258920463, -181077.002713323, -181223.56310171643, -174825.8232862739, -173321.39442222053, -160500.5232096342, -181361.51806849457, -167756.1453290159, -0.026000000000000002, 0.912, 0.378, 192.0, 0.0, 0.0, 0.0, 0.0, 0.0, 0.0, 0.0, 0.0, 0.0, 1.7395407804848752E9, 0.0, 2025-02-14 10:46:20.484
59.0, -171667.16416682772, -181074.47696619952, -181219.76330515902, -174158.13197590495, -173752.20194485213, -160791.34175674221, -181358.79115567103, -167222.47507840098, -0.026000000000000002, 0.912, 0.378, 192.0, 0.0, 0.0, 0.0, 0.0, 0.0, 0.0, 0.0, 0.0, 0.0, 1.7395407804848883E9, 0.0, 2025-02-14 10:46:20.484
60.0, -171749.82091782344, -181070.36424521974, -181217.19285454665, -174410.4608190609, -173795.20670118413, -160868.1647024351, -181354.87960039134, -167390.5601967049, -0.026000000000000002, 0.912, 0.378, 192.0, 0.0, 0.0, 0.0, 0.0, 0.0, 0.0, 0.0, 0.0, 0.0, 1.7395407804849334E9, 0.0, 2025-02-14 10:46:20.484
61.0, -170888.49644523818, -181066.27387598442, -181214.018906834, -175126.20838000876, -173392.49532133286, -160638.656990368, -181350.9009898783, -168029.99890208233, -0.026000000000000002, 0.912, 0.378, 192.0, 0.0, 0.0, 0.0, 0.0, 0.0, 0.0, 0.0, 0.0, 0.0, 1.7395407804849465E9, 0.0, 2025-02-14 10:46:20.484
62.0, -170763.57254547748, -181063.12228001622, -181210.10735155432, -174953.2058779247, -173380.425379327, -160591.29364386722, -181347.57057995448, -167971.90671824297, -0.026000000000000002, 0.912, 0.378, 192.0, 0.0, 0.0, 0.0, 0.0, 0.0, 0.0, 0.0, 0.0, 0.0, 1.7395407804849591E9, 0.0, 2025-02-14 10:46:20.484
63.0, -171629.16620125368, -181059.6801113701, -181205.18996777417, -174253.99860787377, -173813.42337291522, -160859.04519069733, -181344.12841130834, -167406.98872887954, -0.026000000000000002, 0.912, 0.378, 192.0, 0.0, 0.0, 0.0, 0.0, 0.0, 0.0, 0.0, 0.0, 0.0, 1.7395407804849725E9, 0.0, 2025-02-14 10:46:20.484
64.0, -171942.62706549492, -181057.42258518012, -181203.93827008468, -174263.140471356, -173923.52806610204, -160993.6473958072, -181342.07205081847, -167423.14904012074, -0.026000000000000002, 0.912, 0.378, 192.0, 0.0, 0.0, 0.0, 0.0, 0.0, 0.0, 0.0, 0.0, 0.0, 1.7395407804849875E9, 0.0, 2025-02-14 10:46:20.484
65.0, -171136.06436682516, -181053.734547345, -181201.65839215022, -175036.19790508723, -173565.9225065616, -160760.60810811617, -181338.38401298333, -168063.50416702082, -0.026000000000000002, 0.912, 0.378, 192.0, 0.0, 0.0, 0.0, 0.0, 0.0, 0.0, 0.0, 0.0, 0.0, 1.7395407804850008E9, 0.0, 2025-02-14 10:46:20.485
66.0, -170796.22844412667, -181051.1864484771, -181198.59620315983, -175039.0142248886, -173423.1395629811, -160659.89114760057, -181335.72415539317, -168160.8013106348, -0.026000000000000002, 0.912, 0.378, 192.0, 0.0, 0.0, 0.0, 0.0, 0.0, 0.0, 0.0, 0.0, 0.0, 1.7395407804850147E9, 0.0, 2025-02-14 10:46:20.485
67.0, -171585.4014856102, -181050.40413742117, -181196.3610287143, -174345.81957409615, -173804.50502687754, -160921.0265780719, -181334.83008561493, -167597.8055712945, -0.026000000000000002, 0.924, 0.38, 192.0, 255.0, 48.0, 28.0, 224.0, 11.0, 224.0, 0.0, 0.0, 0.0, 1.739540780485028E9, 0.0, 2025-02-14 10:46:20.485
68.0, -172106.39829711895, -181047.40900366416, -181193.7235228686, -174162.26704862918, -174052.4752798647, -161104.26617911653, -181331.92435883576, -167460.78937778348, -0.026000000000000002, 0.924, 0.38, 192.0, 0.0, 0.0, 0.0, 0.0, 0.0, 0.0, 0.0, 0.0, 0.0, 1.7395407804850411E9, 0.0, 2025-02-14 10:46:20.485
69.0, -171408.26391080188, -181043.00571000646, -181191.04131353396, -174933.55869454847, -173708.41487746418, -160919.1266797932, -181327.76693436707, -168071.5284432803, -0.026000000000000002, 0.924, 0.38, 192.0, 0.0, 0.0, 0.0, 0.0, 0.0, 0.0, 0.0, 0.0, 0.0, 1.7395407804850535E9, 0.0, 2025-02-14 10:46:20.485
70.0, -170871.55382294106, -181039.25061693796, -181186.88388906527, -175113.28907171357, -173498.73316272892, -160746.52650910933, -181323.81067559848, -168317.48703926647, -0.026000000000000002, 0.924, 0.38, 192.0, 0.0, 0.0, 0.0, 0.0, 0.0, 0.0, 0.0, 0.0, 0.0, 1.7395407804850657E9, 0.0, 2025-02-14 10:46:20.485
71.0, -171521.9895865905, -181036.25548318095, -181182.2123744741, -174481.56171817324, -173858.77506241502, -160956.56585175585, -181320.61437614137, -167793.53979748962, -0.026000000000000002, 0.924, 0.38, 192.0, 0.0, 0.0, 0.0, 0.0, 0.0, 0.0, 0.0, 0.0, 0.0, 1.739540780485078E9, 0.0, 2025-02-14 10:46:20.485
72.0, -172194.7994464397, -181032.61214883474, -181177.51850813848, -174094.65302165187, -174183.52355760618, -161206.41365127728, -181316.7475243506, -167516.0875935659, -0.026000000000000002, 0.924, 0.38, 192.0, 0.0, 0.0, 0.0, 0.0, 0.0, 0.0, 0.0, 0.0, 0.0, 1.7395407804850898E9, 0.0, 2025-02-14 10:46:20.485
73.0, -171669.33228603986, -181029.23703542197, -181177.1161767383, -174772.22380307005, -173856.6963501807, -161084.26136782902, -181313.81944582696, -168054.8093384277, -0.026000000000000002, 0.924, 0.38, 192.0, 0.0, 0.0, 0.0, 0.0, 0.0, 0.0, 0.0, 0.0, 0.0, 1.7395407804851017E9, 0.0, 2025-02-14 10:46:20.485
74.0, -170973.611888124, -181025.79486677586, -181173.58460111436, -175133.7409178902, -173549.53867787585, -160864.70018204453, -181310.39962892528, -168440.57809598185, -0.026000000000000002, 0.924, 0.38, 192.0, 0.0, 0.0, 0.0, 0.0, 0.0, 0.0, 0.0, 0.0, 0.0, 1.739540780485123E9, 0.0, 2025-02-14 10:46:20.485
75.0, -171454.73318752449, -181024.6772795531, -181171.30472317993, -174582.52454787787, -173838.30086449397, -161004.5103436125, -181309.12557949134, -167996.56069237718, -0.026000000000000002, 0.924, 0.38, 192.0, 0.0, 0.0, 0.0, 0.0, 0.0, 0.0, 0.0, 0.0, 0.0, 1.7395407804851356E9, 0.0, 2025-02-14 10:46:20.485
76.0, -172239.32412139466, -181022.44210510756, -181168.06372023388, -174060.61131484644, -174238.91118036644, -161287.23755922765, -181307.00216376808, -167598.63258583934, -0.026000000000000002, 0.924, 0.38, 192.0, 0.0, 0.0, 0.0, 0.0, 0.0, 0.0, 0.0, 0.0, 0.0, 1.7395407804851484E9, 0.0, 2025-02-14 10:46:20.485
77.0, -171906.50664645515, -181020.38574461767, -181168.24253418954, -174624.88110362066, -174072.97182953023, -161228.63128526584, -181305.07991374494, -168017.414869954, -0.026000000000000002, 0.926, 0.38, 192.0, 255.0, 48.0, 28.0, 240.0, 11.0, 224.0, 0.0, 0.0, 0.0, 1.7395407804851608E9, 0.0, 2025-02-14 10:46:20.485
78.0, -171104.4813519098, -181017.5247213274, -181165.60502834382, -175149.1412698199, -173692.32162145636, -160967.51820653895, -181302.10713173237, -168519.45740216464, -0.026000000000000002, 0.926, 0.38, 192.0, 0.0, 0.0, 0.0, 0.0, 0.0, 0.0, 0.0, 0.0, 0.0, 1.7395407804851735E9, 0.0, 2025-02-14 10:46:20.485
79.0, -171378.1114075317, -181015.5801195598, -181162.69930156463, -174720.3901076782, -173849.543791955, -161047.8056726224, -181300.16252996476, -168198.93338667555, -0.026000000000000002, 0.926, 0.38, 192.0, 0.0, 0.0, 0.0, 0.0, 0.0, 0.0, 0.0, 0.0, 0.0, 1.7395407804851856E9, 0.0, 2025-02-14 10:46:20.485
80.0, -172148.01724529473, -181011.35563985773, -181156.6643305617, -174096.10588504147, -174266.04619813518, -161357.66790600633, -181295.98275375162, -167717.32034889705, -0.026000000000000002, 0.926, 0.38, 192.0, 0.0, 0.0, 0.0, 0.0, 0.0, 0.0, 0.0, 0.0, 0.0, 1.7395407804851978E9, 0.0, 2025-02-14 10:46:20.485
81.0, -172058.9678953848, -181010.26040437943, -181157.84897301783, -174449.79988930226, -174195.83936880104, -161358.07023740653, -181295.13338746232, -168013.52566641878, -0.026000000000000002, 0.926, 0.38, 192.0, 0.0, 0.0, 0.0, 0.0, 0.0, 0.0, 0.0, 0.0, 0.0, 1.73954078048521E9, 0.0, 2025-02-14 10:46:20.485
82.0, -171263.73753115386, -181007.55584330033, -181155.79261252793, -175104.4824843982, -173793.1726924387, -161092.91149293323, -181292.25001242757, -168597.04030716902, -0.026000000000000002, 0.926, 0.38, 192.0, 0.0, 0.0, 0.0, 0.0, 0.0, 0.0, 0.0, 0.0, 0.0, 1.7395407804852223E9, 0.0, 2025-02-14 10:46:20.485
83.0, -171312.06200266624, -181004.1807298876, -181151.59048457033, -174820.95060598262, -173872.00729513256, -161105.38376633928, -181288.76314029255, -168398.80268559488, -0.026000000000000002, 0.926, 0.38, 192.0, 0.0, 0.0, 0.0, 0.0, 0.0, 0.0, 0.0, 0.0, 0.0, 1.739540780485235E9, 0.0, 2025-02-14 10:46:20.485
84.0, -172097.74817201475, -181003.6219362762, -181148.8635717468, -174142.19518210832, -174321.7914488067, -161412.76495608868, -181288.15964319225, -167848.7709580387, -0.026000000000000002, 0.926, 0.38, 192.0, 0.0, 0.0, 0.0, 0.0, 0.0, 0.0, 0.0, 0.0, 0.0, 1.7395407804852471E9, 0.0, 2025-02-14 10:46:20.485
85.0, -172165.60806818106, -181000.85031996373, -181148.0589089464, -174307.62044282205, -174345.9536845629, -161469.04664862712, -181285.65624781325, -167988.0446777397, -0.026000000000000002, 0.926, 0.38, 192.0, 0.0, 0.0, 0.0, 0.0, 0.0, 0.0, 0.0, 0.0, 0.0, 1.7395407804852593E9, 0.0, 2025-02-14 10:46:20.485
86.0, -171462.35513238373, -180998.3692763292, -181146.87426649025, -175046.70322498123, -173917.0013567211, -161202.83737216442, -181283.1975559232, -168620.06260395798, -0.026000000000000002, 0.926, 0.38, 192.0, 0.0, 0.0, 0.0, 0.0, 0.0, 0.0, 0.0, 0.0, 0.0, 1.7395407804852731E9, 0.0, 2025-02-14 10:46:20.485
87.0, -171296.25931933636, -180994.9271076831, -181142.6497867882, -174921.64521475378, -173881.21621384815, -161132.25056317457, -181279.50951808805, -168578.35424880436, -0.026000000000000002, 0.932, 0.382, 192.0, 255.0, 48.0, 29.0, 32.0, 11.0, 240.0, 0.0, 0.0, 0.0, 1.7395407804852853E9, 0.0, 2025-02-14 10:46:20.485
88.0, -172059.23611631826, -180993.6307065047, -181139.02880418644, -174231.35629074054, -174313.2307306803, -161412.0049967772, -181277.9895994651, -168001.79100057972, -0.026000000000000002, 0.932, 0.382, 192.0, 0.0, 0.0, 0.0, 0.0, 0.0, 0.0, 0.0, 0.0, 0.0, 1.7395407804852984E9, 0.0, 2025-02-14 10:46:20.485
89.0, -172236.70896729338, -180992.6248780042, -181139.252321631, -174178.04738021462, -174470.1399767566, -161559.81708286013, -181277.3861023648, -167981.83089278114, -0.026000000000000002, 0.932, 0.382, 192.0, 0.0, 0.0, 0.0, 0.0, 0.0, 0.0, 0.0, 0.0, 0.0, 1.7395407804853182E9, 0.0, 2025-02-14 10:46:20.485
90.0, -171649.64039917474, -180990.63557274768, -181139.18526639763, -174946.88033424382, -174067.2497829497, -161339.00419938617, -181275.4862040861, -168616.7545457786, -0.026000000000000002, 0.932, 0.382, 192.0, 0.0, 0.0, 0.0, 0.0, 0.0, 0.0, 0.0, 0.0, 0.0, 1.7395407804853308E9, 0.0, 2025-02-14 10:46:20.485
91.0, -171296.46048503646, -180987.3722180572, -181135.34076635132, -174992.56729991047, -173914.2073886642, -161201.16099133028, -181272.02168369552, -168733.07302392402, -0.026000000000000002, 0.932, 0.382, 192.0, 0.0, 0.0, 0.0, 0.0, 0.0, 0.0, 0.0, 0.0, 0.0, 1.7395407804853437E9, 0.0, 2025-02-14 10:46:20.485
92.0, -171994.01372599768, -180984.37708430018, -181130.46808606008, -174331.8497338116, -174339.38227169303, -161444.52678495966, -181268.9371429607, -168169.07145608324, -0.026000000000000002, 0.932, 0.382, 192.0, 0.0, 0.0, 0.0, 0.0, 0.0, 0.0, 0.0, 0.0, 0.0, 1.739540780485356E9, 0.0, 2025-02-14 10:46:20.485
93.0, -172309.10626758414, -180982.9689243995, -181129.08227790383, -174093.31191698456, -174544.01249218138, -161641.87033675556, -181267.81955573792, -168007.24482622682, -0.026000000000000002, 0.932, 0.382, 192.0, 0.0, 0.0, 0.0, 0.0, 0.0, 0.0, 0.0, 0.0, 0.0, 1.739540780485368E9, 0.0, 2025-02-14 10:46:20.485
94.0, -171853.7565295406, -180981.22548833198, -181129.8422372153, -174824.3257193954, -174204.64595611644, -161464.7998171806, -181266.0761196704, -168597.28617635803, -0.026000000000000002, 0.932, 0.382, 192.0, 0.0, 0.0, 0.0, 0.0, 0.0, 0.0, 0.0, 0.0, 0.0, 1.73954078048538E9, 0.0, 2025-02-14 10:46:20.485
95.0, -171345.25434318237, -180976.12929059617, -181124.6566325017, -175040.9141231673, -173959.84965084193, -161273.6253468544, -181261.04697716798, -168859.85211847452, -0.026000000000000002, 0.932, 0.382, 192.0, 0.0, 0.0, 0.0, 0.0, 0.0, 0.0, 0.0, 0.0, 0.0, 1.739540780485393E9, 0.0, 2025-02-14 10:46:20.485
96.0, -171902.03629756407, -180973.40237777264, -181120.07452488836, -174433.14783968305, -174290.38724784701, -161472.0194306397, -181258.0294916665, -168339.61526627725, -0.026000000000000002, 0.932, 0.382, 192.0, 0.0, 0.0, 0.0, 0.0, 0.0, 0.0, 0.0, 0.0, 0.0, 1.739540780485407E9, 0.0, 2025-02-14 10:46:20.485
97.0, -172305.77585766028, -180972.39654927215, -181118.10757137628, -174033.56570405554, -174608.29610923483, -161714.75937542433, -181257.20247712167, -168030.20006778243, -0.02, 0.932, 0.382, 192.0, 255.0, 96.0, 29.0, 32.0, 11.0, 240.0, 0.0, 0.0, 0.0, 1.7395407804854195E9, 0.0, 2025-02-14 10:46:20.485
98.0, -172003.87084530244, -180971.14485158265, -181119.5380830214, -174683.3309153713, -174372.41814999797, -161579.44191449188, -181255.9284276877, -168538.94812332967, -0.02, 0.932, 0.382, 192.0, 0.0, 0.0, 0.0, 0.0, 0.0, 0.0, 0.0, 0.0, 0.0, 1.7395407804854329E9, 0.0, 2025-02-14 10:46:20.485
99.0, -171408.46507650198, -180967.70268293653, -181116.20767309758, -175071.40190260435, -174037.4325558463, -161336.6349144739, -181252.4862590416, -168936.13862230047, -0.02, 0.932, 0.382, 192.0, 0.0, 0.0, 0.0, 0.0, 0.0, 0.0, 0.0, 0.0, 0.0, 1.7395407804854453E9, 0.0, 2025-02-14 10:46:20.485
100.0, -171813.97042441016, -180967.09918583624, -181114.33012656335, -174557.7588150214, -174281.893584954, -161477.7638289647, -181251.54748577447, -168500.4807711221, -0.02, 0.932, 0.382, 192.0, 0.0, 0.0, 0.0, 0.0, 0.0, 0.0, 0.0, 0.0, 0.0, 1.7395407804854577E9, 0.0, 2025-02-14 10:46:20.485
101.0, -172304.43475299297, -180965.69102593555, -181111.46910327306, -174034.05744243355, -174663.728435484, -161757.04887593377, -181250.31813982944, -168079.6197747731, -0.02, 0.932, 0.382, 192.0, 0.0, 0.0, 0.0, 0.0, 0.0, 0.0, 0.0, 0.0, 0.0, 1.7395407804854703E9, 0.0, 2025-02-14 10:46:20.485
102.0, -172127.3195299291, -180962.42767124507, -181110.53033000595, -174532.3448815757, -174478.0301425493, -161685.34447972113, -181247.16654386124, -168481.07945693488, -0.02, 0.932, 0.382, 192.0, 0.0, 0.0, 0.0, 0.0, 0.0, 0.0, 0.0, 0.0, 0.0, 1.7395407804854832E9, 0.0, 2025-02-14 10:46:20.485
103.0, -171514.1441242867, -180960.66188343312, -181109.23392882754, -175064.15993740084, -174102.00674557767, -161424.0972905275, -181245.4231077937, -168996.75655326326, -0.02, 0.932, 0.382, 192.0, 0.0, 0.0, 0.0, 0.0, 0.0, 0.0, 0.0, 0.0, 0.0, 1.739540780485496E9, 0.0, 2025-02-14 10:46:20.485
104.0, -171731.7383565591, -180959.43253748806, -181107.06580961536, -174667.5282320414, -174246.7789944147, -161478.43438129837, -181243.94789265966, -168679.4511889757, -0.02, 0.932, 0.382, 192.0, 0.0, 0.0, 0.0, 0.0, 0.0, 0.0, 0.0, 0.0, 0.0, 1.7395407804855282E9, 0.0, 2025-02-14 10:46:20.485
105.0, -172297.43865697845, -180957.80086014283, -181103.69069620263, -174060.7901288021, -174657.89463018117, -161770.0799429512, -181242.40562229225, -168163.03648508032, -0.02, 0.932, 0.382, 192.0, 0.0, 0.0, 0.0, 0.0, 0.0, 0.0, 0.0, 0.0, 0.0, 1.7395407804855409E9, 0.0, 2025-02-14 10:46:20.485
106.0, -172243.45919411888, -180957.42088048707, -181105.16591133666, -174387.48322576087, -174591.97933578247, -161781.41227739005, -181242.15975310325, -168412.48195320152, -0.02, 0.932, 0.382, 192.0, 0.0, 0.0, 0.0, 0.0, 0.0, 0.0, 0.0, 0.0, 0.0, 1.739540780485553E9, 0.0, 2025-02-14 10:46:20.485
107.0, -171661.64328594724, -180953.17404904056, -181101.67903920164, -175030.74407944013, -174188.9103280199, -161514.06306196013, -181237.77881119, -169002.34448937708, -0.024, 0.932, 0.38, 192.0, 255.0, 64.0, 29.0, 32.0, 11.0, 224.0, 0.0, 0.0, 0.0, 1.739540780485567E9, 0.0, 2025-02-14 10:46:20.485
108.0, -171680.3740478008, -180952.59290368474, -181100.42734151214, -174773.18492808164, -174224.00256681474, -161504.60827405553, -181237.08590711188, -168830.43722277132, -0.024, 0.932, 0.38, 192.0, 0.0, 0.0, 0.0, 0.0, 0.0, 0.0, 0.0, 0.0, 0.0, 1.7395407804855807E9, 0.0, 2025-02-14 10:46:20.485
109.0, -172264.04515076222, -180950.53654319484, -181096.49343448802, -174126.61601622298, -174660.44272904907, -161776.941928499, -181235.27541581102, -168263.9099078071, -0.024, 0.932, 0.38, 192.0, 0.0, 0.0, 0.0, 0.0, 0.0, 0.0, 0.0, 0.0, 0.0, 1.7395407804855933E9, 0.0, 2025-02-14 10:46:20.485
110.0, -172329.24518933837, -180949.03897631634, -181096.29226878792, -174244.29795078016, -174726.5368374034, -161857.07293237126, -181233.7778489325, -168360.22357466503, -0.024, 0.932, 0.38, 192.0, 0.0, 0.0, 0.0, 0.0, 0.0, 0.0, 0.0, 0.0, 0.0, 1.7395407804856057E9, 0.0, 2025-02-14 10:46:20.485
111.0, -171810.5059040196, -180945.82032511476, -181094.54883272038, -174959.37495939434, -174303.17244567545, -161609.1920863619, -181230.49214249756, -168984.91012870194, -0.024, 0.932, 0.38, 192.0, 0.0, 0.0, 0.0, 0.0, 0.0, 0.0, 0.0, 0.0, 0.0, 1.7395407804856179E9, 0.0, 2025-02-14 10:46:20.485
112.0, -171643.1583932827, -180944.210999514, -181092.26895478595, -174853.83002207638, -174220.31452897962, -161528.41288190044, -181228.74870643005, -168967.4757680268, -0.024, 0.932, 0.38, 192.0, 0.0, 0.0, 0.0, 0.0, 0.0, 0.0, 0.0, 0.0, 0.0, 1.73954078048563E9, 0.0, 2025-02-14 10:46:20.485
113.0, -172225.98012995484, -180943.2051710135, -181089.2961727734, -174194.34180192254, -174622.35535649722, -161782.28399542382, -181227.8769883963, -168385.45869415507, -0.024, 0.932, 0.38, 192.0, 0.0, 0.0, 0.0, 0.0, 0.0, 0.0, 0.0, 0.0, 0.0, 1.739540780485642E9, 0.0, 2025-02-14 10:46:20.485
114.0, -172403.00594604088, -180940.72412737896, -181087.41862623914, -174125.0960976, -174784.8078351984, -161927.32446519428, -181225.3288895284, -168329.84755395027, -0.024, 0.932, 0.38, 192.0, 0.0, 0.0, 0.0, 0.0, 0.0, 0.0, 0.0, 0.0, 0.0, 1.7395407804856544E9, 0.0, 2025-02-14 10:46:20.485
115.0, -171949.75727197615, -180938.1536767666, -181086.88218437223, -174860.80376634645, -174423.15660991153, -161708.7691079103, -181222.75843891603, -168948.09680558406, -0.024, 0.932, 0.38, 192.0, 0.0, 0.0, 0.0, 0.0, 0.0, 0.0, 0.0, 0.0, 0.0, 1.739540780485667E9, 0.0, 2025-02-14 10:46:20.485
116.0, -171626.61810238578, -180937.0584412883, -181085.20580353806, -174919.81237170845, -174248.8353549046, -161555.4361409469, -181221.50674122653, -169091.2150253314, -0.024, 0.932, 0.38, 192.0, 0.0, 0.0, 0.0, 0.0, 0.0, 0.0, 0.0, 0.0, 0.0, 1.7395407804856796E9, 0.0, 2025-02-14 10:46:20.485
117.0, -172159.05900705565, -180934.04095578683, -181080.55664069136, -174281.67006750943, -174603.8704638327, -161780.74172505637, -181218.71277316962, -168528.62161739133, -0.028, 0.932, 0.38, 192.0, 255.0, 32.0, 29.0, 32.0, 11.0, 224.0, 0.0, 0.0, 0.0, 1.739540780485692E9, 0.0, 2025-02-14 10:46:20.485
118.0, -172437.13705982413, -180932.09635401922, -181078.0532453124, -174033.58805579998, -174855.88638256627, -161987.89769266816, -181216.74581965755, -168326.07010913733, -0.028, 0.932, 0.38, 192.0, 0.0, 0.0, 0.0, 0.0, 0.0, 0.0, 0.0, 0.0, 0.0, 1.7395407804857268E9, 0.0, 2025-02-14 10:46:20.485
119.0, -172072.80362520262, -180930.7552493519, -181079.41670172414, -174741.490154444, -174552.23793414093, -161811.9000568271, -181215.31530801242, -168896.5089793812, -0.028, 0.932, 0.38, 192.0, 0.0, 0.0, 0.0, 0.0, 0.0, 0.0, 0.0, 0.0, 0.0, 1.7395407804857397E9, 0.0, 2025-02-14 10:46:20.485
120.0, -171653.39549224323, -180931.53756040783, -181079.90844010215, -174963.28651467402, -174297.69626828388, -161616.7916794767, -181215.96350860162, -169184.51120668784, -0.028, 0.932, 0.38, 192.0, 0.0, 0.0, 0.0, 0.0, 0.0, 0.0, 0.0, 0.0, 0.0, 1.7395407809640052E9, 0.0, 2025-02-14 10:46:20.964
121.0, -172088.40514283243, -180930.17410399608, -181077.0921203008, -174380.04009485725, -174581.02698099936, -161788.60953910465, -181214.68945916765, -168677.35012499694, -0.028, 0.932, 0.38, 192.0, 0.0, 0.0, 0.0, 0.0, 0.0, 0.0, 0.0, 0.0, 0.0, 1.739540780964054E9, 0.0, 2025-02-14 10:46:20.964
122.0, -172488.43431334905, -180927.33543245023, -181072.86764059874, -173985.2188807987, -174860.08851052387, -162030.72363504453, -181211.89549111074, -168345.85140298028, -0.028, 0.932, 0.38, 192.0, 0.0, 0.0, 0.0, 0.0, 0.0, 0.0, 0.0, 0.0, 0.0, 1.7395407809640849E9, 0.0, 2025-02-14 10:46:20.964
123.0, -172230.51753407926, -180926.5084179054, -181075.05811155535, -174605.6138999002, -174640.30380729484, -161916.39446215564, -181211.15788354372, -168832.9406181503, -0.028, 0.932, 0.38, 192.0, 0.0, 0.0, 0.0, 0.0, 0.0, 0.0, 0.0, 0.0, 0.0, 1.7395407809640996E9, 0.0, 2025-02-14 10:46:20.964
124.0, -171724.5857983334, -180922.57451088127, -181071.12420453122, -174986.800549841, -174332.52028614527, -161670.659383614, -181207.08986605288, -169254.87449823314, -0.028, 0.932, 0.38, 192.0, 0.0, 0.0, 0.0, 0.0, 0.0, 0.0, 0.0, 0.0, 0.0, 1.7395407809641135E9, 0.0, 2025-02-14 10:46:20.964
125.0, -172024.32269147906, -180920.8087230693, -181068.1961260076, -174486.25558450885, -174548.37108235015, -161788.00604200436, -181205.18996777417, -168840.92019092088, -0.028, 0.932, 0.38, 192.0, 0.0, 0.0, 0.0, 0.0, 0.0, 0.0, 0.0, 0.0, 0.0, 1.739540780964127E9, 0.0, 2025-02-14 10:46:20.964
126.0, -172483.4051708466, -180918.81941781277, -181064.0387015389, -173973.551270193, -174924.10390664387, -162057.00928652397, -181203.267717751, -168403.4518484416, -0.028, 0.932, 0.38, 192.0, 0.0, 0.0, 0.0, 0.0, 0.0, 0.0, 0.0, 0.0, 0.0, 1.7395407809641404E9, 0.0, 2025-02-14 10:46:20.964
127.0, -172340.39870982157, -180919.17704572406, -181067.3467597183, -174460.55107838527, -174772.24615481452, -162003.81213472036, -181203.73710438458, -168762.8902510274, -0.03, 0.926, 0.382, 192.0, 255.0, 16.0, 28.0, 240.0, 11.0, 240.0, 0.0, 0.0, 0.0, 1.7395407809641538E9, 0.0, 2025-02-14 10:46:20.964
128.0, -171815.26682558857, -180916.33837417822, -181065.02217829492, -174987.87343357486, -174406.1692841255, -161742.85551820465, -181200.80902586092, -169283.59648985823, -0.03, 0.926, 0.382, 192.0, 0.0, 0.0, 0.0, 0.0, 0.0, 0.0, 0.0, 0.0, 0.0, 1.7395407809641683E9, 0.0, 2025-02-14 10:46:20.964
129.0, -171960.01672268115, -180914.46082764398, -181062.228210238, -174599.22130098598, -174530.55674201928, -161781.92636751253, -181198.79736885993, -168996.6894980299, -0.03, 0.926, 0.382, 192.0, 0.0, 0.0, 0.0, 0.0, 0.0, 0.0, 0.0, 0.0, 0.0, 1.7395407809641824E9, 0.0, 2025-02-14 10:46:20.964
130.0, -172460.91931592458, -180913.61146135468, -181059.5907043923, -173998.4287617718, -174937.35849110587, -162058.14922549122, -181198.03740954847, -168480.5653668124, -0.03, 0.926, 0.382, 192.0, 0.0, 0.0, 0.0, 0.0, 0.0, 0.0, 0.0, 0.0, 0.0, 1.7395407809641955E9, 0.0, 2025-02-14 10:46:20.964
131.0, -172444.49078374993, -180912.4938741319, -181060.3283119593, -174333.43670766792, -174914.67147048374, -162087.34060374982, -181197.03158104798, -168698.49487525164, -0.03, 0.926, 0.382, 192.0, 0.0, 0.0, 0.0, 0.0, 0.0, 0.0, 0.0, 0.0, 0.0, 1.7395407809642088E9, 0.0, 2025-02-14 10:46:20.964
132.0, -171920.14121057288, -180908.47056012996, -181057.22141948002, -174971.44490140022, -174515.64812846758, -161833.58124894873, -181193.008267046, -169287.9103765381, -0.03, 0.926, 0.382, 192.0, 0.0, 0.0, 0.0, 0.0, 0.0, 0.0, 0.0, 0.0, 0.0, 1.7395407809642217E9, 0.0, 2025-02-14 10:46:20.964
133.0, -171913.99448084767, -180907.73295256295, -181055.85796306827, -174718.75843033296, -174523.0465558823, -161805.37334744615, -181192.22595599008, -169139.91947649952, -0.03, 0.926, 0.382, 192.0, 0.0, 0.0, 0.0, 0.0, 0.0, 0.0, 0.0, 0.0, 0.0, 1.7395407809642713E9, 0.0, 2025-02-14 10:46:20.964
134.0, -172437.82996390224, -180906.77182755136, -181052.66166361116, -174078.00097203266, -174918.35950831886, -162074.33188847685, -181191.33188621188, -168573.8391964244, -0.03, 0.926, 0.382, 192.0, 0.0, 0.0, 0.0, 0.0, 0.0, 0.0, 0.0, 0.0, 0.0, 1.739540780964285E9, 0.0, 2025-02-14 10:46:20.964
135.0, -172547.0852907998, -180907.442379885, -181054.5839136343, -174184.5070343622, -174982.46431141667, -162170.44438963468, -181192.09184552336, -168643.7107495917, -0.03, 0.926, 0.382, 192.0, 0.0, 0.0, 0.0, 0.0, 0.0, 0.0, 0.0, 0.0, 0.0, 1.739540780964298E9, 0.0, 2025-02-14 10:46:20.964
136.0, -172040.84063063154, -180903.93315600554, -181052.81812582232, -174897.4829789976, -174603.89281557713, -161923.83759305926, -181188.5602698994, -169260.86476574716, -0.03, 0.926, 0.382, 192.0, 0.0, 0.0, 0.0, 0.0, 0.0, 0.0, 0.0, 0.0, 0.0, 1.7395407809643116E9, 0.0, 2025-02-14 10:46:20.964
137.0, -171890.72631486968, -180902.81556878277, -181051.05233801037, -174798.86708246078, -174526.9357594175, -161826.31693200077, -181187.24151697656, -169273.31468740877, -0.038, 0.924, 0.386, 192.0, 254.0, 208.0, 28.0, 224.0, 12.0, 16.0, 0.0, 0.0, 0.0, 1.7395407809643245E9, 0.0, 2025-02-14 10:46:20.964
138.0, -172380.76596030785, -180900.17806293705, -181046.09025074128, -174144.76563272066, -174910.87167392633, -162076.2988419889, -181184.7157698531, -168701.4676572642, -0.038, 0.924, 0.386, 192.0, 0.0, 0.0, 0.0, 0.0, 0.0, 0.0, 0.0, 0.0, 0.0, 1.7395407809643388E9, 0.0, 2025-02-14 10:46:20.964
139.0, -172626.4563353606, -180895.95358323498, -181042.3798611617, -174064.65698059284, -175077.95096372976, -162227.2848757845, -181180.42423491768, -168622.9012755038, -0.038, 0.924, 0.386, 192.0, 0.0, 0.0, 0.0, 0.0, 0.0, 0.0, 0.0, 0.0, 0.0, 1.7395407809643524E9, 0.0, 2025-02-14 10:46:20.964
140.0, -172167.26209727075, -180893.98662972293, -181042.91630302864, -174801.59399528432, -174728.77201184895, -162023.8840012412, -181178.74785408354, -169233.10389913368, -0.038, 0.924, 0.386, 192.0, 0.0, 0.0, 0.0, 0.0, 0.0, 0.0, 0.0, 0.0, 0.0, 1.7395407809643657E9, 0.0, 2025-02-14 10:46:20.964
141.0, -171894.68257363827, -180893.80781576727, -181042.20104720606, -174865.9223158267, -174536.81523046677, -161875.1554936356, -181178.2561157055, -169396.96453773553, -0.038, 0.924, 0.386, 192.0, 0.0, 0.0, 0.0, 0.0, 0.0, 0.0, 0.0, 0.0, 0.0, 1.7395407809643793E9, 0.0, 2025-02-14 10:46:20.964
142.0, -172318.7175176999, -180892.31024888877, -181039.07180298233, -174226.84123836056, -174872.65019090776, -162093.48733347506, -181176.84795580484, -168841.79190895462, -0.038, 0.924, 0.386, 192.0, 0.0, 0.0, 0.0, 0.0, 0.0, 0.0, 0.0, 0.0, 0.0, 1.739540780964392E9, 0.0, 2025-02-14 10:46:20.964
143.0, -172694.29387978243, -180892.04202795532, -181038.44595413757, -173982.38020925288, -175125.22490325273, -162296.3964696403, -181176.44562440465, -168614.16174342178, -0.038, 0.924, 0.386, 192.0, 0.0, 0.0, 0.0, 0.0, 0.0, 0.0, 0.0, 0.0, 0.0, 1.7395407809644055E9, 0.0, 2025-02-14 10:46:20.964
144.0, -172281.5689184152, -180889.91861223205, -181038.80358204886, -174703.55924410335, -174845.44811790565, -162124.62331350127, -181174.54572612594, -169168.172081491, -0.038, 0.924, 0.386, 192.0, 0.0, 0.0, 0.0, 0.0, 0.0, 0.0, 0.0, 0.0, 0.0, 1.7395407809644196E9, 0.0, 2025-02-14 10:46:20.964
145.0, -171922.06346059602, -180887.16934766405, -181035.76374480294, -174931.72585150314, -174600.8082748423, -161920.08249999076, -181171.52824062447, -169475.70973345157, -0.038, 0.924, 0.386, 192.0, 0.0, 0.0, 0.0, 0.0, 0.0, 0.0, 0.0, 0.0, 0.0, 1.739540780964434E9, 0.0, 2025-02-14 10:46:20.964
146.0, -172246.14140345354, -180884.30832437376, -181031.51691335643, -174354.53675443374, -174864.7153216261, -162081.61855716928, -181168.7119208231, -168985.8489019691, -0.038, 0.924, 0.386, 192.0, 0.0, 0.0, 0.0, 0.0, 0.0, 0.0, 0.0, 0.0, 0.0, 1.7395407809644473E9, 0.0, 2025-02-14 10:46:20.964
147.0, -172727.03918540946, -180882.5425365618, -181027.91828249913, -173948.36085419188, -175181.30543009107, -162323.15150775333, -181166.78967079995, -168629.18211569573, -0.038, 0.92, 0.392, 192.0, 254.0, 208.0, 28.0, 192.0, 12.0, 64.0, 0.0, 0.0, 0.0, 1.7395407809644604E9, 0.0, 2025-02-14 10:46:20.964
148.0, -172421.6025974277, -180881.2461353834, -181029.84053252227, -174555.54599232032, -174990.6003463984, -162216.82425937944, -181165.82854578836, -169087.83991191865, -0.038, 0.92, 0.392, 192.0, 0.0, 0.0, 0.0, 0.0, 0.0, 0.0, 0.0, 0.0, 0.0, 1.739540780964491E9, 0.0, 2025-02-14 10:46:20.964
149.0, -171986.3470776495, -180879.7485685049, -181028.43237262158, -174947.57323832193, -174655.1230138687, -161984.90255891116, -181164.33097890986, -169521.48610609604, -0.038, 0.92, 0.392, 192.0, 0.0, 0.0, 0.0, 0.0, 0.0, 0.0, 0.0, 0.0, 0.0, 1.7395407809645047E9, 0.0, 2025-02-14 10:46:20.964
150.0, -172199.4933127753, -180876.52991730333, -181024.38670687517, -174451.40921490305, -174831.09829796533, -162095.27547303148, -181161.20173468612, -169133.21395316292, -0.038, 0.92, 0.392, 192.0, 0.0, 0.0, 0.0, 0.0, 0.0, 0.0, 0.0, 0.0, 0.0, 1.7395407809645176E9, 0.0, 2025-02-14 10:46:20.964
151.0, -172731.53188604498, -180876.10523415866, -181022.21858766302, -173928.5125051156, -175198.58332855505, -162355.85210989145, -181160.53118235245, -168678.3559534974, -0.038, 0.92, 0.392, 192.0, 0.0, 0.0, 0.0, 0.0, 0.0, 0.0, 0.0, 0.0, 0.0, 1.7395407809645305E9, 0.0, 2025-02-14 10:46:20.964
152.0, -172565.52547997542, -180874.1382806466, -181022.68797429657, -174420.56380755472, -175083.9188794993, -162303.97371101068, -181158.85480151832, -169015.46496337236, -0.038, 0.92, 0.392, 192.0, 0.0, 0.0, 0.0, 0.0, 0.0, 0.0, 0.0, 0.0, 0.0, 1.739540780964543E9, 0.0, 2025-02-14 10:46:20.964
153.0, -172067.68507572234, -180873.6018387797, -181022.55386382985, -174948.33319763342, -174719.27252045544, -162051.73427483253, -181158.25130441802, -169545.20130696314, -0.038, 0.92, 0.392, 192.0, 0.0, 0.0, 0.0, 0.0, 0.0, 0.0, 0.0, 0.0, 0.0, 1.739540780964556E9, 0.0, 2025-02-14 10:46:20.964
154.0, -172142.45166092535, -180870.1373183891, -181018.15057017215, -174569.53818434934, -174827.49966710803, -162088.7487636505, -181154.6079700718, -169276.71215256597, -0.038, 0.92, 0.392, 192.0, 0.0, 0.0, 0.0, 0.0, 0.0, 0.0, 0.0, 0.0, 0.0, 1.7395407809645684E9, 0.0, 2025-02-14 10:46:20.964
155.0, -172684.19089128863, -180870.38318757812, -181015.5801195598, -173967.73981663465, -175226.6571195909, -162352.09701682295, -181154.764432283, -168750.6191433214, -0.038, 0.92, 0.392, 192.0, 0.0, 0.0, 0.0, 0.0, 0.0, 0.0, 0.0, 0.0, 0.0, 1.7395407809645813E9, 0.0, 2025-02-14 10:46:20.964
156.0, -172674.73610338403, -180868.1480131326, -181016.09420968225, -174262.84989867808, -175218.02934623117, -162381.75778171513, -181152.81983051536, -168944.54287821567, -0.038, 0.92, 0.392, 192.0, 0.0, 0.0, 0.0, 0.0, 0.0, 0.0, 0.0, 0.0, 0.0, 1.739540780964594E9, 0.0, 2025-02-14 10:46:20.964
157.0, -172141.9375708029, -180867.5892195212, -181016.80946550483, -174916.16903736224, -174833.80285904443, -162142.52706080998, -181152.37279562626, -169539.7251295716, -0.036000000000000004, 0.92, 0.39, 192.0, 254.0, 224.0, 28.0, 192.0, 12.0, 48.0, 0.0, 0.0, 0.0, 1.7395407809646072E9, 0.0, 2025-02-14 10:46:20.964
158.0, -172126.93955027338, -180865.71167298694, -181014.1272561702, -174673.54085129988, -174842.27417019298, -162101.7574789235, -181150.3611386253, -169416.16468622265, -0.036000000000000004, 0.92, 0.39, 192.0, 0.0, 0.0, 0.0, 0.0, 0.0, 0.0, 0.0, 0.0, 0.0, 1.739540780964621E9, 0.0, 2025-02-14 10:46:20.964
159.0, -172644.11421348026, -180864.81760320874, -181010.81919799082, -174023.12743939488, -175201.06437218958, -162369.68783970928, -181149.33295838034, -168853.43716781583, -0.036000000000000004, 0.92, 0.39, 192.0, 0.0, 0.0, 0.0, 0.0, 0.0, 0.0, 0.0, 0.0, 0.0, 1.7395407809646342E9, 0.0, 2025-02-14 10:46:20.964
160.0, -172806.3431747369, -180862.7835944633, -181010.26040437943, -174130.52757150264, -175283.63171620748, -162461.46410244275, -181147.38835661273, -168896.79955205912, -0.036000000000000004, 0.92, 0.39, 192.0, 0.0, 0.0, 0.0, 0.0, 0.0, 0.0, 0.0, 0.0, 0.0, 1.7395407809646468E9, 0.0, 2025-02-14 10:46:20.964
161.0, -172238.05007196072, -180860.07903338422, -181009.4780933235, -174855.43934767717, -174909.86584542584, -162235.35385553289, -181144.88496123374, -169516.03228044897, -0.036000000000000004, 0.92, 0.39, 192.0, 0.0, 0.0, 0.0, 0.0, 0.0, 0.0, 0.0, 0.0, 0.0, 1.7395407809646602E9, 0.0, 2025-02-14 10:46:20.964
162.0, -172112.3662128885, -180858.3355973167, -181007.0864566668, -174772.78259668144, -174814.5133035795, -162130.88180194877, -181142.94035946613, -169552.35386518884, -0.036000000000000004, 0.92, 0.39, 192.0, 0.0, 0.0, 0.0, 0.0, 0.0, 0.0, 0.0, 0.0, 0.0, 1.7395407809646797E9, 0.0, 2025-02-14 10:46:20.964
163.0, -172559.42345373912, -180856.5921612492, -181003.1749013871, -174124.13497258842, -175188.16741563886, -162368.90552865333, -181140.9510542096, -168986.385343836, -0.036000000000000004, 0.92, 0.39, 192.0, 0.0, 0.0, 0.0, 0.0, 0.0, 0.0, 0.0, 0.0, 0.0, 1.7395407809646928E9, 0.0, 2025-02-14 10:46:20.964
164.0, -172889.8492920219, -180857.1956583495, -181003.8678054652, -174024.40148882885, -175369.90944980498, -162525.1665741404, -181141.5545513099, -168878.42641811687, -0.036000000000000004, 0.92, 0.39, 192.0, 0.0, 0.0, 0.0, 0.0, 0.0, 0.0, 0.0, 0.0, 0.0, 1.7395407809647052E9, 0.0, 2025-02-14 10:46:20.964
165.0, -172341.80686972223, -180855.7427949599, -181005.00774443243, -174758.2092592966, -175043.97631215767, -162334.84147010345, -181140.52637106495, -169466.9478496251, -0.036000000000000004, 0.92, 0.39, 192.0, 0.0, 0.0, 0.0, 0.0, 0.0, 0.0, 0.0, 0.0, 0.0, 1.7395407809647183E9, 0.0, 2025-02-14 10:46:20.964
166.0, -172116.367175146, -180854.26757982583, -181002.99608743144, -174843.74938532704, -174839.63666434726, -162180.8826542953, -181138.8052867419, -169653.5849158269, -0.036000000000000004, 0.92, 0.39, 192.0, 0.0, 0.0, 0.0, 0.0, 0.0, 0.0, 0.0, 0.0, 0.0, 1.739540780964744E9, 0.0, 2025-02-14 10:46:20.964
167.0, -172491.8094267618, -180853.2841030698, -181000.24682286344, -174219.84514234605, -175169.9060404189, -162365.1280838404, -181137.73240300803, -169118.6629675225, -0.032, 0.916, 0.396, 192.0, 255.0, 0.0, 28.0, 160.0, 12.0, 96.0, 0.0, 0.0, 0.0, 1.7395407809647644E9, 0.0, 2025-02-14 10:46:20.964
168.0, -172951.78597590758, -180852.01005363587, -180997.8775379512, -173945.27631345706, -175450.82276473317, -162551.45222561984, -181136.32424310737, -168872.95024072533, -0.032, 0.916, 0.396, 192.0, 0.0, 0.0, 0.0, 0.0, 0.0, 0.0, 0.0, 0.0, 0.0, 1.7395407809647791E9, 0.0, 2025-02-14 10:46:20.964
169.0, -172467.3119148388, -180849.57371349022, -180998.5704420293, -174634.6711676921, -175184.47937780374, -162401.33790985798, -181134.22317912857, -169407.58161635182, -0.032, 0.916, 0.396, 192.0, 0.0, 0.0, 0.0, 0.0, 0.0, 0.0, 0.0, 0.0, 0.0, 1.7395407809647932E9, 0.0, 2025-02-14 10:46:20.964
170.0, -172131.00756776423, -180846.44446926648, -180995.35179082773, -174887.67056318172, -174870.3703129733, -162208.19648601967, -181131.02687967147, -169740.95788490272, -0.032, 0.916, 0.396, 192.0, 0.0, 0.0, 0.0, 0.0, 0.0, 0.0, 0.0, 0.0, 0.0, 1.7395407809648068E9, 0.0, 2025-02-14 10:46:20.964
171.0, -172413.06423104578, -180846.91385590006, -180994.30125883833, -174324.7418790748, -175130.07523179954, -162355.49448198016, -181131.42921107163, -169275.7063240655, -0.032, 0.916, 0.396, 192.0, 0.0, 0.0, 0.0, 0.0, 0.0, 0.0, 0.0, 0.0, 0.0, 1.7395407809648197E9, 0.0, 2025-02-14 10:46:20.964
172.0, -172972.55074650655, -180846.8915041556, -180992.3119535818, -173904.9984699486, -175478.49422436886, -162588.60082490454, -181131.1609901382, -168903.08039225108, -0.032, 0.916, 0.396, 192.0, 0.0, 0.0, 0.0, 0.0, 0.0, 0.0, 0.0, 0.0, 0.0, 1.7395407809648328E9, 0.0, 2025-02-14 10:46:20.964
173.0, -172615.86160848878, -180843.06935585375, -180991.93197392608, -174492.44701772297, -175283.7658266742, -162501.07139361757, -181127.7411732365, -169336.50306898393, -0.032, 0.916, 0.396, 192.0, 0.0, 0.0, 0.0, 0.0, 0.0, 0.0, 0.0, 0.0, 0.0, 1.739540780964847E9, 0.0, 2025-02-14 10:46:20.964
174.0, -172171.2854112727, -180841.46003025296, -180990.50146228092, -174911.45281928216, -174938.40902309527, -162275.81051299698, -181126.06479240238, -169781.74981853366, -0.032, 0.916, 0.396, 192.0, 0.0, 0.0, 0.0, 0.0, 0.0, 0.0, 0.0, 0.0, 0.0, 1.7395407809648616E9, 0.0, 2025-02-14 10:46:20.964
175.0, -172353.56388730573, -180840.32009128574, -180988.4227500466, -174436.43354611797, -175114.16078974734, -162352.02996158958, -181124.92485343516, -169413.19190421008, -0.032, 0.916, 0.396, 192.0, 0.0, 0.0, 0.0, 0.0, 0.0, 0.0, 0.0, 0.0, 0.0, 1.7395407809648752E9, 0.0, 2025-02-14 10:46:20.964
176.0, -172950.24370554017, -180840.2306843079, -180986.23227908998, -173901.9362809582, -175497.44850366694, -162608.53858095867, -181124.5001702905, -168944.18525030438, -0.032, 0.916, 0.396, 192.0, 0.0, 0.0, 0.0, 0.0, 0.0, 0.0, 0.0, 0.0, 0.0, 1.7395407809648893E9, 0.0, 2025-02-14 10:46:20.964
177.0, -172768.2334504406, -180835.9838528614, -180984.5558982558, -174369.51242321878, -175393.31172624967, -162580.5765486451, -181120.5439115219, -169255.0533121888, -0.03, 0.91, 0.4, 192.0, 255.0, 16.0, 28.0, 112.0, 12.0, 128.0, 0.0, 0.0, 0.0, 1.7395407809649131E9, 0.0, 2025-02-14 10:46:20.964
178.0, -172217.03943217272, -180834.82156214974, -180984.220622089, -174920.59468276438, -175000.61392791438, -162337.38956897135, -181119.56043476588, -169802.8722170439, -0.03, 0.91, 0.4, 192.0, 0.0, 0.0, 0.0, 0.0, 0.0, 0.0, 0.0, 0.0, 0.0, 1.739540780964928E9, 0.0, 2025-02-14 10:46:20.964
179.0, -172291.73896214235, -180832.69814642647, -180981.3148953098, -174565.00078022492, -175082.08603645398, -162345.23503127517, -181117.36996380927, -169565.25082173955, -0.03, 0.91, 0.4, 192.0, 0.0, 0.0, 0.0, 0.0, 0.0, 0.0, 0.0, 0.0, 0.0, 1.7395407809649425E9, 0.0, 2025-02-14 10:46:20.964
180.0, -172898.38765840384, -180832.60873944865, -180978.58798248626, -173967.09161604545, -175489.1113029851, -162614.57355196163, -181117.01233589798, -169032.8546205586, -0.03, 0.91, 0.4, 192.0, 0.0, 0.0, 0.0, 0.0, 0.0, 0.0, 0.0, 0.0, 0.0, 1.739540780964956E9, 0.0, 2025-02-14 10:46:20.964
181.0, -172913.74330684464, -180831.31233827025, -180979.14677609765, -174213.74311610975, -175519.75554463334, -162644.7484069763, -181115.78298995295, -169194.41302948154, -0.03, 0.91, 0.4, 192.0, 0.0, 0.0, 0.0, 0.0, 0.0, 0.0, 0.0, 0.0, 0.0, 1.7395407809649696E9, 0.0, 2025-02-14 10:46:20.964
182.0, -172288.5203109408, -180828.87599812463, -180978.3197615528, -174866.65992339372, -175125.62723465293, -162403.08134592552, -181113.5925189963, -169790.7352198047, -0.03, 0.91, 0.4, 192.0, 0.0, 0.0, 0.0, 0.0, 0.0, 0.0, 0.0, 0.0, 0.0, 1.739540780964983E9, 0.0, 2025-02-14 10:46:20.964
183.0, -172266.32502869668, -180827.55724520175, -180976.37515978518, -174654.9665516575, -175073.03357994958, -162372.34769729947, -181112.2961178179, -169699.4506954492, -0.03, 0.91, 0.4, 192.0, 0.0, 0.0, 0.0, 0.0, 0.0, 0.0, 0.0, 0.0, 0.0, 1.7395407809649968E9, 0.0, 2025-02-14 10:46:20.964
184.0, -172827.1973523137, -180827.49018996838, -180973.42472951708, -174011.7727532116, -175466.93837248546, -162617.45692699635, -181111.80437943988, -169129.54826707224, -0.03, 0.91, 0.4, 192.0, 0.0, 0.0, 0.0, 0.0, 0.0, 0.0, 0.0, 0.0, 0.0, 1.7395407809650104E9, 0.0, 2025-02-14 10:46:20.965
185.0, -173044.5010119082, -180824.38329748908, -180971.68129344957, -174072.9941812747, -175571.41042606957, -162722.5548294252, -181108.78689393844, -169144.41217713503, -0.03, 0.91, 0.4, 192.0, 0.0, 0.0, 0.0, 0.0, 0.0, 0.0, 0.0, 0.0, 0.0, 1.7395407809650252E9, 0.0, 2025-02-14 10:46:20.965
186.0, -172362.59399206567, -180822.88573061058, -180972.44125276105, -174797.77184698248, -175206.4958460922, -162511.24143734472, -181107.66930671566, -169760.02392292308, -0.03, 0.91, 0.4, 192.0, 0.0, 0.0, 0.0, 0.0, 0.0, 0.0, 0.0, 0.0, 0.0, 1.7395407809650383E9, 0.0, 2025-02-14 10:46:20.965
187.0, -172218.67110951795, -180822.19282653247, -180971.27896204937, -174745.75933763498, -175099.3415831735, -162407.70815702775, -181106.88699565973, -169817.95964455124, -0.028, 0.918, 0.396, 192.0, 255.0, 32.0, 28.0, 176.0, 12.0, 96.0, 0.0, 0.0, 0.0, 1.7395407809650514E9, 0.0, 2025-02-14 10:46:20.965
188.0, -172728.17912437668, -180821.87990211011, -180968.462642248, -174106.92412935785, -175444.67603500796, -162624.05069161067, -181106.23879507053, -169254.6956842775, -0.028, 0.918, 0.396, 192.0, 0.0, 0.0, 0.0, 0.0, 0.0, 0.0, 0.0, 0.0, 0.0, 1.7395407809650655E9, 0.0, 2025-02-14 10:46:20.965
189.0, -173132.49982982874, -180819.46591370893, -180965.9145433801, -173973.43951147076, -175638.64447339112, -162770.409914304, -181103.71304794707, -169123.04390943574, -0.028, 0.918, 0.396, 192.0, 0.0, 0.0, 0.0, 0.0, 0.0, 0.0, 0.0, 0.0, 0.0, 1.739540780965078E9, 0.0, 2025-02-14 10:46:20.965
190.0, -172488.54607207133, -180816.69429739646, -180966.18276431356, -174699.9382615016, -175319.34980384706, -162589.3384324716, -181101.52257699045, -169707.92200659777, -0.028, 0.918, 0.396, 192.0, 0.0, 0.0, 0.0, 0.0, 0.0, 0.0, 0.0, 0.0, 0.0, 1.7395407809650917E9, 0.0, 2025-02-14 10:46:20.965
191.0, -172204.8577314446, -180814.97321307342, -180964.12640382367, -174816.54731232492, -175095.76530406062, -162426.57302934804, -181099.73443743403, -169919.16834344488, -0.028, 0.918, 0.396, 192.0, 0.0, 0.0, 0.0, 0.0, 0.0, 0.0, 0.0, 0.0, 0.0, 1.7395407809651046E9, 0.0, 2025-02-14 10:46:20.965
192.0, -172634.65942557566, -180815.08497179567, -180962.33826426725, -174206.23292997276, -175412.93655788145, -162602.10127855555, -181099.39916126718, -169383.75465676244, -0.028, 0.918, 0.396, 192.0, 0.0, 0.0, 0.0, 0.0, 0.0, 0.0, 0.0, 0.0, 0.0, 1.7395407809651284E9, 0.0, 2025-02-14 10:46:20.965
193.0, -173183.41710369792, -180813.6321084061, -180959.61135144372, -173909.06648743947, -175692.37806706168, -162808.8325630227, -181097.90159438868, -169108.58233077318, -0.028, 0.918, 0.396, 192.0, 0.0, 0.0, 0.0, 0.0, 0.0, 0.0, 0.0, 0.0, 0.0, 1.7395407809651418E9, 0.0, 2025-02-14 10:46:20.965
194.0, -172643.80128905788, -180809.8770153376, -180959.11961306568, -174580.71405657698, -175417.8092381727, -162678.76776203726, -181094.63823969822, -169627.3886713253, -0.028, 0.918, 0.396, 192.0, 0.0, 0.0, 0.0, 0.0, 0.0, 0.0, 0.0, 0.0, 0.0, 1.7395407809651558E9, 0.0, 2025-02-14 10:46:20.965
195.0, -172199.98505115331, -180808.93824207046, -180958.47141247647, -174866.1234815268, -175133.91973184585, -162460.92766057584, -181093.9453356201, -169984.07780934309, -0.028, 0.918, 0.396, 192.0, 0.0, 0.0, 0.0, 0.0, 0.0, 0.0, 0.0, 0.0, 0.0, 1.7395407809651685E9, 0.0, 2025-02-14 10:46:20.965
196.0, -172520.75493583144, -180807.19480600295, -180955.23040953046, -174322.93138777392, -175397.60326118508, -162585.71744986982, -181091.75486466347, -169530.3597486448, -0.028, 0.918, 0.396, 192.0, 0.0, 0.0, 0.0, 0.0, 0.0, 0.0, 0.0, 0.0, 0.0, 1.739540780965181E9, 0.0, 2025-02-14 10:46:20.965
197.0, -173183.9758973093, -180806.18897750246, -180952.05646181782, -173888.56993777395, -175719.04369819685, -162822.53418237378, -181090.52551871844, -169139.94182824396, -0.03, 0.922, 0.394, 192.0, 255.0, 16.0, 28.0, 208.0, 12.0, 80.0, 0.0, 0.0, 0.0, 1.7395407809651935E9, 0.0, 2025-02-14 10:46:20.965
198.0, -172813.16045679577, -180804.84787283515, -180953.7104909075, -174442.78144154328, -175516.11221028713, -162755.34483854115, -181089.51969021795, -169560.13227225927, -0.03, 0.922, 0.394, 192.0, 0.0, 0.0, 0.0, 0.0, 0.0, 0.0, 0.0, 0.0, 0.0, 1.739540780965207E9, 0.0, 2025-02-14 10:46:20.965
199.0, -172204.07542038863, -180801.8750908226, -180951.38590948415, -174881.8367578789, -175174.06346488756, -162529.5698677981, -181086.77042564994, -170030.16710640994, -0.03, 0.922, 0.394, 192.0, 0.0, 0.0, 0.0, 0.0, 0.0, 0.0, 0.0, 0.0, 0.0, 1.73954078096522E9, 0.0, 2025-02-14 10:46:20.965
200.0, -172426.36351899666, -180800.84691057765, -180949.17308678306, -174432.70080479395, -175335.37600462153, -162600.46960121032, -181085.36226574925, -169681.9045760518, -0.03, 0.922, 0.394, 192.0, 0.0, 0.0, 0.0, 0.0, 0.0, 0.0, 0.0, 0.0, 0.0, 1.739540780965233E9, 0.0, 2025-02-14 10:46:20.965
201.0, -173135.78553626366, -180803.01502978982, -180948.83781061624, -173893.15204538728, -175726.0844977003, -162838.80625233726, -181087.26216402795, -169199.93391036202, -0.03, 0.922, 0.394, 192.0, 0.0, 0.0, 0.0, 0.0, 0.0, 0.0, 0.0, 0.0, 0.0, 1.7395407809652512E9, 0.0, 2025-02-14 10:46:20.965
202.0, -172971.29904881705, -180800.8245588332, -180949.30719724981, -174297.04806769468, -175639.27032223588, -162821.52835387332, -181085.42932098263, -169487.28793707944, -0.03, 0.922, 0.394, 192.0, 0.0, 0.0, 0.0, 0.0, 0.0, 0.0, 0.0, 0.0, 0.0, 1.7395407809652638E9, 0.0, 2025-02-14 10:46:20.965
203.0, -172258.52426988177, -180798.65643962103, -180948.43547921604, -174876.94172584318, -175244.44910817733, -162590.74659237225, -181083.57412619283, -170049.74723455278, -0.03, 0.922, 0.394, 192.0, 0.0, 0.0, 0.0, 0.0, 0.0, 0.0, 0.0, 0.0, 0.0, 1.7395407809652767E9, 0.0, 2025-02-14 10:46:20.965
204.0, -172350.00995993734, -180796.0189337753, -180944.94860708102, -174552.68496903003, -175305.40231530694, -162606.45986872434, -181080.73545464702, -169835.52811569313, -0.03, 0.922, 0.394, 192.0, 0.0, 0.0, 0.0, 0.0, 0.0, 0.0, 0.0, 0.0, 0.0, 1.7395407809652903E9, 0.0, 2025-02-14 10:46:20.965
205.0, -173061.71185513877, -180795.90717505303, -180942.2663977464, -173950.75249084862, -175707.465494569, -162856.50883394587, -181080.22136452454, -169294.8617690637, -0.03, 0.922, 0.394, 192.0, 0.0, 0.0, 0.0, 0.0, 0.0, 0.0, 0.0, 0.0, 0.0, 1.7395407809653025E9, 0.0, 2025-02-14 10:46:20.965
206.0, -173118.97702443326, -180794.40960817452, -180942.33345297974, -174159.22721138326, -175720.11658193072, -162890.28231981784, -181078.9026116017, -169438.06939578886, -0.03, 0.922, 0.394, 192.0, 0.0, 0.0, 0.0, 0.0, 0.0, 0.0, 0.0, 0.0, 0.0, 1.7395407809653144E9, 0.0, 2025-02-14 10:46:20.965
207.0, -172346.7913087358, -180792.0179715178, -180941.6181971572, -174826.2256176741, -175352.11746121856, -162646.9388779329, -181076.77919587842, -170042.75113853827, -0.028, 0.928, 0.396, 192.0, 255.0, 32.0, 29.0, 0.0, 12.0, 96.0, 0.0, 0.0, 0.0, 1.739540780965335E9, 0.0, 2025-02-14 10:46:20.965
208.0, -172276.42801719048, -180792.1297302401, -180941.2605692459, -174646.18231608658, -175330.05628944116, -162591.0818685391, -181076.98036157852, -169968.20807077983, -0.028, 0.928, 0.396, 192.0, 0.0, 0.0, 0.0, 0.0, 0.0, 0.0, 0.0, 0.0, 0.0, 1.739540780965348E9, 0.0, 2025-02-14 10:46:20.965
209.0, -172964.2358975692, -180792.24148896238, -180938.8018773558, -174010.38694505536, -175657.7105114115, -162855.25713625638, -181076.6450854117, -169395.95870923504, -0.028, 0.928, 0.396, 192.0, 0.0, 0.0, 0.0, 0.0, 0.0, 0.0, 0.0, 0.0, 0.0, 1.7395407809653604E9, 0.0, 2025-02-14 10:46:20.965
210.0, -173239.4529270474, -180790.18512847248, -180937.52782792185, -174028.71537550873, -175785.3389722513, -162942.38423614315, -181074.745187133, -169383.7770085069, -0.028, 0.928, 0.396, 192.0, 0.0, 0.0, 0.0, 0.0, 0.0, 0.0, 0.0, 0.0, 0.0, 1.7395407809653728E9, 0.0, 2025-02-14 10:46:20.965
211.0, -172478.37602834418, -180787.88289879358, -180937.3713657107, -174750.52025920394, -175439.2222093609, -162714.97758805487, -181072.55471617638, -169993.30907980312, -0.028, 0.928, 0.396, 192.0, 0.0, 0.0, 0.0, 0.0, 0.0, 0.0, 0.0, 0.0, 0.0, 1.739540780965388E9, 0.0, 2025-02-14 10:46:20.965
212.0, -172228.66233928947, -180787.03353250428, -180936.29848197682, -174735.41047995217, -175285.55396623063, -162606.54927570216, -181071.77240512043, -170083.58777565812, -0.028, 0.928, 0.396, 192.0, 0.0, 0.0, 0.0, 0.0, 0.0, 0.0, 0.0, 0.0, 0.0, 1.7395407809654007E9, 0.0, 2025-02-14 10:46:20.965
213.0, -172856.38873057233, -180786.430035404, -180933.6162726422, -174105.02423107915, -175633.99531054441, -162832.36894993414, -181070.7889283644, -169515.94287347113, -0.028, 0.928, 0.396, 192.0, 0.0, 0.0, 0.0, 0.0, 0.0, 0.0, 0.0, 0.0, 0.0, 1.7395407809654193E9, 0.0, 2025-02-14 10:46:20.965
214.0, -173318.15341927452, -180784.5748406142, -180931.26933947438, -173943.17524947826, -175848.8179265044, -163016.2791033124, -181069.00078880799, -169351.36697904672, -0.028, 0.928, 0.396, 192.0, 0.0, 0.0, 0.0, 0.0, 0.0, 0.0, 0.0, 0.0, 0.0, 1.739540780965432E9, 0.0, 2025-02-14 10:46:20.965
215.0, -172650.64092286123, -180781.0656167347, -180930.5093801629, -174653.6701504791, -175528.40566973755, -162828.41269116555, -181065.71508237303, -169931.73002382877, -0.028, 0.928, 0.396, 192.0, 0.0, 0.0, 0.0, 0.0, 0.0, 0.0, 0.0, 0.0, 0.0, 1.7395407809654443E9, 0.0, 2025-02-14 10:46:20.965
216.0, -172212.07734490364, -180779.88097427858, -180929.4141446846, -174803.09156216282, -175319.86389396954, -162637.9758284063, -181064.8433643393, -170168.52440458827, -0.028, 0.928, 0.396, 192.0, 0.0, 0.0, 0.0, 0.0, 0.0, 0.0, 0.0, 0.0, 0.0, 1.739540780965457E9, 0.0, 2025-02-14 10:46:20.965
217.0, -172739.95849370462, -180778.42811088898, -180926.44136267202, -174208.24458697374, -175603.44047587403, -162826.5798481202, -181063.0775765273, -169643.4819273331, -0.032, 0.924, 0.392, 192.0, 255.0, 0.0, 28.0, 224.0, 12.0, 64.0, 0.0, 0.0, 0.0, 1.7395407809654698E9, 0.0, 2025-02-14 10:46:20.965
218.0, -173324.38955597754, -180776.5729160992, -180924.0944295042, -173885.06071389446, -175851.18721141663, -163039.0778826568, -181062.1835067491, -169345.66728421062, -0.032, 0.924, 0.392, 192.0, 0.0, 0.0, 0.0, 0.0, 0.0, 0.0, 0.0, 0.0, 0.0, 1.7395407809654827E9, 0.0, 2025-02-14 10:46:20.965
219.0, -172820.46947723263, -180775.9694189989, -180925.48023766043, -174526.86870418416, -175612.91761552307, -162884.80614242627, -181060.75299510398, -169847.0392640876, -0.032, 0.924, 0.392, 192.0, 0.0, 0.0, 0.0, 0.0, 0.0, 0.0, 0.0, 0.0, 0.0, 1.7395407809654982E9, 0.0, 2025-02-14 10:46:20.965
220.0, -172217.44176357292, -180774.29303816476, -180923.78150508183, -174847.50447839554, -175311.25847235424, -162666.9436892204, -181058.987207292, -170229.36585299563, -0.032, 0.924, 0.392, 192.0, 0.0, 0.0, 0.0, 0.0, 0.0, 0.0, 0.0, 0.0, 0.0, 1.7395407809655101E9, 0.0, 2025-02-14 10:46:20.965
221.0, -172620.0413847019, -180773.1083957086, -180921.47927540296, -174323.5348848742, -175534.50769597385, -162790.66059478052, -181057.60139913578, -169795.071458229, -0.032, 0.924, 0.392, 192.0, 0.0, 0.0, 0.0, 0.0, 0.0, 0.0, 0.0, 0.0, 0.0, 1.7395407809655302E9, 0.0, 2025-02-14 10:46:20.965
222.0, -173264.48688083733, -180771.1190904521, -180919.4005631686, -173871.02381837653, -175890.23570898006, -163038.56379253435, -181057.3331782023, -169381.8771102282, -0.032, 0.924, 0.392, 192.0, 0.0, 0.0, 0.0, 0.0, 0.0, 0.0, 0.0, 0.0, 0.0, 1.7395407809655423E9, 0.0, 2025-02-14 10:46:20.965
223.0, -172954.49053698668, -180769.73328229587, -180919.28880444632, -174395.99924039832, -175746.64810259917, -162974.10136152525, -181055.0756520123, -169769.70222827225, -0.032, 0.924, 0.392, 192.0, 0.0, 0.0, 0.0, 0.0, 0.0, 0.0, 0.0, 0.0, 0.0, 1.7395407809655542E9, 0.0, 2025-02-14 10:46:20.965
224.0, -172256.49026113635, -180768.54863983975, -180918.193568968, -174864.20123150366, -175362.1980979679, -162737.95518135492, -181053.46632641155, -170254.75743469686, -0.032, 0.924, 0.392, 192.0, 0.0, 0.0, 0.0, 0.0, 0.0, 0.0, 0.0, 0.0, 0.0, 1.7395407809655664E9, 0.0, 2025-02-14 10:46:20.965
225.0, -172503.7676100454, -180767.2075351724, -180916.0478015003, -174439.02634847478, -175479.50005286935, -162787.8219232347, -181051.8793525552, -169927.32673017107, -0.032, 0.924, 0.392, 192.0, 0.0, 0.0, 0.0, 0.0, 0.0, 0.0, 0.0, 0.0, 0.0, 1.7395407809655786E9, 0.0, 2025-02-14 10:46:20.965
226.0, -173201.72318240683, -180764.79354677125, -180912.78444680985, -173893.4426180652, -175873.31543842738, -163037.1779843781, -181050.56059963236, -169430.38039569624, -0.032, 0.924, 0.392, 192.0, 0.0, 0.0, 0.0, 0.0, 0.0, 0.0, 0.0, 0.0, 0.0, 1.7395407809655907E9, 0.0, 2025-02-14 10:46:20.965
227.0, -173078.38625650245, -180762.33485488116, -180912.13624622062, -174255.80909917463, -175808.33891729583, -163032.14884187566, -181048.21366646455, -169692.9016343238, -0.034, 0.924, 0.394, 192.0, 254.0, 240.0, 28.0, 224.0, 12.0, 80.0, 0.0, 0.0, 0.0, 1.739540780965603E9, 0.0, 2025-02-14 10:46:20.965
228.0, -172345.51725930182, -180761.9101717365, -180911.71156307598, -174848.46560340712, -175420.37968878506, -162778.85887370812, -181046.76080307495, -170265.7321412244, -0.034, 0.924, 0.394, 192.0, 0.0, 0.0, 0.0, 0.0, 0.0, 0.0, 0.0, 0.0, 0.0, 1.739540780965616E9, 0.0, 2025-02-14 10:46:20.965
229.0, -172399.72023960596, -180762.1113374366, -180911.21982469797, -174553.46728008596, -175465.39610211804, -162770.23110034838, -181046.8278583083, -170070.78022608522, -0.034, 0.924, 0.394, 192.0, 0.0, 0.0, 0.0, 0.0, 0.0, 0.0, 0.0, 0.0, 0.0, 1.7395407809656281E9, 0.0, 2025-02-14 10:46:20.965
230.0, -173142.89339100046, -180761.44078510295, -180909.0517054858, -173945.76805183507, -175891.84503458085, -163028.01376915144, -181046.3808234192, -169496.27333835047, -0.034, 0.924, 0.394, 192.0, 0.0, 0.0, 0.0, 0.0, 0.0, 0.0, 0.0, 0.0, 0.0, 1.7395407809656472E9, 0.0, 2025-02-14 10:46:20.965
231.0, -173211.20032205587, -180759.7644042688, -180908.9399467635, -174117.67531844086, -175910.262872012, -163089.43636291462, -181045.3302914298, -169594.1292755758, -0.034, 0.924, 0.394, 192.0, 0.0, 0.0, 0.0, 0.0, 0.0, 0.0, 0.0, 0.0, 0.0, 1.7395407809656596E9, 0.0, 2025-02-14 10:46:20.965
232.0, -172479.9630022005, -180758.80327925723, -180908.58231885225, -174802.86804471829, -175491.3241256862, -162846.07056928522, -181043.6315588512, -170204.04132652777, -0.034, 0.924, 0.394, 192.0, 0.0, 0.0, 0.0, 0.0, 0.0, 0.0, 0.0, 0.0, 0.0, 1.7395407809656715E9, 0.0, 2025-02-14 10:46:20.965
233.0, -172315.4765147539, -180757.35041586764, -180906.63771708464, -174656.28530458038, -175404.57700545515, -162781.80930397622, -181042.1339919727, -170169.12790168857, -0.034, 0.924, 0.394, 192.0, 0.0, 0.0, 0.0, 0.0, 0.0, 0.0, 0.0, 0.0, 0.0, 1.739540780965684E9, 0.0, 2025-02-14 10:46:20.965
234.0, -173041.48352640672, -180757.79745075674, -180905.22955718395, -174019.34999458195, -175808.74124869602, -163010.46764975402, -181042.40221290616, -169587.8707871283, -0.034, 0.924, 0.394, 192.0, 0.0, 0.0, 0.0, 0.0, 0.0, 0.0, 0.0, 0.0, 0.0, 1.7395407809656968E9, 0.0, 2025-02-14 10:46:20.965
235.0, -173263.03401744773, -180756.90338097853, -180905.4530746285, -174005.1789885973, -175959.41435806925, -163127.79195639992, -181042.40221290616, -169538.2275626931, -0.034, 0.924, 0.394, 192.0, 0.0, 0.0, 0.0, 0.0, 0.0, 0.0, 0.0, 0.0, 0.0, 1.7395407809657087E9, 0.0, 2025-02-14 10:46:20.965
236.0, -172608.999622941, -180755.69638677794, -180905.60953683968, -174725.91098855867, -175582.4968913194, -162909.32600609376, -181040.56936986084, -170151.1123956576, -0.034, 0.924, 0.394, 192.0, 0.0, 0.0, 0.0, 0.0, 0.0, 0.0, 0.0, 0.0, 0.0, 1.739540780965864E9, 0.0, 2025-02-14 10:46:20.965
237.0, -172251.63993258955, -180752.65654953202, -180902.05560947128, -174742.8983143447, -175412.73539218135, -162786.63728077858, -181037.30601517035, -170269.6436965041, -0.032, 0.918, 0.394, 192.0, 255.0, 0.0, 28.0, 176.0, 12.0, 80.0, 0.0, 0.0, 0.0, 1.7395407809658828E9, 0.0, 2025-02-14 10:46:20.965
238.0, -172942.28648451407, -180752.45538383193, -180900.28982165933, -174114.9037021284, -175762.92017256262, -162995.8272571358, -181036.79192504787, -169704.59159667394, -0.032, 0.918, 0.394, 192.0, 0.0, 0.0, 0.0, 0.0, 0.0, 0.0, 0.0, 0.0, 0.0, 1.7395407809658976E9, 0.0, 2025-02-14 10:46:20.965
239.0, -173307.89396856952, -180751.27074137577, -180899.03812396983, -173919.92943524473, -175998.12757946583, -163164.51587253998, -181036.43429713658, -169514.08767868136, -0.032, 0.918, 0.394, 192.0, 0.0, 0.0, 0.0, 0.0, 0.0, 0.0, 0.0, 0.0, 0.0, 1.739540780965911E9, 0.0, 2025-02-14 10:46:20.965
240.0, -172771.25093594205, -180751.53896230925, -180901.31800190426, -174621.8189146303, -175683.8620524242, -162988.6746989101, -181036.36724190324, -170079.67622037843, -0.032, 0.918, 0.394, 192.0, 0.0, 0.0, 0.0, 0.0, 0.0, 0.0, 0.0, 0.0, 0.0, 1.7395407814424565E9, 0.0, 2025-02-14 10:46:21.442
241.0, -172233.95970272538, -180747.98503494085, -180897.62996406914, -174808.32187036538, -175415.57406372717, -162801.54589433025, -181032.79096279037, -170347.6065811642, -0.032, 0.918, 0.394, 192.0, 0.0, 0.0, 0.0, 0.0, 0.0, 0.0, 0.0, 0.0, 0.0, 1.73954078144252E9, 0.0, 2025-02-14 10:46:21.442
242.0, -172819.37424175433, -180747.69446226294, -180896.15474893508, -174222.50499993624, -175689.7629129604, -162975.710687126, -181032.18746569008, -169834.05290055907, -0.032, 0.918, 0.394, 192.0, 0.0, 0.0, 0.0, 0.0, 0.0, 0.0, 0.0, 0.0, 0.0, 1.739540781442554E9, 0.0, 2025-02-14 10:46:21.442
243.0, -173327.96583509038, -180746.73333725135, -180894.61247856767, -173873.68367596672, -175994.8418730309, -163205.3748614043, -181032.05335522335, -169507.02452743347, -0.032, 0.918, 0.394, 192.0, 0.0, 0.0, 0.0, 0.0, 0.0, 0.0, 0.0, 0.0, 0.0, 1.7395407814425673E9, 0.0, 2025-02-14 10:46:21.442
244.0, -172918.95126330273, -180746.2639506178, -180895.97593497945, -174499.4878172264, -175768.8880883322, -163076.6958685751, -181031.24869242296, -169988.10112334506, -0.032, 0.918, 0.394, 192.0, 0.0, 0.0, 0.0, 0.0, 0.0, 0.0, 0.0, 0.0, 0.0, 1.7395407814425802E9, 0.0, 2025-02-14 10:46:21.442
245.0, -172267.1073397526, -180745.4145843285, -180895.10421694568, -174847.48212665107, -175441.1668111285, -162856.26296475684, -181030.24286392247, -170381.26830831388, -0.032, 0.918, 0.394, 192.0, 0.0, 0.0, 0.0, 0.0, 0.0, 0.0, 0.0, 0.0, 0.0, 1.7395407814425929E9, 0.0, 2025-02-14 10:46:21.442
246.0, -172693.8691966378, -180744.5652180392, -180893.24902215588, -174337.3482629476, -175656.0117788329, -162957.38225667266, -181029.10292495525, -169954.8193758511, -0.032, 0.918, 0.394, 192.0, 0.0, 0.0, 0.0, 0.0, 0.0, 0.0, 0.0, 0.0, 0.0, 1.7395407814426048E9, 0.0, 2025-02-14 10:46:21.442
247.0, -173302.68601211143, -180744.90049420603, -180892.15378667758, -173864.51946074003, -176012.87973080634, -163198.84815202333, -181029.77347728892, -169519.8544287508, -0.032, 0.906, 0.394, 192.0, 255.0, 0.0, 28.0, 80.0, 12.0, 80.0, 0.0, 0.0, 0.0, 1.7395407814426177E9, 0.0, 2025-02-14 10:46:21.442
248.0, -173051.0947765225, -180740.34073833714, -180889.87390874315, -174359.05180681372, -175864.59825808983, -163139.59367747232, -181025.50429409795, -169880.2092528593, -0.032, 0.906, 0.394, 192.0, 0.0, 0.0, 0.0, 0.0, 0.0, 0.0, 0.0, 0.0, 0.0, 1.739540781442631E9, 0.0, 2025-02-14 10:46:21.442
249.0, -172339.4822882989, -180738.17261912496, -180887.92930697554, -174859.55206865695, -175503.7740473478, -162895.13264836464, -181022.91149174114, -170380.17307283558, -0.032, 0.906, 0.394, 192.0, 0.0, 0.0, 0.0, 0.0, 0.0, 0.0, 0.0, 0.0, 0.0, 1.7395407814426415E9, 0.0, 2025-02-14 10:46:21.442
250.0, -172565.95016312005, -180738.68670924744, -180887.66108604206, -174456.6842265945, -175584.57560355373, -162949.44738739103, -181023.24676790796, -170078.37981920002, -0.032, 0.906, 0.394, 192.0, 0.0, 0.0, 0.0, 0.0, 0.0, 0.0, 0.0, 0.0, 0.0, 1.7395407814426515E9, 0.0, 2025-02-14 10:46:21.442
251.0, -173262.09524418061, -180737.79263946923, -180885.13533891863, -173894.26963261006, -175993.88074801932, -163202.7150038141, -181022.46445685203, -169560.24403098156, -0.032, 0.906, 0.394, 192.0, 0.0, 0.0, 0.0, 0.0, 0.0, 0.0, 0.0, 0.0, 0.0, 1.7395407814427073E9, 0.0, 2025-02-14 10:46:21.442
252.0, -173166.2286122118, -180739.13374413655, -180888.28693488683, -174216.85000858904, -175965.53873605, -163191.00268971952, -181024.18554117507, -169792.61276633892, -0.032, 0.906, 0.394, 192.0, 0.0, 0.0, 0.0, 0.0, 0.0, 0.0, 0.0, 0.0, 0.0, 1.739540781442718E9, 0.0, 2025-02-14 10:46:21.442
253.0, -172458.5500310123, -180737.4126598135, -180887.39286510862, -174830.00306248703, -175545.95178913497, -162944.95468675552, -181022.21858766302, -170376.37327627817, -0.032, 0.906, 0.394, 192.0, 0.0, 0.0, 0.0, 0.0, 0.0, 0.0, 0.0, 0.0, 0.0, 1.7395407814427283E9, 0.0, 2025-02-14 10:46:21.442
254.0, -172472.2516503634, -180735.3562993236, -180884.68830402952, -174558.33996037723, -175555.6300944841, -162932.12478543818, -181019.93870972857, -170214.50194293284, -0.032, 0.906, 0.394, 192.0, 0.0, 0.0, 0.0, 0.0, 0.0, 0.0, 0.0, 0.0, 0.0, 1.7395407814427383E9, 0.0, 2025-02-14 10:46:21.442
255.0, -173213.99429011278, -180734.6186917566, -180881.98374295043, -173942.41529016677, -175971.50665181957, -163189.013384463, -181019.08934343926, -169645.02419770055, -0.032, 0.906, 0.394, 192.0, 0.0, 0.0, 0.0, 0.0, 0.0, 0.0, 0.0, 0.0, 0.0, 1.7395407814427485E9, 0.0, 2025-02-14 10:46:21.442
0.0, -173247.0972236511, -180732.7634969668, -180881.33554236122, -174076.592812132, -176013.01384127306, -163259.91311787526, -181017.8823492387, -169718.38262300286, -0.032, 0.906, 0.394, 192.0, 0.0, 0.0, 0.0, 0.0, 0.0, 0.0, 0.0, 0.0, 0.0, 1.7395407814427588E9, 0.0, 2025-02-14 10:46:21.442
1.0, -172592.95107042207, -180730.03658414324, -180880.01678943835, -174769.49689024652, -175619.198455715, -163027.27616158442, -181014.79780850385, -170326.86416230968, -0.034, 0.916, 0.398, 192.0, 254.0, 240.0, 28.0, 160.0, 12.0, 112.0, 0.0, 0.0, 0.0, 1.7395407814427695E9, 0.0, 2025-02-14 10:46:21.442
2.0, -172404.52586466382, -180729.3660318096, -180878.72038825994, -174649.31156031034, -175536.60875995265, -162941.93720125404, -181013.90373872564, -170311.21794119096, -0.034, 0.916, 0.398, 192.0, 0.0, 0.0, 0.0, 0.0, 0.0, 0.0, 0.0, 0.0, 0.0, 1.7395407814427805E9, 0.0, 2025-02-14 10:46:21.442
3.0, -173129.72821351627, -180728.74018296483, -180876.61932428114, -174006.8777211759, -175915.73904940358, -163168.51683479748, -181013.30024162534, -169731.4136900203, -0.034, 0.916, 0.398, 192.0, 0.0, 0.0, 0.0, 0.0, 0.0, 0.0, 0.0, 0.0, 0.0, 1.7395407814427907E9, 0.0, 2025-02-14 10:46:21.442
4.0, -173301.99310803332, -180728.53901726473, -180877.0440074258, -173962.64361889884, -176074.39173154734, -163302.00145268458, -181013.90373872564, -169657.0494362175, -0.034, 0.916, 0.398, 192.0, 0.0, 0.0, 0.0, 0.0, 0.0, 0.0, 0.0, 0.0, 0.0, 1.7395407814428146E9, 0.0, 2025-02-14 10:46:21.442
5.0, -172739.5785140489, -180726.28149107474, -180876.26169636985, -174688.80709276284, -175717.74729701845, -163099.82992408634, -181011.06506717982, -170256.09853936417, -0.034, 0.916, 0.398, 192.0, 0.0, 0.0, 0.0, 0.0, 0.0, 0.0, 0.0, 0.0, 0.0, 1.739540781442827E9, 0.0, 2025-02-14 10:46:21.442
6.0, -172354.79323325076, -180724.04631662922, -180873.53478354632, -174736.37160496376, -175555.9430189065, -162923.58641905623, -181008.69578226755, -170408.40332608263, -0.034, 0.916, 0.398, 192.0, 0.0, 0.0, 0.0, 0.0, 0.0, 0.0, 0.0, 0.0, 0.0, 1.7395407814428396E9, 0.0, 2025-02-14 10:46:21.442
7.0, -173008.89468299088, -180723.17459859548, -180871.5454782898, -174108.95813810328, -175904.9208050872, -163110.8940375917, -181007.8687677227, -169854.12476707992, -0.034, 0.916, 0.398, 192.0, 0.0, 0.0, 0.0, 0.0, 0.0, 0.0, 0.0, 0.0, 0.0, 1.7395407814428513E9, 0.0, 2025-02-14 10:46:21.442
8.0, -173331.00567233632, -180720.78296193873, -180868.86326895515, -173887.42999880674, -176105.7065255292, -163315.90423773578, -181006.2817938664, -169635.85998247386, -0.034, 0.916, 0.398, 192.0, 0.0, 0.0, 0.0, 0.0, 0.0, 0.0, 0.0, 0.0, 0.0, 1.7395407814428632E9, 0.0, 2025-02-14 10:46:21.442
9.0, -172895.5713386025, -180720.93942414992, -180870.80787072275, -174579.01532399838, -175797.00658285696, -163154.03290439045, -181005.968869444, -170183.70123907345, -0.034, 0.916, 0.398, 192.0, 0.0, 0.0, 0.0, 0.0, 0.0, 0.0, 0.0, 0.0, 0.0, 1.7395407814428818E9, 0.0, 2025-02-14 10:46:21.442
10.0, -172362.54928857676, -180720.47003751638, -180869.98085617792, -174793.52501553597, -175539.24626579837, -162962.4113991751, -181005.231261877, -170471.94933556908, -0.034, 0.916, 0.398, 192.0, 0.0, 0.0, 0.0, 0.0, 0.0, 0.0, 0.0, 0.0, 0.0, 1.739540781442894E9, 0.0, 2025-02-14 10:46:21.442
11.0, -172900.39931540482, -180721.4982177613, -180870.11496664464, -174215.28538647716, -175821.77231571346, -163105.77548811145, -181006.1253316552, -169969.90680335843, -0.032, 0.91, 0.394, 192.0, 255.0, 0.0, 28.0, 112.0, 12.0, 80.0, 0.0, 0.0, 0.0, 1.7395407814429064E9, 0.0, 2025-02-14 10:46:21.442
12.0, -173345.84723065465, -180722.03465962823, -180869.6455800111, -173841.0724808064, -176144.53150564808, -163333.11508096638, -181007.19821538904, -169624.81822071294, -0.032, 0.91, 0.394, 192.0, 0.0, 0.0, 0.0, 0.0, 0.0, 0.0, 0.0, 0.0, 0.0, 1.739540781442919E9, 0.0, 2025-02-14 10:46:21.442
13.0, -173027.80425880008, -180718.63719447103, -180868.3044753438, -174450.179868958, -175924.90326463024, -163231.59345765036, -181003.5772327873, -170089.75685712777, -0.032, 0.91, 0.394, 192.0, 0.0, 0.0, 0.0, 0.0, 0.0, 0.0, 0.0, 0.0, 0.0, 1.7395407814429307E9, 0.0, 2025-02-14 10:46:21.442
14.0, -172408.4374199435, -180717.2066828259, -180866.87396369863, -174829.35486189782, -175583.3909610976, -163006.48903924096, -181001.90085195313, -170509.20969357606, -0.032, 0.91, 0.394, 192.0, 0.0, 0.0, 0.0, 0.0, 0.0, 0.0, 0.0, 0.0, 0.0, 1.7395407814429429E9, 0.0, 2025-02-14 10:46:21.442
15.0, -172779.78930232397, -180715.5526537362, -180864.5493822753, -174335.53777164672, -175768.3292947208, -163108.27888349045, -181000.2691746079, -170103.27966252324, -0.032, 0.91, 0.394, 192.0, 0.0, 0.0, 0.0, 0.0, 0.0, 0.0, 0.0, 0.0, 0.0, 1.739540781442957E9, 0.0, 2025-02-14 10:46:21.442
16.0, -173320.1650762755, -180714.43506651343, -180862.35891131868, -173836.535076682, -176145.02324402612, -163341.87696479284, -181000.00095367443, -169650.00863671408, -0.032, 0.91, 0.394, 192.0, 0.0, 0.0, 0.0, 0.0, 0.0, 0.0, 0.0, 0.0, 0.0, 1.739540781442967E9, 0.0, 2025-02-14 10:46:21.442
17.0, -173123.24620762424, -180713.38453452403, -180862.91770493003, -174304.51355034276, -176008.34232668192, -163289.52917927853, -180998.50338679593, -170003.8367514416, -0.032, 0.91, 0.394, 192.0, 0.0, 0.0, 0.0, 0.0, 0.0, 0.0, 0.0, 0.0, 0.0, 1.739540781442977E9, 0.0, 2025-02-14 10:46:21.442
18.0, -172484.14277841363, -180711.8422641566, -180861.62130375163, -174831.90296076573, -175630.86606632068, -163036.30626634436, -180996.4693780505, -170526.8005164624, -0.032, 0.91, 0.394, 192.0, 0.0, 0.0, 0.0, 0.0, 0.0, 0.0, 0.0, 0.0, 0.0, 1.7395407814429867E9, 0.0, 2025-02-14 10:46:21.442
19.0, -172669.5504986704, -180709.92001413347, -180859.02850139482, -174448.63759859058, -175748.50329738896, -163066.32465914782, -180994.43536930508, -170229.65642567354, -0.032, 0.91, 0.394, 192.0, 0.0, 0.0, 0.0, 0.0, 0.0, 0.0, 0.0, 0.0, 0.0, 1.7395407814429967E9, 0.0, 2025-02-14 10:46:21.442
20.0, -173269.2478024063, -180708.31068853269, -180856.435699038, -173871.2473358211, -176106.33237437397, -163336.57960135693, -180993.65305824913, -169702.69169839524, -0.032, 0.91, 0.394, 192.0, 0.0, 0.0, 0.0, 0.0, 0.0, 0.0, 0.0, 0.0, 0.0, 1.7395407814430068E9, 0.0, 2025-02-14 10:46:21.443
21.0, -173216.3859267695, -180707.21545305438, -180856.25688508237, -174161.61884803997, -176075.46461528118, -163360.83124409095, -180992.20019485953, -169911.68050905236, -0.03, 0.918, 0.39, 192.0, 255.0, 16.0, 28.0, 176.0, 12.0, 48.0, 0.0, 0.0, 0.0, 1.7395407814430168E9, 0.0, 2025-02-14 10:46:21.443
22.0, -172596.8402739573, -180705.06968558667, -180854.8934286706, -174797.68244000466, -175671.21096506252, -163113.4421364596, -180989.6744477361, -170500.76073417196, -0.03, 0.918, 0.39, 192.0, 0.0, 0.0, 0.0, 0.0, 0.0, 0.0, 0.0, 0.0, 0.0, 1.7395407814430273E9, 0.0, 2025-02-14 10:46:21.443
23.0, -172574.71204694654, -180704.53324371975, -180853.8428966812, -174553.37787310814, -175682.18567159006, -163063.06130445734, -180989.13800586917, -170358.9612673475, -0.03, 0.918, 0.39, 192.0, 0.0, 0.0, 0.0, 0.0, 0.0, 0.0, 0.0, 0.0, 0.0, 1.7395407814430373E9, 0.0, 2025-02-14 10:46:21.443
24.0, -173213.9719383683, -180704.6002989531, -180852.7923646918, -173925.31620565848, -176074.0117518916, -163327.3930343858, -180989.60739250272, -169785.95194649126, -0.03, 0.918, 0.39, 192.0, 0.0, 0.0, 0.0, 0.0, 0.0, 0.0, 0.0, 0.0, 0.0, 1.7395407814430523E9, 0.0, 2025-02-14 10:46:21.443
25.0, -173279.7978257892, -180701.82868264065, -180850.51248675736, -174031.822267988, -176144.71031960374, -163409.3792330479, -180986.8134244458, -169833.89643834787, -0.03, 0.918, 0.39, 192.0, 0.0, 0.0, 0.0, 0.0, 0.0, 0.0, 0.0, 0.0, 0.0, 1.7395407814430623E9, 0.0, 2025-02-14 10:46:21.443
26.0, -172721.80887720693, -180699.81702563967, -180849.95369314597, -174734.1364305182, -175756.01348352595, -163168.9638696866, -180984.6676569781, -170445.06018698934, -0.03, 0.918, 0.39, 192.0, 0.0, 0.0, 0.0, 0.0, 0.0, 0.0, 0.0, 0.0, 0.0, 1.7395407814430728E9, 0.0, 2025-02-14 10:46:21.443
27.0, -172503.32057515628, -180699.5488047062, -180848.97021638992, -174648.84217367676, -175673.24497380794, -163065.00590622498, -180983.99710464446, -170464.5285564099, -0.03, 0.918, 0.39, 192.0, 0.0, 0.0, 0.0, 0.0, 0.0, 0.0, 0.0, 0.0, 0.0, 1.739540781443083E9, 0.0, 2025-02-14 10:46:21.443
28.0, -173146.24615266875, -180700.73344716235, -180849.21608557896, -174008.30823282103, -176043.6580829213, -163306.42709808674, -180985.53937501187, -169885.26074710616, -0.03, 0.918, 0.39, 192.0, 0.0, 0.0, 0.0, 0.0, 0.0, 0.0, 0.0, 0.0, 0.0, 1.7395407814430928E9, 0.0, 2025-02-14 10:46:21.443
29.0, -173325.95417808942, -180702.5439384632, -180850.7807076908, -173924.6009498359, -176205.8870441779, -163443.42093985333, -180987.39456980166, -169784.34262089047, -0.03, 0.918, 0.39, 192.0, 0.0, 0.0, 0.0, 0.0, 0.0, 0.0, 0.0, 0.0, 0.0, 1.7395407814431033E9, 0.0, 2025-02-14 10:46:21.443
30.0, -172860.546155041, -180700.1523018065, -180850.2442658239, -174646.5175922534, -175848.48265033754, -163234.09685302936, -180984.89117442266, -170380.84362516925, -0.03, 0.918, 0.39, 192.0, 0.0, 0.0, 0.0, 0.0, 0.0, 0.0, 0.0, 0.0, 0.0, 1.739540781443113E9, 0.0, 2025-02-14 10:46:21.443
31.0, -172479.44891207802, -180697.87242387206, -180847.36089078916, -174726.96152054807, -175648.1216130402, -163075.10889471875, -180982.27602032138, -170551.5662493189, -0.024, 0.924, 0.392, 192.0, 255.0, 64.0, 28.0, 224.0, 12.0, 64.0, 0.0, 0.0, 0.0, 1.7395407814431233E9, 0.0, 2025-02-14 10:46:21.443
32.0, -173057.62148590345, -180695.83841512664, -180844.76808843235, -174103.10198105598, -175986.8399485159, -163270.2396238136, -180980.57728774278, -170000.01460313972, -0.024, 0.924, 0.392, 192.0, 0.0, 0.0, 0.0, 0.0, 0.0, 0.0, 0.0, 0.0, 0.0, 1.7395407814431405E9, 0.0, 2025-02-14 10:46:21.443
33.0, -173347.63537021106, -180695.43608372644, -180843.2258180649, -173847.8897628653, -176246.4554603643, -163479.6307658709, -180980.1079011092, -169757.45347231074, -0.024, 0.924, 0.392, 192.0, 0.0, 0.0, 0.0, 0.0, 0.0, 0.0, 0.0, 0.0, 0.0, 1.7395407814431508E9, 0.0, 2025-02-14 10:46:21.443
34.0, -173005.74308702268, -180696.10663606008, -180846.31035879976, -174527.31573907327, -175958.76615748004, -163320.3969383713, -180980.89021216516, -170290.67668803653, -0.024, 0.924, 0.392, 192.0, 0.0, 0.0, 0.0, 0.0, 0.0, 0.0, 0.0, 0.0, 0.0, 1.739540781443161E9, 0.0, 2025-02-14 10:46:21.443
35.0, -172492.18940641754, -180696.3525052491, -180846.10919309966, -174775.37539903825, -175683.30325881284, -163100.58988339783, -180980.97961914298, -170604.98691856707, -0.024, 0.924, 0.392, 192.0, 0.0, 0.0, 0.0, 0.0, 0.0, 0.0, 0.0, 0.0, 0.0, 1.7395407814431713E9, 0.0, 2025-02-14 10:46:21.443
36.0, -172964.325304547, -180694.38555173704, -180843.27052155382, -174211.86556957552, -175961.5824772814, -163239.0812920429, -180979.03501737537, -170121.8539621656, -0.024, 0.924, 0.392, 192.0, 0.0, 0.0, 0.0, 0.0, 0.0, 0.0, 0.0, 0.0, 0.0, 1.7395407814431815E9, 0.0, 2025-02-14 10:46:21.443
37.0, -173357.93952440497, -180692.93268834744, -180840.2306843079, -173811.97050952562, -176260.38059715994, -163490.76193460965, -180977.5150987524, -169763.28727761356, -0.024, 0.924, 0.392, 192.0, 0.0, 0.0, 0.0, 0.0, 0.0, 0.0, 0.0, 0.0, 0.0, 1.739540781443192E9, 0.0, 2025-02-14 10:46:21.443
38.0, -173121.05573666762, -180689.55757493468, -180839.35896627416, -174392.13238860757, -176043.61337943238, -163388.7038694267, -180974.43055801757, -170203.66134687202, -0.024, 0.924, 0.392, 192.0, 0.0, 0.0, 0.0, 0.0, 0.0, 0.0, 0.0, 0.0, 0.0, 1.7395407814432023E9, 0.0, 2025-02-14 10:46:21.443
39.0, -172543.66547389812, -180688.73056038984, -180838.5319517293, -174802.5551202959, -175714.26042488343, -163149.4060932882, -180973.29061905036, -170638.93921839466, -0.024, 0.924, 0.392, 192.0, 0.0, 0.0, 0.0, 0.0, 0.0, 0.0, 0.0, 0.0, 0.0, 1.7395407814432178E9, 0.0, 2025-02-14 10:46:21.443
40.0, -172849.66085549127, -180689.08818830113, -180838.10726858466, -174325.12185873056, -175896.7177148721, -163235.75088211906, -180973.44708126155, -170261.59706850018, -0.024, 0.924, 0.392, 192.0, 0.0, 0.0, 0.0, 0.0, 0.0, 0.0, 0.0, 0.0, 0.0, 1.7395407814432287E9, 0.0, 2025-02-14 10:46:21.443
41.0, -173339.87931488507, -180686.38362722204, -180833.39105050458, -173807.05312574544, -176267.8013763191, -163490.5384171651, -180970.72016843798, -169793.43978088378, -0.026000000000000002, 0.924, 0.392, 192.0, 255.0, 48.0, 28.0, 224.0, 12.0, 64.0, 0.0, 0.0, 0.0, 1.7395407814432387E9, 0.0, 2025-02-14 10:46:21.443
42.0, -173206.55115920916, -180685.78013012174, -180834.86626563864, -174245.30377928066, -176148.64422662786, -163449.41120736735, -180970.38489227116, -170107.48179048084, -0.026000000000000002, 0.924, 0.392, 192.0, 0.0, 0.0, 0.0, 0.0, 0.0, 0.0, 0.0, 0.0, 0.0, 1.7395407814432495E9, 0.0, 2025-02-14 10:46:21.443
43.0, -172634.63707383123, -180684.68489464343, -180834.4862859829, -174803.2033208851, -175761.6908266176, -163195.7189077996, -180969.08849109276, -170636.9275613937, -0.026000000000000002, 0.924, 0.392, 192.0, 0.0, 0.0, 0.0, 0.0, 0.0, 0.0, 0.0, 0.0, 0.0, 1.7395407814432597E9, 0.0, 2025-02-14 10:46:21.443
44.0, -172775.87774704432, -180684.81900511016, -180833.9274923715, -174451.05158699176, -175848.37089161528, -163206.1795242047, -180969.20024981504, -170379.65898271312, -0.026000000000000002, 0.924, 0.392, 192.0, 0.0, 0.0, 0.0, 0.0, 0.0, 0.0, 0.0, 0.0, 0.0, 1.7395407814432695E9, 0.0, 2025-02-14 10:46:21.443
45.0, -173338.7617276623, -180684.9978190658, -180832.29581502627, -173857.791585659, -176231.1445154124, -163461.0341144841, -180969.35671202623, -169836.2880750046, -0.026000000000000002, 0.924, 0.392, 192.0, 0.0, 0.0, 0.0, 0.0, 0.0, 0.0, 0.0, 0.0, 0.0, 1.7395407814432797E9, 0.0, 2025-02-14 10:46:21.443
46.0, -173337.35356776163, -180685.28839174373, -180833.86043713815, -174114.9931091062, -176205.70823022226, -163476.3897629249, -180969.9155056376, -170000.21576883981, -0.026000000000000002, 0.924, 0.392, 192.0, 0.0, 0.0, 0.0, 0.0, 0.0, 0.0, 0.0, 0.0, 0.0, 1.73954078144329E9, 0.0, 2025-02-14 10:46:21.443
47.0, -172798.25184324407, -180680.79569110821, -180830.84295163667, -174773.31903854836, -175796.13486482322, -163214.31555918642, -180965.46750849098, -170586.50202590253, -0.026000000000000002, 0.924, 0.392, 192.0, 0.0, 0.0, 0.0, 0.0, 0.0, 0.0, 0.0, 0.0, 0.0, 1.7395407814433E9, 0.0, 2025-02-14 10:46:21.443
48.0, -172751.02260721, -180678.8957928295, -180828.13839055758, -174558.31760863276, -175771.01150405547, -163164.78409347346, -180963.32174102328, -170468.9765535565, -0.026000000000000002, 0.924, 0.392, 192.0, 0.0, 0.0, 0.0, 0.0, 0.0, 0.0, 0.0, 0.0, 0.0, 1.73954078144331E9, 0.0, 2025-02-14 10:46:21.443
49.0, -173329.21753277988, -180680.08043528564, -180827.73605915738, -173920.17530443374, -176161.58588666748, -163405.1100498569, -180964.39462475714, -169878.51052028066, -0.026000000000000002, 0.924, 0.392, 192.0, 0.0, 0.0, 0.0, 0.0, 0.0, 0.0, 0.0, 0.0, 0.0, 1.7395407814433203E9, 0.0, 2025-02-14 10:46:21.443
50.0, -173459.57290644324, -180680.84039459712, -180828.54072195778, -173979.87681387388, -176238.11825968247, -163473.46168440123, -180964.88636313516, -169887.2500523627, -0.026000000000000002, 0.924, 0.392, 192.0, 0.0, 0.0, 0.0, 0.0, 0.0, 0.0, 0.0, 0.0, 0.0, 1.7395407814433303E9, 0.0, 2025-02-14 10:46:21.443
51.0, -172978.94334542076, -180678.60522015157, -180828.56307370224, -174699.98296499052, -175849.48847883803, -163234.54388791847, -180963.12057532318, -170492.55764395688, -0.03, 0.918, 0.388, 192.0, 255.0, 16.0, 28.0, 176.0, 12.0, 32.0, 0.0, 0.0, 0.0, 1.7395407814433403E9, 0.0, 2025-02-14 10:46:21.443
52.0, -172783.32087794793, -180678.31464747366, -180827.62430043513, -174651.34556905576, -175720.85418949774, -163120.3935289852, -180962.5617817118, -170533.32722584336, -0.03, 0.918, 0.388, 192.0, 0.0, 0.0, 0.0, 0.0, 0.0, 0.0, 0.0, 0.0, 0.0, 1.7395407814433513E9, 0.0, 2025-02-14 10:46:21.443
53.0, -173305.83760807963, -180678.80638585167, -180826.86434112364, -174005.4695612752, -176086.059342153, -163349.4095026743, -180963.27703753437, -169948.89616357043, -0.03, 0.918, 0.388, 192.0, 0.0, 0.0, 0.0, 0.0, 0.0, 0.0, 0.0, 0.0, 0.0, 1.7395407814433615E9, 0.0, 2025-02-14 10:46:21.443
54.0, -173559.08287275827, -180679.00755155177, -180825.85851262315, -173883.96547841615, -176266.77319607415, -163496.57338816804, -180962.85235438973, -169811.3882316814, -0.03, 0.918, 0.388, 192.0, 0.0, 0.0, 0.0, 0.0, 0.0, 0.0, 0.0, 0.0, 0.0, 1.739540781443377E9, 0.0, 2025-02-14 10:46:21.443
55.0, -173143.2063154228, -180676.9511910619, -180826.81963763473, -174607.64790864562, -175893.63317413727, -163280.76729545204, -180961.53360146686, -170396.2663288434, -0.03, 0.918, 0.388, 192.0, 0.0, 0.0, 0.0, 0.0, 0.0, 0.0, 0.0, 0.0, 0.0, 1.7395407814433873E9, 0.0, 2025-02-14 10:46:21.443
56.0, -172809.31595674946, -180675.20775499436, -180824.51740795583, -174723.8322763243, -175670.09337783974, -163102.55683690988, -180959.52194446587, -170589.54186314845, -0.03, 0.918, 0.388, 192.0, 0.0, 0.0, 0.0, 0.0, 0.0, 0.0, 0.0, 0.0, 0.0, 1.7395407814433973E9, 0.0, 2025-02-14 10:46:21.443
57.0, -173267.16909017196, -180674.15722300496, -180822.30458525475, -174103.77253338965, -176002.12854172333, -163270.82076916943, -180958.27024677637, -170042.77349028274, -0.03, 0.918, 0.388, 192.0, 0.0, 0.0, 0.0, 0.0, 0.0, 0.0, 0.0, 0.0, 0.0, 1.7395407814434078E9, 0.0, 2025-02-14 10:46:21.443
58.0, -173631.01078641546, -180675.5430311612, -180821.79049513227, -173812.84222755936, -176252.1998586893, -163477.37323968092, -180959.03020608786, -169771.7138852732, -0.03, 0.918, 0.388, 192.0, 0.0, 0.0, 0.0, 0.0, 0.0, 0.0, 0.0, 0.0, 0.0, 1.739540781443418E9, 0.0, 2025-02-14 10:46:21.443
59.0, -173295.9581370304, -180671.00562703676, -180820.51644569833, -174489.60834617715, -175970.0761401744, -163335.52906936753, -180955.52098220837, -170285.96046995645, -0.03, 0.918, 0.388, 192.0, 0.0, 0.0, 0.0, 0.0, 0.0, 0.0, 0.0, 0.0, 0.0, 1.7395407814434283E9, 0.0, 2025-02-14 10:46:21.443
60.0, -172868.21280338918, -180669.7986328362, -180819.22004451993, -174784.83018694285, -175679.72697969998, -163119.11947955127, -180954.17987754106, -170625.0811368324, -0.03, 0.918, 0.388, 192.0, 0.0, 0.0, 0.0, 0.0, 0.0, 0.0, 0.0, 0.0, 0.0, 1.7395407814434383E9, 0.0, 2025-02-14 10:46:21.443
61.0, -173204.60655744156, -180670.6927026144, -180819.28709975327, -174234.373776242, -175926.71375593112, -163250.59244043738, -180954.85042987473, -170154.5098608148, -0.02, 0.918, 0.382, 192.0, 255.0, 96.0, 28.0, 176.0, 11.0, 240.0, 0.0, 0.0, 0.0, 1.7395407814434488E9, 0.0, 2025-02-14 10:46:21.443
62.0, -173644.488888322, -180671.31855145915, -180817.38720147457, -173799.56529135292, -176270.19301297583, -163477.2391292142, -180954.73867115245, -169759.39807407834, -0.02, 0.918, 0.382, 192.0, 0.0, 0.0, 0.0, 0.0, 0.0, 0.0, 0.0, 0.0, 0.0, 1.7395407814434605E9, 0.0, 2025-02-14 10:46:21.443
63.0, -173409.50499886335, -180669.8433363251, -180818.929471842, -174354.13442303354, -176086.79694972004, -163380.4560757227, -180954.15752579662, -170172.83829126816, -0.02, 0.918, 0.382, 192.0, 0.0, 0.0, 0.0, 0.0, 0.0, 0.0, 0.0, 0.0, 0.0, 1.739540781443472E9, 0.0, 2025-02-14 10:46:21.443
64.0, -172926.59555990645, -180667.4964031573, -180817.07427705222, -174813.14984716772, -175715.75799176193, -163143.259363563, -180951.78824088434, -170626.4222414997, -0.02, 0.918, 0.382, 192.0, 0.0, 0.0, 0.0, 0.0, 0.0, 0.0, 0.0, 0.0, 0.0, 1.739540781443483E9, 0.0, 2025-02-14 10:46:21.443
65.0, -173122.01686167918, -180665.26122871175, -180814.45912295094, -174358.91769634697, -175860.4184818767, -163219.90349530024, -180949.77658388336, -170261.8876411781, -0.02, 0.918, 0.382, 192.0, 0.0, 0.0, 0.0, 0.0, 0.0, 0.0, 0.0, 0.0, 0.0, 1.7395407814434936E9, 0.0, 2025-02-14 10:46:21.443
66.0, -173616.25863507495, -180668.5469351467, -180815.17437877352, -173818.273701462, -176244.86848650797, -163467.0243819981, -180952.16822054007, -169781.3698388779, -0.02, 0.918, 0.382, 192.0, 0.0, 0.0, 0.0, 0.0, 0.0, 0.0, 0.0, 0.0, 0.0, 1.7395407814435036E9, 0.0, 2025-02-14 10:46:21.443
67.0, -173519.43087809454, -180665.5518013897, -180814.12384678412, -174214.54777891014, -176155.59561915346, -163440.8281374965, -180949.53071469435, -170072.12133075253, -0.02, 0.918, 0.382, 192.0, 0.0, 0.0, 0.0, 0.0, 0.0, 0.0, 0.0, 0.0, 0.0, 1.7395407814435136E9, 0.0, 2025-02-14 10:46:21.443
68.0, -172993.60608978345, -180664.07658625563, -180813.85562585064, -174796.76601848198, -175763.74718710748, -163183.4030966047, -180948.43547921604, -170619.1802762962, -0.02, 0.918, 0.382, 192.0, 0.0, 0.0, 0.0, 0.0, 0.0, 0.0, 0.0, 0.0, 0.0, 1.739540781443542E9, 0.0, 2025-02-14 10:46:21.443
69.0, -173068.10445405298, -180662.42255716593, -180811.50869268284, -174468.2400784779, -175823.62751050325, -163176.09407616785, -180946.53558093734, -170388.39851479515, -0.02, 0.918, 0.382, 192.0, 0.0, 0.0, 0.0, 0.0, 0.0, 0.0, 0.0, 0.0, 0.0, 1.739540781443554E9, 0.0, 2025-02-14 10:46:21.443
70.0, -173573.0750647873, -180663.8530688111, -180810.7263816269, -173853.5894577014, -176222.60614903047, -163440.60462005195, -180947.29554024883, -169842.6806739188, -0.02, 0.918, 0.382, 192.0, 0.0, 0.0, 0.0, 0.0, 0.0, 0.0, 0.0, 0.0, 0.0, 1.739540781443566E9, 0.0, 2025-02-14 10:46:21.443
71.0, -173607.63086171518, -180664.27775195573, -180812.29100373876, -174067.6968178388, -176231.45743983478, -163478.71434434823, -180948.1672582826, -169991.85621641352, -0.018000000000000002, 0.928, 0.38, 192.0, 255.0, 112.0, 29.0, 0.0, 11.0, 224.0, 0.0, 0.0, 0.0, 1.7395407814435778E9, 0.0, 2025-02-14 10:46:21.443
72.0, -173075.56993670107, -180661.7520048323, -180811.66515489403, -174751.4590324711, -175839.0502141774, -163207.766498061, -180946.2673600039, -170591.84409282735, -0.018000000000000002, 0.928, 0.38, 192.0, 0.0, 0.0, 0.0, 0.0, 0.0, 0.0, 0.0, 0.0, 0.0, 1.7395407814435904E9, 0.0, 2025-02-14 10:46:21.443
73.0, -172985.33594433498, -180658.62276060853, -180807.84300659216, -174574.29910591833, -175804.56147248286, -163148.57907874335, -180942.8698948467, -170515.44583027912, -0.018000000000000002, 0.928, 0.38, 192.0, 0.0, 0.0, 0.0, 0.0, 0.0, 0.0, 0.0, 0.0, 0.0, 1.7395407814436023E9, 0.0, 2025-02-14 10:46:21.443
74.0, -173490.01598239137, -180660.81323156515, -180808.08887578116, -173926.4561446257, -176190.6878579483, -163402.89722715583, -180944.47922044745, -169939.44137566583, -0.018000000000000002, 0.928, 0.38, 192.0, 0.0, 0.0, 0.0, 0.0, 0.0, 0.0, 0.0, 0.0, 0.0, 1.7395407814436145E9, 0.0, 2025-02-14 10:46:21.443
75.0, -173672.0932927243, -180660.41090016495, -180807.66419263653, -173945.16455473477, -176284.6098881495, -163510.96791159725, -180944.0545373028, -169934.0099017632, -0.018000000000000002, 0.928, 0.38, 192.0, 0.0, 0.0, 0.0, 0.0, 0.0, 0.0, 0.0, 0.0, 0.0, 1.739540781443626E9, 0.0, 2025-02-14 10:46:21.443
76.0, -173184.02060079822, -180660.07562399813, -180810.16758801552, -174679.5758223028, -175899.98106956258, -163282.1978070972, -180944.7697931254, -170547.18530740563, -0.018000000000000002, 0.928, 0.38, 192.0, 0.0, 0.0, 0.0, 0.0, 0.0, 0.0, 0.0, 0.0, 0.0, 1.739540781443638E9, 0.0, 2025-02-14 10:46:21.443
77.0, -172958.1785748218, -180659.2933129422, -180808.64766939255, -174674.233755378, -175762.6743033736, -163158.34679107033, -180943.69690939152, -170632.94895088064, -0.018000000000000002, 0.928, 0.38, 192.0, 0.0, 0.0, 0.0, 0.0, 0.0, 0.0, 0.0, 0.0, 0.0, 1.7395407814436502E9, 0.0, 2025-02-14 10:46:21.443
78.0, -173386.01331544082, -180656.3428826741, -180804.49024492386, -174023.52977079508, -176147.48193591618, -163377.19272103225, -180940.6570721456, -170062.26421144776, -0.018000000000000002, 0.928, 0.38, 192.0, 0.0, 0.0, 0.0, 0.0, 0.0, 0.0, 0.0, 0.0, 0.0, 1.7395407814436836E9, 0.0, 2025-02-14 10:46:21.443
79.0, -173699.36242095978, -180656.96873151883, -180803.6855821235, -173850.86254487783, -176353.94499944986, -163551.98336267273, -180940.4112029566, -169899.27529087965, -0.018000000000000002, 0.928, 0.38, 192.0, 0.0, 0.0, 0.0, 0.0, 0.0, 0.0, 0.0, 0.0, 0.0, 1.7395407814436972E9, 0.0, 2025-02-14 10:46:21.443
80.0, -173256.90963946696, -180656.23112395182, -180806.21132924693, -174582.9045275336, -176008.61054761536, -163357.8137585895, -180940.88058959015, -170477.8278443608, -0.018000000000000002, 0.928, 0.38, 192.0, 0.0, 0.0, 0.0, 0.0, 0.0, 0.0, 0.0, 0.0, 0.0, 1.7395407814437103E9, 0.0, 2025-02-14 10:46:21.443
81.0, -172926.0144145506, -180655.22529545132, -180804.6243553906, -174751.995474338, -175779.37105648173, -163166.72869524106, -180939.4724296895, -170703.98279475962, -0.01, 0.9400000000000001, 0.378, 192.0, 255.0, 176.0, 29.0, 96.0, 11.0, 208.0, 0.0, 0.0, 0.0, 1.7395407814437351E9, 0.0, 2025-02-14 10:46:21.443
82.0, -173307.6033958916, -180656.141716974, -180804.69141062396, -174144.2068391093, -176096.72112425818, -163353.27635446505, -180940.3217959788, -170171.58659357866, -0.01, 0.9400000000000001, 0.378, 192.0, 0.0, 0.0, 0.0, 0.0, 0.0, 0.0, 0.0, 0.0, 0.0, 1.7395407814437487E9, 0.0, 2025-02-14 10:46:21.443
83.0, -173698.22248199256, -180656.56640011864, -180802.8809193231, -173815.41267817174, -176397.15092148198, -163568.59070880304, -180939.9194645786, -169881.0586191486, -0.01, 0.9400000000000001, 0.378, 192.0, 0.0, 0.0, 0.0, 0.0, 0.0, 0.0, 0.0, 0.0, 0.0, 1.739540781443768E9, 0.0, 2025-02-14 10:46:21.443
84.0, -173351.2563528128, -180654.71120532887, -180804.19967224594, -174454.40434866006, -176136.90956078883, -163428.84760246845, -180939.13715352264, -170388.37616305068, -0.01, 0.9400000000000001, 0.378, 192.0, 0.0, 0.0, 0.0, 0.0, 0.0, 0.0, 0.0, 0.0, 0.0, 1.739540781443781E9, 0.0, 2025-02-14 10:46:21.443
85.0, -172919.82298133647, -180654.30887392868, -180803.95380305694, -174789.32288757837, -175815.02208888796, -163217.6236173658, -180938.84658084472, -170753.98364710613, -0.01, 0.9400000000000001, 0.378, 192.0, 0.0, 0.0, 0.0, 0.0, 0.0, 0.0, 0.0, 0.0, 0.0, 1.7395407814437933E9, 0.0, 2025-02-14 10:46:21.443
86.0, -173220.0739646046, -180652.900714028, -180801.76333210032, -174251.20463981686, -176035.76791712857, -163350.817662575, -180937.23725524393, -170305.65235682158, -0.01, 0.9400000000000001, 0.378, 192.0, 0.0, 0.0, 0.0, 0.0, 0.0, 0.0, 0.0, 0.0, 0.0, 1.739540781443806E9, 0.0, 2025-02-14 10:46:21.443
87.0, -173665.20895543206, -180651.9395890164, -180798.36586694312, -173784.1649394232, -176396.1897964704, -163573.15046467193, -180935.44911568752, -169903.47741883725, -0.01, 0.9400000000000001, 0.378, 192.0, 0.0, 0.0, 0.0, 0.0, 0.0, 0.0, 0.0, 0.0, 0.0, 1.7395407814438186E9, 0.0, 2025-02-14 10:46:21.443
88.0, -173439.6351503891, -180650.3302634156, -180799.4834541659, -174308.22393992235, -176212.97254717024, -163486.60451014095, -180934.64445288712, -170301.450228864, -0.01, 0.9400000000000001, 0.378, 192.0, 0.0, 0.0, 0.0, 0.0, 0.0, 0.0, 0.0, 0.0, 0.0, 1.7395407814438345E9, 0.0, 2025-02-14 10:46:21.443
89.0, -172944.2087345372, -180648.5421238592, -180798.34351519865, -174803.89622496322, -175843.7664322575, -163245.6750566572, -180933.0127755419, -170779.37522880736, -0.01, 0.9400000000000001, 0.378, 192.0, 0.0, 0.0, 0.0, 0.0, 0.0, 0.0, 0.0, 0.0, 0.0, 1.7395407814438467E9, 0.0, 2025-02-14 10:46:21.443
90.0, -173116.47362905426, -180650.0843942266, -180799.10347451014, -174374.42980699896, -175995.8924050203, -163308.01407194306, -180934.2644732314, -170442.06505323233, -0.01, 0.9400000000000001, 0.378, 192.0, 0.0, 0.0, 0.0, 0.0, 0.0, 0.0, 0.0, 0.0, 0.0, 1.7395407814438586E9, 0.0, 2025-02-14 10:46:21.443
91.0, -173603.45108550205, -180649.2350279373, -180795.90717505303, -173811.32230893642, -176391.31711617913, -163560.72289475476, -180932.7669063529, -169944.64933212392, -0.006, 0.936, 0.378, 192.0, 255.0, 208.0, 29.0, 64.0, 11.0, 208.0, 0.0, 0.0, 0.0, 1.7395407814438705E9, 0.0, 2025-02-14 10:46:21.443
92.0, -173523.74476477443, -180645.50228661328, -180793.96257328542, -174168.39142660995, -176312.5719204631, -163555.44788306332, -180929.52590340687, -170208.08699227418, -0.006, 0.936, 0.378, 192.0, 0.0, 0.0, 0.0, 0.0, 0.0, 0.0, 0.0, 0.0, 0.0, 1.739540781443884E9, 0.0, 2025-02-14 10:46:21.443
93.0, -172998.09879041897, -180643.4906296123, -180793.33672444068, -174788.51822477797, -175937.15202059175, -163306.71767076466, -180927.8048190838, -170769.38399903584, -0.006, 0.936, 0.378, 192.0, 0.0, 0.0, 0.0, 0.0, 0.0, 0.0, 0.0, 0.0, 0.0, 1.7395407814439168E9, 0.0, 2025-02-14 10:46:21.443
94.0, -173029.05595648958, -180641.1883999334, -180790.4757011504, -174492.44701772297, -175965.11405290535, -163305.66713877526, -180925.5025894049, -170567.1677669487, -0.006, 0.936, 0.378, 192.0, 0.0, 0.0, 0.0, 0.0, 0.0, 0.0, 0.0, 0.0, 0.0, 1.7395407814439294E9, 0.0, 2025-02-14 10:46:21.443
95.0, -173531.97020673397, -180643.06594646766, -180790.34159068367, -173863.8936118953, -176370.88762174698, -163564.94737445682, -180926.7989905833, -170008.2400450993, -0.006, 0.936, 0.378, 192.0, 0.0, 0.0, 0.0, 0.0, 0.0, 0.0, 0.0, 0.0, 0.0, 1.7395407814439423E9, 0.0, 2025-02-14 10:46:21.443
96.0, -173607.47439950402, -180643.87060926802, -180791.79445407327, -174033.94568371127, -176382.66699107492, -163622.65957864042, -180927.69306036152, -170120.66931970947, -0.006, 0.936, 0.378, 192.0, 0.0, 0.0, 0.0, 0.0, 0.0, 0.0, 0.0, 0.0, 0.0, 1.7395407814439557E9, 0.0, 2025-02-14 10:46:21.443
97.0, -173070.27257326516, -180640.85312376657, -180790.8780325506, -174736.9527503196, -175989.8350822729, -163369.10138953943, -180925.4131824271, -170728.83793459393, -0.006, 0.936, 0.378, 192.0, 0.0, 0.0, 0.0, 0.0, 0.0, 0.0, 0.0, 0.0, 0.0, 1.7395407814439692E9, 0.0, 2025-02-14 10:46:21.443
98.0, -172955.20579280923, -180638.6850045544, -180787.9723057714, -174595.3991526841, -175941.51061076054, -163293.5971967694, -180922.97684228147, -170680.42405610371, -0.006, 0.936, 0.378, 192.0, 0.0, 0.0, 0.0, 0.0, 0.0, 0.0, 0.0, 0.0, 0.0, 1.7395407814439893E9, 0.0, 2025-02-14 10:46:21.443
99.0, -173453.9402668405, -180639.02028072125, -180786.83236680418, -173941.36475817737, -176329.49219101574, -163549.8152434606, -180922.7980283258, -170104.64311893503, -0.006, 0.936, 0.378, 192.0, 0.0, 0.0, 0.0, 0.0, 0.0, 0.0, 0.0, 0.0, 0.0, 1.739540781444002E9, 0.0, 2025-02-14 10:46:21.444
100.0, -173656.35766462775, -180640.2943301552, -180787.6817330935, -173918.0518887105, -176453.5443727427, -163682.00346016928, -180923.98267078193, -170070.4002464295, -0.006, 0.936, 0.378, 192.0, 0.0, 0.0, 0.0, 0.0, 0.0, 0.0, 0.0, 0.0, 0.0, 1.7395407814440148E9, 0.0, 2025-02-14 10:46:21.444
101.0, -173162.8311470546, -180637.6791760539, -180787.79349181577, -174656.6205807472, -176078.48210078265, -163442.37040786393, -180922.41804867008, -170682.0333817045, -0.004, 0.932, 0.376, 192.0, 255.0, 224.0, 29.0, 32.0, 11.0, 192.0, 0.0, 0.0, 0.0, 1.7395407814440265E9, 0.0, 2025-02-14 10:46:21.444
102.0, -172932.74228963166, -180636.44983010888, -180785.9159452815, -174687.242470651, -175917.0801540709, -163287.02578389953, -180920.76401958038, -170789.63467951235, -0.004, 0.932, 0.376, 192.0, 0.0, 0.0, 0.0, 0.0, 0.0, 0.0, 0.0, 0.0, 0.0, 1.7395407814440372E9, 0.0, 2025-02-14 10:46:21.444
103.0, -173367.1260913761, -180637.05332720917, -180785.49126213687, -174041.5229250816, -176282.64293463744, -163497.10983003495, -180921.03224051383, -170217.29591098975, -0.004, 0.932, 0.376, 192.0, 0.0, 0.0, 0.0, 0.0, 0.0, 0.0, 0.0, 0.0, 0.0, 1.7395407814440491E9, 0.0, 2025-02-14 10:46:21.444
104.0, -173691.1369790002, -180638.34972838758, -180785.20068945893, -173838.54673368298, -176501.69003029945, -163682.7857712252, -180921.7474963364, -170025.09326041857, -0.004, 0.932, 0.376, 192.0, 0.0, 0.0, 0.0, 0.0, 0.0, 0.0, 0.0, 0.0, 0.0, 1.7395407819218605E9, 0.0, 2025-02-14 10:46:21.921
105.0, -173258.67542727894, -180635.10872544156, -180784.99952375883, -174550.94153296252, -176171.91239260585, -163500.90962659236, -180919.53467363532, -170592.89462481675, -0.004, 0.932, 0.376, 192.0, 0.0, 0.0, 0.0, 0.0, 0.0, 0.0, 0.0, 0.0, 0.0, 1.7395407819219103E9, 0.0, 2025-02-14 10:46:21.921
106.0, -172900.9581090162, -180632.89590274048, -180782.4290731465, -174751.9507708491, -175943.38815729477, -163311.70210977818, -180917.27714744536, -170843.0329970161, -0.004, 0.932, 0.376, 192.0, 0.0, 0.0, 0.0, 0.0, 0.0, 0.0, 0.0, 0.0, 0.0, 1.7395407819219358E9, 0.0, 2025-02-14 10:46:21.921
107.0, -173274.83573852014, -180633.45469635187, -180782.20555570192, -174151.76172873517, -176236.97832071525, -163490.6948793763, -180917.63477535662, -170317.31996742726, -0.004, 0.932, 0.376, 192.0, 0.0, 0.0, 0.0, 0.0, 0.0, 0.0, 0.0, 0.0, 0.0, 1.739540781921949E9, 0.0, 2025-02-14 10:46:21.921
108.0, -173687.247775465, -180634.21465566335, -180780.8197475457, -173789.43995111465, -176521.02428925328, -163716.15692569697, -180917.61242361218, -170000.79691419567, -0.004, 0.932, 0.376, 192.0, 0.0, 0.0, 0.0, 0.0, 0.0, 0.0, 0.0, 0.0, 0.0, 1.7395407819219613E9, 0.0, 2025-02-14 10:46:21.921
109.0, -173370.74707397784, -180632.67238529594, -180782.2726109353, -174417.34515635314, -176253.6527220789, -163594.5187323712, -180917.0536300008, -170494.21167304655, -0.004, 0.932, 0.376, 192.0, 0.0, 0.0, 0.0, 0.0, 0.0, 0.0, 0.0, 0.0, 0.0, 1.739540781921974E9, 0.0, 2025-02-14 10:46:21.921
110.0, -172928.87543784088, -180631.30892888416, -180781.04326499027, -174788.42881780016, -175939.20838108164, -163367.20149126073, -180915.66782184457, -170885.50131148117, -0.004, 0.932, 0.376, 192.0, 0.0, 0.0, 0.0, 0.0, 0.0, 0.0, 0.0, 0.0, 0.0, 1.739540781921986E9, 0.0, 2025-02-14 10:46:21.921
111.0, -173195.44234221487, -180629.92312072794, -180778.919849267, -174270.44949179288, -176160.31183723354, -163466.10796047546, -180914.03614449932, -170448.74822482446, -0.006, 0.932, 0.374, 192.0, 255.0, 208.0, 29.0, 32.0, 11.0, 176.0, 0.0, 0.0, 0.0, 1.7395407819219975E9, 0.0, 2025-02-14 10:46:21.921
112.0, -173663.51022285345, -180631.7336120288, -180778.2716486778, -173785.50604409052, -176557.1223565486, -163702.25414064576, -180915.1090282332, -170009.4246875554, -0.006, 0.932, 0.374, 192.0, 0.0, 0.0, 0.0, 0.0, 0.0, 0.0, 0.0, 0.0, 0.0, 1.7395407819220102E9, 0.0, 2025-02-14 10:46:21.922
113.0, -173465.65258093507, -180630.0795829391, -180779.165718456, -174265.9791429018, -176356.24722912876, -163641.97148584982, -180914.3937724106, -170382.67646821457, -0.006, 0.932, 0.374, 192.0, 0.0, 0.0, 0.0, 0.0, 0.0, 0.0, 0.0, 0.0, 0.0, 1.739540781922063E9, 0.0, 2025-02-14 10:46:21.922
114.0, -172966.06874061452, -180626.83857999308, -180776.75173005485, -174787.87002418877, -175949.06550038644, -163397.9574916312, -180911.37628690916, -170892.16213132883, -0.006, 0.932, 0.374, 192.0, 0.0, 0.0, 0.0, 0.0, 0.0, 0.0, 0.0, 0.0, 0.0, 1.7395407819220748E9, 0.0, 2025-02-14 10:46:21.922
115.0, -173103.88959692593, -180626.2797863817, -180775.63414283207, -174379.2130803124, -176098.8668917259, -163457.41313188235, -180910.5939758532, -170582.94809853414, -0.006, 0.932, 0.374, 192.0, 0.0, 0.0, 0.0, 0.0, 0.0, 0.0, 0.0, 0.0, 0.0, 1.7395407819220867E9, 0.0, 2025-02-14 10:46:21.922
116.0, -173604.0769343468, -180628.26909163824, -180775.27651492078, -173800.43700938666, -176515.9504432619, -163712.53594309522, -180911.8009700538, -170066.399284172, -0.006, 0.932, 0.374, 192.0, 0.0, 0.0, 0.0, 0.0, 0.0, 0.0, 0.0, 0.0, 0.0, 1.7395407819220989E9, 0.0, 2025-02-14 10:46:21.922
117.0, -173546.52119237438, -180626.2797863817, -180774.9188870095, -174122.01155686518, -176488.30133537072, -163698.1861231549, -180910.5045688754, -170295.23644390542, -0.006, 0.932, 0.374, 192.0, 0.0, 0.0, 0.0, 0.0, 0.0, 0.0, 0.0, 0.0, 0.0, 1.7395407819221103E9, 0.0, 2025-02-14 10:46:21.922
118.0, -173039.09188975, -180624.62575729203, -180774.8071282872, -174763.52897447694, -176066.23334482114, -163423.34907333244, -180909.2975746748, -170866.12234903843, -0.006, 0.932, 0.374, 192.0, 0.0, 0.0, 0.0, 0.0, 0.0, 0.0, 0.0, 0.0, 0.0, 1.739540781922122E9, 0.0, 2025-02-14 10:46:21.922
119.0, -173047.36203519846, -180625.31866137014, -180774.8071282872, -174494.86100612415, -176064.98164713164, -163406.20528533522, -180909.83401654175, -170683.55330032748, -0.006, 0.932, 0.374, 192.0, 0.0, 0.0, 0.0, 0.0, 0.0, 0.0, 0.0, 0.0, 0.0, 1.7395407819221337E9, 0.0, 2025-02-14 10:46:21.922
120.0, -173560.5580878923, -180623.37405960253, -180770.8732212631, -173857.8362891479, -176461.8592216801, -163668.882986174, -180907.12945546265, -170110.34281377113, -0.006, 0.932, 0.374, 192.0, 0.0, 0.0, 0.0, 0.0, 0.0, 0.0, 0.0, 0.0, 0.0, 1.739540781922145E9, 0.0, 2025-02-14 10:46:21.922
121.0, -173664.9407344986, -180622.01060319075, -180769.88974450706, -173991.38796226837, -176506.51800710178, -163739.71566435287, -180905.78835079534, -170190.5632246212, -0.006, 0.936, 0.376, 192.0, 255.0, 208.0, 29.0, 64.0, 11.0, 192.0, 0.0, 0.0, 0.0, 1.739540781922157E9, 0.0, 2025-02-14 10:46:21.922
122.0, -173129.30353037163, -180622.01060319075, -180772.1696224415, -174707.47079938304, -176115.38483087838, -163486.1351235074, -180906.66006882908, -170800.38586859536, -0.006, 0.936, 0.376, 192.0, 0.0, 0.0, 0.0, 0.0, 0.0, 0.0, 0.0, 0.0, 0.0, 1.7395407819221692E9, 0.0, 2025-02-14 10:46:21.922
123.0, -173012.090982448, -180622.01060319075, -180771.25320091884, -174601.59058589823, -176040.37237648637, -163391.7660584171, -180906.1906821955, -170778.97289740716, -0.006, 0.936, 0.376, 192.0, 0.0, 0.0, 0.0, 0.0, 0.0, 0.0, 0.0, 0.0, 0.0, 1.739540781922181E9, 0.0, 2025-02-14 10:46:21.922
124.0, -173499.53782552932, -180622.74821075777, -180770.44853811845, -173944.38224367885, -176443.888419138, -163626.5264304312, -180906.25773742888, -170194.83240781218, -0.006, 0.936, 0.376, 192.0, 0.0, 0.0, 0.0, 0.0, 0.0, 0.0, 0.0, 0.0, 0.0, 1.7395407819221923E9, 0.0, 2025-02-14 10:46:21.922
125.0, -173760.04740715594, -180622.70350726886, -180769.80033752925, -173883.69725748268, -176565.90659211954, -163757.21708026138, -180906.1012752177, -170127.5089535128, -0.006, 0.936, 0.376, 192.0, 0.0, 0.0, 0.0, 0.0, 0.0, 0.0, 0.0, 0.0, 0.0, 1.7395407819222038E9, 0.0, 2025-02-14 10:46:21.922
126.0, -173240.0340724032, -180619.88718746748, -180770.1132619516, -174624.21055128702, -176187.26804104663, -163533.67728396386, -180904.58135659475, -170730.82723985045, -0.006, 0.936, 0.376, 192.0, 0.0, 0.0, 0.0, 0.0, 0.0, 0.0, 0.0, 0.0, 0.0, 1.7395407819222152E9, 0.0, 2025-02-14 10:46:21.922
127.0, -173009.16290392436, -180618.70254501136, -180768.34747413965, -174688.76238927394, -176016.76893434155, -163376.07513380947, -180903.1508449496, -170860.08737803547, -0.006, 0.936, 0.376, 192.0, 0.0, 0.0, 0.0, 0.0, 0.0, 0.0, 0.0, 0.0, 0.0, 1.739540781922233E9, 0.0, 2025-02-14 10:46:21.922
128.0, -173418.66921409004, -180618.65784152245, -180767.2075351724, -174048.96605598522, -176365.7243687778, -163574.11158968348, -180902.81556878277, -170291.5931095592, -0.006, 0.936, 0.376, 192.0, 0.0, 0.0, 0.0, 0.0, 0.0, 0.0, 0.0, 0.0, 0.0, 1.7395407819222448E9, 0.0, 2025-02-14 10:46:21.922
129.0, -173796.70426806263, -180619.88718746748, -180766.3581688831, -173814.29509094896, -176623.61879630314, -163760.23456576283, -180903.1508449496, -170075.47409242083, -0.006, 0.936, 0.376, 192.0, 0.0, 0.0, 0.0, 0.0, 0.0, 0.0, 0.0, 0.0, 0.0, 1.7395407819222565E9, 0.0, 2025-02-14 10:46:21.922
130.0, -173349.78113767877, -180616.55677754365, -180766.53698283876, -174509.25552955337, -176289.50492018522, -163605.24756970973, -180901.11683620416, -170628.38919501178, -0.006, 0.936, 0.376, 192.0, 0.0, 0.0, 0.0, 0.0, 0.0, 0.0, 0.0, 0.0, 0.0, 1.739540781922268E9, 0.0, 2025-02-14 10:46:21.922
131.0, -173011.35337488097, -180615.01450717624, -180764.77119502678, -174744.52999168992, -176002.03913474552, -163401.5114189996, -180899.41810362556, -170917.86663745245, -0.008, 0.928, 0.37, 192.0, 255.0, 192.0, 29.0, 0.0, 11.0, 144.0, 0.0, 0.0, 0.0, 1.7395407819222791E9, 0.0, 2025-02-14 10:46:21.922
132.0, -173329.88808511355, -180615.01450717624, -180763.83242175967, -174160.16598465038, -176290.08606554105, -163554.03972316263, -180899.10517920318, -170416.71817502, -0.008, 0.928, 0.37, 192.0, 0.0, 0.0, 0.0, 0.0, 0.0, 0.0, 0.0, 0.0, 0.0, 1.7395407819222913E9, 0.0, 2025-02-14 10:46:21.922
133.0, -173796.9277855072, -180617.22732987732, -180763.72066303738, -173774.53133756298, -176609.80541822975, -163776.75250491532, -180900.58039433724, -170070.4002464295, -0.008, 0.928, 0.37, 192.0, 0.0, 0.0, 0.0, 0.0, 0.0, 0.0, 0.0, 0.0, 0.0, 1.7395407819223027E9, 0.0, 2025-02-14 10:46:21.922
134.0, -173459.41644423205, -180614.92510019842, -180764.52532583778, -174373.93806862095, -176386.1762149544, -163657.5282999907, -180899.41810362556, -170532.43315606515, -0.008, 0.928, 0.37, 192.0, 0.0, 0.0, 0.0, 0.0, 0.0, 0.0, 0.0, 0.0, 0.0, 1.739540781922314E9, 0.0, 2025-02-14 10:46:21.922
135.0, -173020.65170057438, -180613.29342285317, -180763.20657291493, -174777.92349790616, -176055.77272841608, -163425.20426812224, -180897.78642628033, -170950.1425564459, -0.008, 0.928, 0.37, 192.0, 0.0, 0.0, 0.0, 0.0, 0.0, 0.0, 0.0, 0.0, 0.0, 1.7395407819223256E9, 0.0, 2025-02-14 10:46:21.922
136.0, -173238.38004331352, -180611.34882108556, -180760.34554962465, -174276.5962215181, -176264.04628325062, -163519.6403884459, -180895.48419660144, -170544.72661551557, -0.008, 0.928, 0.37, 192.0, 0.0, 0.0, 0.0, 0.0, 0.0, 0.0, 0.0, 0.0, 0.0, 1.739540781922361E9, 0.0, 2025-02-14 10:46:21.922
137.0, -173747.95511340562, -180613.56164378664, -180760.39025311355, -173766.44000607016, -176615.97449969943, -163773.42209499146, -180896.95941173547, -170098.38463048753, -0.008, 0.928, 0.37, 192.0, 0.0, 0.0, 0.0, 0.0, 0.0, 0.0, 0.0, 0.0, 0.0, 1.7395407819223728E9, 0.0, 2025-02-14 10:46:21.922
138.0, -173554.32195118928, -180612.80168447515, -180761.88781999206, -174234.93256985338, -176471.87280319605, -163726.34932116859, -180897.00411522438, -170446.37893991222, -0.008, 0.928, 0.37, 192.0, 0.0, 0.0, 0.0, 0.0, 0.0, 0.0, 0.0, 0.0, 0.0, 1.739540781922385E9, 0.0, 2025-02-14 10:46:21.922
139.0, -173053.53111666813, -180608.59955651755, -180758.60211355714, -174781.85740493028, -176087.57926077596, -163469.2819081881, -180893.20431866698, -170969.3650566775, -0.008, 0.928, 0.37, 192.0, 0.0, 0.0, 0.0, 0.0, 0.0, 0.0, 0.0, 0.0, 0.0, 1.7395407819223971E9, 0.0, 2025-02-14 10:46:21.922
