%OpenBCI Raw EXG Data
%Number of channels = 8
%Sample Rate = 250 Hz
%Board = OpenBCI_GUI$BoardCytonSerial
Sample Index, EXG Channel 0, EXG Channel 1, EXG Channel 2, EXG Channel 3, EXG Channel 4, EXG Channel 5, EXG Channel 6, EXG Channel 7, Accel Channel 0, Accel Channel 1, Accel Channel 2, Not Used, Digital Channel 0 (D11), Digital Channel 1 (D12), Digital Channel 2 (D13), Digital Channel 3 (D17), Not Used, Digital Channel 4 (D18), Analog Channel 0, Analog Channel 1, Analog Channel 2, Timestamp, Marker Channel, Timestamp (Formatted)
204.0, -9105.161917824975, -8195.535325471797, -6751.344412725498, -6505.8328516284055, -5542.562072582492, -8189.90268586906, -9471.261140258448, -8315.83241413026, 0.0, 0.0, 0.0, 192.0, 0.0, 0.0, 0.0, 0.0, 0.0, 0.0, 0.0, 0.0, 0.0, 1.7309195999067075E9, 0.0, 2024-11-06 15:59:59.906
205.0, -9057.105667246064, -8147.680240592986, -6706.395054625876, -6534.554843253475, -5570.501753151626, -8185.4323369779995, -9469.182428024105, -8335.345487039744, 0.0, 0.0, 0.0, 192.0, 0.0, 0.0, 0.0, 0.0, 0.0, 0.0, 0.0, 0.0, 0.0, 1.7309195999067607E9, 0.0, 2024-11-06 15:59:59.906
0.0, 0.0, 0.0, 0.0, 0.0, 0.0, 0.0, 0.0, 0.0, 0.0, 0.0, 0.0, 192.0, 0.0, 0.0, 0.0, 0.0, 0.0, 0.0, 0.0, 0.0, 0.0, 1.7309195999300857E9, 0.0, 2024-11-06 15:59:59.930
1.0, -9015.486719070283, -8228.750017732384, -6637.484626470164, -6672.420403053809, -5620.927288642799, -8147.322612681701, -9396.315741099805, -8201.637351708097, 0.032, 0.968, 0.158, 192.0, 1.0, 0.0, 30.0, 64.0, 4.0, 240.0, 0.0, 0.0, 0.0, 1.7309195999472747E9, 0.0, 2024-11-06 15:59:59.947
2.0, -9021.097006928565, -8231.58868927821, -6634.467140968698, -6679.684720001784, -5611.986590860676, -8139.633612589075, -9383.016453148897, -8203.514898242343, 0.032, 0.968, 0.158, 192.0, 0.0, 0.0, 0.0, 0.0, 0.0, 0.0, 0.0, 0.0, 0.0, 1.730919599950106E9, 0.0, 2024-11-06 15:59:59.950
3.0, -9055.094010245086, -8265.138657705624, -6665.603120994941, -6662.295062815555, -5586.527953926081, -8147.009688259326, -9383.195267104538, -8190.729700413907, 0.032, 0.968, 0.158, 192.0, 0.0, 0.0, 0.0, 0.0, 0.0, 0.0, 0.0, 0.0, 0.0, 1.7309195999542716E9, 0.0, 2024-11-06 15:59:59.954
4.0, -9052.858835799556, -8265.608044339186, -6671.9510164202475, -6652.259129555122, -5591.557096428525, -8154.788095329774, -9395.935761444063, -8186.482868967399, 0.032, 0.968, 0.158, 192.0, 0.0, 0.0, 0.0, 0.0, 0.0, 0.0, 0.0, 0.0, 0.0, 1.73091959995833E9, 0.0, 2024-11-06 15:59:59.958
5.0, -9018.615963294025, -8232.10277940068, -6641.619699194396, -6668.531199518586, -5617.574526974503, -8148.641365604564, -9397.880363211676, -8198.753976673363, 0.032, 0.968, 0.158, 192.0, 0.0, 0.0, 0.0, 0.0, 0.0, 0.0, 0.0, 0.0, 0.0, 1.7309195999614143E9, 0.0, 2024-11-06 15:59:59.961
6.0, -9014.011503936232, -8225.687828742008, -6629.058018810513, -6678.544781034563, -5613.305343783539, -8137.2419759323575, -9383.016453148897, -8202.017331363837, 0.032, 0.968, 0.158, 192.0, 0.0, 0.0, 0.0, 0.0, 0.0, 0.0, 0.0, 0.0, 0.0, 1.7309195999652407E9, 0.0, 2024-11-06 15:59:59.965
7.0, -9048.857873542056, -8258.991927980414, -6658.294100558055, -6664.217312838711, -5586.818526604, -8141.6452695900525, -9379.596636247235, -8190.372072502622, 0.032, 0.968, 0.158, 192.0, 0.0, 0.0, 0.0, 0.0, 0.0, 0.0, 0.0, 0.0, 0.0, 1.7309195999692883E9, 0.0, 2024-11-06 15:59:59.969
8.0, -9059.40789692496, -8270.681890330541, -6675.281426344089, -6653.644937711351, -5588.383148715871, -8154.475170907399, -9394.639360265655, -8186.460517222944, 0.05, 0.962, 0.24, 192.0, 1.0, 144.0, 30.0, 16.0, 7.0, 128.0, 0.0, 0.0, 0.0, 1.730919599975436E9, 0.0, 2024-11-06 15:59:59.975
9.0, -9026.506129086749, -8239.121227159647, -6648.45933299772, -6667.570074507007, -5615.518166484615, -8151.904720295039, -9400.875496968687, -8198.262238295345, 0.05, 0.962, 0.24, 192.0, 0.0, 0.0, 0.0, 0.0, 0.0, 0.0, 0.0, 0.0, 0.0, 1.7309195999781797E9, 0.0, 2024-11-06 15:59:59.978
10.0, -9012.536288802183, -8224.525538030332, -6628.07454205448, -6682.255170614144, -5618.937983386277, -8139.857130033628, -9387.799726462332, -8205.414796521043, 0.05, 0.962, 0.24, 192.0, 0.0, 0.0, 0.0, 0.0, 0.0, 0.0, 0.0, 0.0, 0.0, 1.73091959998234E9, 0.0, 2024-11-06 15:59:59.982
11.0, -9041.21357693834, -8252.06288719927, -6650.336879531966, -6670.721670475205, -5591.043006306053, -8139.633612589075, -9378.14377285764, -8194.104813826658, 0.05, 0.962, 0.24, 192.0, 0.0, 0.0, 0.0, 0.0, 0.0, 0.0, 0.0, 0.0, 0.0, 1.7309195999863987E9, 0.0, 2024-11-06 15:59:59.986
12.0, -9057.79857132418, -8269.743117063417, -6672.8897896873705, -6656.505961001631, -5584.113965524908, -8151.748258083851, -9389.654921252122, -8186.2593515228455, 0.05, 0.962, 0.24, 192.0, 0.0, 0.0, 0.0, 0.0, 0.0, 0.0, 0.0, 0.0, 0.0, 1.7309195999894292E9, 0.0, 2024-11-06 15:59:59.989
13.0, -9026.886108742488, -8240.350573104688, -6649.576920220486, -6665.2231413392, -5607.717407669712, -8150.18363597198, -9396.159278888617, -8194.104813826658, 0.05, 0.962, 0.24, 192.0, 0.0, 0.0, 0.0, 0.0, 0.0, 0.0, 0.0, 0.0, 0.0, 1.7309195999933574E9, 0.0, 2024-11-06 15:59:59.993
14.0, -9008.200050377853, -8220.658686239563, -6626.755789131616, -6683.3951095813645, -5619.630887464391, -8139.432446888977, -9387.28563633986, -8205.14657558758, 0.05, 0.962, 0.24, 192.0, 0.0, 0.0, 0.0, 0.0, 0.0, 0.0, 0.0, 0.0, 0.0, 1.7309195999972248E9, 0.0, 2024-11-06 15:59:59.997
15.0, -9036.296193158174, -8246.430247596532, -6646.447675996742, -6677.024862411602, -5596.429776719782, -8138.873653277595, -9378.546104257835, -8198.105776084158, 0.05, 0.962, 0.24, 192.0, 0.0, 0.0, 0.0, 0.0, 0.0, 0.0, 0.0, 0.0, 0.0, 1.7309196000012724E9, 0.0, 2024-11-06 16:00:00.001
16.0, -9060.346670192084, -8271.039518241825, -6673.470935043209, -6659.277577314088, -5582.594046901947, -8150.831836561184, -9387.866781695699, -8187.376938745611, 0.05, 0.962, 0.24, 192.0, 0.0, 0.0, 0.0, 0.0, 0.0, 0.0, 0.0, 0.0, 0.0, 1.7309196000051925E9, 0.0, 2024-11-06 16:00:00.005
17.0, -9035.804454780156, -8248.508959830877, -6657.377679035388, -6662.384469793376, -5603.068244823008, -8152.172941228502, -9397.589790533757, -8192.316674270234, 0.05, 0.962, 0.24, 192.0, 0.0, 0.0, 0.0, 0.0, 0.0, 0.0, 0.0, 0.0, 0.0, 1.7309196000114124E9, 0.0, 2024-11-06 16:00:00.011
18.0, -9007.93182944439, -8220.368113561644, -6627.783969376561, -6679.327092090499, -5618.06626535252, -8139.723019566896, -9388.939665429552, -8202.754938930862, 0.058, 0.9580000000000001, 0.28, 192.0, 1.0, 208.0, 29.0, 240.0, 8.0, 192.0, 0.0, 0.0, 0.0, 1.730919600014464E9, 0.0, 2024-11-06 16:00:00.014
19.0, -9027.623716309514, -8238.24950912589, -6638.98219334867, -6676.913103689326, -5598.083805809475, -8135.677353820486, -9377.249703079427, -8198.19518306198, 0.058, 0.9580000000000001, 0.28, 192.0, 0.0, 0.0, 0.0, 0.0, 0.0, 0.0, 0.0, 0.0, 0.0, 1.7309196000183163E9, 0.0, 2024-11-06 16:00:00.018
20.0, -9057.195074223886, -8267.97732925145, -6670.118173374913, -6658.517618002608, -5579.174230000285, -8146.070914992204, -9383.485839782457, -8186.236999778391, 0.058, 0.9580000000000001, 0.28, 192.0, 0.0, 0.0, 0.0, 0.0, 0.0, 0.0, 0.0, 0.0, 0.0, 1.7309196000213041E9, 0.0, 2024-11-06 16:00:00.021
21.0, -9039.201919937363, -8251.973480221448, -6662.0268418820915, -6656.885940657371, -5595.245134263651, -8150.161284227524, -9395.265209110405, -8188.025139334815, 0.058, 0.9580000000000001, 0.28, 192.0, 0.0, 0.0, 0.0, 0.0, 0.0, 0.0, 0.0, 0.0, 0.0, 1.7309196000252256E9, 0.0, 2024-11-06 16:00:00.025
22.0, -9008.244753866764, -8221.48570078441, -6631.449655467231, -6676.108440888935, -5617.529823485592, -8141.578214356687, -9392.068909653295, -8201.436186007999, 0.058, 0.9580000000000001, 0.28, 192.0, 0.0, 0.0, 0.0, 0.0, 0.0, 0.0, 0.0, 0.0, 0.0, 1.730919600029225E9, 0.0, 2024-11-06 16:00:00.029
23.0, -9022.996905207267, -8234.62852652413, -6636.478797969676, -6681.316397347021, -5605.772805902101, -8137.331382910179, -9381.250665336927, -8202.486717997399, 0.058, 0.9580000000000001, 0.28, 192.0, 0.0, 0.0, 0.0, 0.0, 0.0, 0.0, 0.0, 0.0, 0.0, 1.730919600033223E9, 0.0, 2024-11-06 16:00:00.033
24.0, -9055.295175945184, -8266.25624492839, -6667.212446595722, -6662.2056558377335, -5581.789384101557, -8145.176845213991, -9383.441136293548, -8188.874505624117, 0.058, 0.9580000000000001, 0.28, 192.0, 0.0, 0.0, 0.0, 0.0, 0.0, 0.0, 0.0, 0.0, 0.0, 1.7309196000384164E9, 0.0, 2024-11-06 16:00:00.038
25.0, -9046.712106074347, -8258.723707046951, -6667.167743106812, -6656.2153883237115, -5592.384110973372, -8152.128237739592, -9397.05334866683, -8188.04749107927, 0.058, 0.9580000000000001, 0.28, 192.0, 0.0, 0.0, 0.0, 0.0, 0.0, 0.0, 0.0, 0.0, 0.0, 1.730919600041522E9, 0.0, 2024-11-06 16:00:00.041
26.0, -9012.938620202378, -8225.218442108446, -6636.031763080569, -6674.096783887957, -5617.4851199966815, -8145.020383002804, -9397.254514366927, -8201.547944730275, 0.058, 0.9580000000000001, 0.28, 192.0, 0.0, 0.0, 0.0, 0.0, 0.0, 0.0, 0.0, 0.0, 0.0, 1.7309196000465295E9, 0.0, 2024-11-06 16:00:00.046
27.0, -9016.40314059295, -8226.693657242497, -6630.9802688336695, -6681.316397347021, -5609.080864081486, -8135.744409053852, -9383.105860126718, -8203.514898242343, 0.058, 0.9580000000000001, 0.28, 192.0, 0.0, 0.0, 0.0, 0.0, 0.0, 0.0, 0.0, 0.0, 0.0, 1.7309196000496116E9, 0.0, 2024-11-06 16:00:00.049
28.0, -9052.568263121637, -8262.25528267089, -6663.189132593767, -6666.452487284242, -5584.96333181421, -8144.1710167135025, -9383.038804893351, -8192.696653925974, 0.06, 0.9580000000000001, 0.296, 192.0, 1.0, 224.0, 29.0, 240.0, 9.0, 64.0, 0.0, 0.0, 0.0, 1.73091960005338E9, 0.0, 2024-11-06 16:00:00.053
29.0, -9052.45650439936, -8264.289291416322, -6671.146353619856, -6655.567187734508, -5588.62901790488, -8152.552920884243, -9394.684063754567, -8188.04749107927, 0.06, 0.9580000000000001, 0.296, 192.0, 0.0, 0.0, 0.0, 0.0, 0.0, 0.0, 0.0, 0.0, 0.0, 1.7309196000577624E9, 0.0, 2024-11-06 16:00:00.057
30.0, -9017.207803393341, -8230.314639844257, -6640.613870693907, -6669.93935941927, -5614.221765306207, -8145.780342314285, -9396.405148077625, -8199.67039819603, 0.06, 0.9580000000000001, 0.296, 192.0, 0.0, 0.0, 0.0, 0.0, 0.0, 0.0, 0.0, 0.0, 0.0, 1.7309196000614407E9, 0.0, 2024-11-06 16:00:00.061
31.0, -9012.44688182436, -8224.190261863501, -6628.02983856557, -6682.32222584751, -5613.640619950369, -8135.722057309396, -9383.642301993645, -8205.772424432329, 0.06, 0.9580000000000001, 0.296, 192.0, 0.0, 0.0, 0.0, 0.0, 0.0, 0.0, 0.0, 0.0, 0.0, 1.7309196000664823E9, 0.0, 2024-11-06 16:00:00.066
32.0, -9046.153312462964, -8256.913215746072, -6656.014222623614, -6668.888827429871, -5587.332616726472, -8140.393571900556, -9379.171953102583, -8195.088290582693, 0.06, 0.9580000000000001, 0.296, 192.0, 0.0, 0.0, 0.0, 0.0, 0.0, 0.0, 0.0, 0.0, 0.0, 1.7309196000694523E9, 0.0, 2024-11-06 16:00:00.069
33.0, -9053.998774766776, -8266.54681760631, -6670.229932097189, -6653.801399922539, -5583.2645992356065, -8150.004822016338, -9390.057252652317, -8187.265180023334, 0.06, 0.9580000000000001, 0.296, 192.0, 0.0, 0.0, 0.0, 0.0, 0.0, 0.0, 0.0, 0.0, 0.0, 1.730919600073492E9, 0.0, 2024-11-06 16:00:00.073
34.0, -9023.64510579647, -8237.10957015867, -6645.330088773977, -6667.03363264008, -5610.645486193358, -8148.75312432684, -9397.209810878017, -8199.62569470712, 0.06, 0.9580000000000001, 0.296, 192.0, 0.0, 0.0, 0.0, 0.0, 0.0, 0.0, 0.0, 0.0, 0.0, 1.7309196000774777E9, 0.0, 2024-11-06 16:00:00.077
35.0, -9010.412873078927, -8222.558584518265, -6626.375809475877, -6683.305702603544, -5617.239250807674, -8139.477150377888, -9386.436270050559, -8209.460462267454, 0.06, 0.9580000000000001, 0.296, 192.0, 0.0, 0.0, 0.0, 0.0, 0.0, 0.0, 0.0, 0.0, 0.0, 1.7309196000813797E9, 0.0, 2024-11-06 16:00:00.081
36.0, -9040.990059493788, -8251.839369754716, -6650.2698242986, -6674.208542610234, -5592.562924929014, -8142.226414945891, -9379.484877524957, -8201.212668563447, 0.06, 0.9580000000000001, 0.296, 192.0, 0.0, 0.0, 0.0, 0.0, 0.0, 0.0, 0.0, 0.0, 0.0, 1.7309196000854614E9, 0.0, 2024-11-06 16:00:00.085
37.0, -9058.200902724375, -8270.033689741336, -6672.532161776086, -6656.997699379647, -5582.839916090956, -8152.172941228502, -9389.43140380757, -8190.95321785846, 0.06, 0.9580000000000001, 0.296, 192.0, 0.0, 0.0, 0.0, 0.0, 0.0, 0.0, 0.0, 0.0, 0.0, 1.7309196000894692E9, 0.0, 2024-11-06 16:00:00.089
38.0, -9029.903594243955, -8243.099837672691, -6652.504998744131, -6664.999623894647, -5607.136262313875, -8151.61414761712, -9399.065005667808, -8199.491584240388, 0.062, 0.9560000000000001, 0.308, 192.0, 1.0, 240.0, 29.0, 224.0, 9.0, 160.0, 0.0, 0.0, 0.0, 1.730919600093479E9, 0.0, 2024-11-06 16:00:00.093
39.0, -9010.368169590018, -8222.893860685093, -6629.080370554969, -6684.780917737594, -5621.307268298539, -8142.18171145698, -9391.755985230922, -8212.723816957929, 0.062, 0.9560000000000001, 0.308, 192.0, 0.0, 0.0, 0.0, 0.0, 0.0, 0.0, 0.0, 0.0, 0.0, 1.730919600097475E9, 0.0, 2024-11-06 16:00:00.097
40.0, -9033.21165242334, -8244.552701062286, -6643.251376539633, -6677.203676367245, -5596.273314508595, -8138.024286988293, -9379.060194380307, -8204.14074708709, 0.062, 0.9560000000000001, 0.308, 192.0, 0.0, 0.0, 0.0, 0.0, 0.0, 0.0, 0.0, 0.0, 0.0, 1.730919600100427E9, 0.0, 2024-11-06 16:00:00.100
41.0, -9056.345707934584, -8268.558474607287, -6669.581731507985, -6657.444734268754, -5579.375395700383, -8147.121446981603, -9385.296331083338, -8191.690825425485, 0.062, 0.9560000000000001, 0.308, 192.0, 0.0, 0.0, 0.0, 0.0, 0.0, 0.0, 0.0, 0.0, 0.0, 1.7309196001053698E9, 0.0, 2024-11-06 16:00:00.105
42.0, -9035.670344313425, -8249.671250542551, -6658.070583113502, -6662.406821537831, -5601.615381433414, -8151.524740639298, -9397.880363211676, -8199.424529007021, 0.062, 0.9560000000000001, 0.308, 192.0, 0.0, 0.0, 0.0, 0.0, 0.0, 0.0, 0.0, 0.0, 0.0, 1.730919600109506E9, 0.0, 2024-11-06 16:00:00.109
43.0, -9011.284591112684, -8224.547889774787, -6631.561414189508, -6684.51269680413, -5622.380152032394, -8144.215720202414, -9394.19232537655, -8215.562488503754, 0.062, 0.9560000000000001, 0.308, 192.0, 0.0, 0.0, 0.0, 0.0, 0.0, 0.0, 0.0, 0.0, 0.0, 1.730919600113564E9, 0.0, 2024-11-06 16:00:00.113
44.0, -9027.9813442208, -8239.568262048753, -6639.608042193418, -6682.545743292063, -5602.330637255984, -8138.538377110765, -9380.37894730317, -8210.846270423683, 0.062, 0.9560000000000001, 0.308, 192.0, 0.0, 0.0, 0.0, 0.0, 0.0, 0.0, 0.0, 0.0, 0.0, 1.7309196001174972E9, 0.0, 2024-11-06 16:00:00.117
45.0, -9057.865626557545, -8269.005509496392, -6670.118173374913, -6663.524408760597, -5581.543514912548, -8148.484903393377, -9384.916351427597, -8197.971665617426, 0.062, 0.9560000000000001, 0.308, 192.0, 0.0, 0.0, 0.0, 0.0, 0.0, 0.0, 0.0, 0.0, 0.0, 1.7309196001215127E9, 0.0, 2024-11-06 16:00:00.121
46.0, -9043.649917083969, -8256.15325643459, -6664.46318202772, -6661.356289548432, -5596.161555786319, -8153.692859851463, -9396.7180725, -8199.558639473753, 0.062, 0.9560000000000001, 0.308, 192.0, 0.0, 0.0, 0.0, 0.0, 0.0, 0.0, 0.0, 0.0, 0.0, 1.7309196001254635E9, 0.0, 2024-11-06 16:00:00.125
47.0, -9010.614038779026, -8223.542061274298, -6632.299021756533, -6679.394147323865, -5617.418064763316, -8144.1710167135025, -9392.359482331214, -8212.05326462427, 0.062, 0.9560000000000001, 0.308, 192.0, 0.0, 0.0, 0.0, 0.0, 0.0, 0.0, 0.0, 0.0, 0.0, 1.7309196001285715E9, 0.0, 2024-11-06 16:00:00.128
48.0, -9020.001771450254, -8231.38752357811, -6632.656649667818, -6682.948074692259, -5603.9846663456765, -8136.236147431869, -9378.210828091005, -8211.382712290611, 0.062, 0.9540000000000001, 0.314, 192.0, 1.0, 240.0, 29.0, 208.0, 9.0, 208.0, 0.0, 0.0, 0.0, 1.730919600133412E9, 0.0, 2024-11-06 16:00:00.133
49.0, -9051.920062532434, -8263.238759426924, -6663.189132593767, -6663.725574460695, -5578.816602089, -8142.874615535095, -9378.657862980112, -8197.502278983866, 0.062, 0.9540000000000001, 0.314, 192.0, 0.0, 0.0, 0.0, 0.0, 0.0, 0.0, 0.0, 0.0, 0.0, 1.7309196001375325E9, 0.0, 2024-11-06 16:00:00.137
50.0, -9047.248547941274, -8260.958881492483, -6667.74888846265, -6659.277577314088, -5590.77478537259, -8152.932900539983, -9394.125270143184, -8198.4857557399, 0.062, 0.9540000000000001, 0.314, 192.0, 0.0, 0.0, 0.0, 0.0, 0.0, 0.0, 0.0, 0.0, 0.0, 1.730919600141492E9, 0.0, 2024-11-06 16:00:00.141
51.0, -9016.649009781959, -8230.940488689004, -6640.256242782622, -6680.355272335443, -5619.742646186668, -8148.998993515849, -9397.455680067025, -8215.070750125737, 0.062, 0.9540000000000001, 0.314, 192.0, 0.0, 0.0, 0.0, 0.0, 0.0, 0.0, 0.0, 0.0, 0.0, 1.7309196001476085E9, 0.0, 2024-11-06 16:00:00.147
52.0, -9017.07369292661, -8229.487625299409, -6632.522539201086, -6688.334845105987, -5612.523032727603, -8138.694839321953, -9382.748232215434, -8217.305924571267, 0.062, 0.9540000000000001, 0.314, 192.0, 0.0, 0.0, 0.0, 0.0, 0.0, 0.0, 0.0, 0.0, 0.0, 1.730919600150386E9, 0.0, 2024-11-06 16:00:00.150
53.0, -9048.679059586413, -8260.467143114465, -6659.523446503097, -6669.2241035967, -5583.398709702338, -8141.734676567874, -9377.80849669081, -8202.10673834166, 0.062, 0.9540000000000001, 0.314, 192.0, 0.0, 0.0, 0.0, 0.0, 0.0, 0.0, 0.0, 0.0, 0.0, 1.7309196001544347E9, 0.0, 2024-11-06 16:00:00.154
54.0, -9050.802475309667, -8264.468105371965, -6669.2241035967, -6657.511789502119, -5585.29860798104, -8151.189464472469, -9390.169011374595, -8196.76467141684, 0.062, 0.9540000000000001, 0.314, 192.0, 0.0, 0.0, 0.0, 0.0, 0.0, 0.0, 0.0, 0.0, 0.0, 1.7309196001576028E9, 0.0, 2024-11-06 16:00:00.157
55.0, -9018.660666782936, -8232.952145689982, -6642.379658505876, -6674.387356565876, -5613.774730417101, -8149.311917938223, -9395.824002721787, -8210.935677401505, 0.062, 0.9540000000000001, 0.314, 192.0, 0.0, 0.0, 0.0, 0.0, 0.0, 0.0, 0.0, 0.0, 0.0, 1.7309196001616464E9, 0.0, 2024-11-06 16:00:00.161
56.0, -9010.457576567838, -8222.62563975163, -6626.621678664885, -6686.546705549563, -5613.39475076136, -8138.068990477203, -9382.345900815237, -8216.545965259787, 0.062, 0.9540000000000001, 0.314, 192.0, 0.0, 0.0, 0.0, 0.0, 0.0, 0.0, 0.0, 0.0, 0.0, 1.7309196001654732E9, 0.0, 2024-11-06 16:00:00.165
57.0, -9040.520672860226, -8251.39233486561, -6650.515693487608, -6670.453449541742, -5583.845744591445, -8138.3595631551225, -9374.232217577961, -8202.866697653139, 0.062, 0.9540000000000001, 0.314, 192.0, 0.0, 0.0, 0.0, 0.0, 0.0, 0.0, 0.0, 0.0, 0.0, 1.7309196001696548E9, 0.0, 2024-11-06 16:00:00.169
58.0, -9050.914234031945, -8263.417573382565, -6666.832466939983, -6654.404897022831, -5578.481325922171, -8147.791999315263, -9385.18457236106, -8194.373034760123, 0.056, 0.9540000000000001, 0.318, 192.0, 1.0, 192.0, 29.0, 208.0, 9.0, 240.0, 0.0, 0.0, 0.0, 1.7309196001733713E9, 0.0, 2024-11-06 16:00:00.173
59.0, -9020.73937901728, -8234.650878268585, -6643.318431772999, -6666.8995221733485, -5605.459881479726, -8146.674412092497, -9393.007682920419, -8206.10770059916, 0.056, 0.9540000000000001, 0.318, 192.0, 0.0, 0.0, 0.0, 0.0, 0.0, 0.0, 0.0, 0.0, 0.0, 1.7309196001765213E9, 0.0, 2024-11-06 16:00:00.176
60.0, -9006.724835243802, -8219.496395527887, -6623.73830363015, -6684.780917737594, -5614.512337984126, -8137.197272443447, -9383.23997059345, -8217.261221082357, 0.056, 0.9540000000000001, 0.318, 192.0, 0.0, 0.0, 0.0, 0.0, 0.0, 0.0, 0.0, 0.0, 0.0, 1.730919600180484E9, 0.0, 2024-11-06 16:00:00.180
61.0, -9037.972573992321, -8249.358326120178, -6647.453504497231, -6677.337786833977, -5591.221820261696, -8139.030115488782, -9376.75796470141, -8210.332180301211, 0.056, 0.9540000000000001, 0.318, 192.0, 0.0, 0.0, 0.0, 0.0, 0.0, 0.0, 0.0, 0.0, 0.0, 1.7309196001843534E9, 0.0, 2024-11-06 16:00:00.184
62.0, -9056.435114912405, -8268.82669554075, -6670.721670475205, -6658.405859280331, -5578.995416044643, -8147.948461526449, -9385.542200272346, -8198.4857557399, 0.056, 0.9540000000000001, 0.318, 192.0, 0.0, 0.0, 0.0, 0.0, 0.0, 0.0, 0.0, 0.0, 0.0, 1.730919600188523E9, 0.0, 2024-11-06 16:00:00.188
63.0, -9028.383675620995, -8242.786913250317, -6651.3427080324545, -6664.329071560988, -5601.615381433414, -8148.239034204368, -9394.52760154338, -8205.325389543223, 0.056, 0.9540000000000001, 0.318, 192.0, 0.0, 0.0, 0.0, 0.0, 0.0, 0.0, 0.0, 0.0, 0.0, 1.730919600193642E9, 0.0, 2024-11-06 16:00:00.193
64.0, -9005.96487593232, -8220.144596117092, -6625.325277486477, -6683.819792726015, -5616.434588007282, -8138.940708510961, -9386.793897961843, -8218.490567027398, 0.056, 0.9540000000000001, 0.318, 192.0, 0.0, 0.0, 0.0, 0.0, 0.0, 0.0, 0.0, 0.0, 0.0, 1.7309196001976187E9, 0.0, 2024-11-06 16:00:00.197
65.0, -9029.456559354849, -8241.915195216561, -6639.943318360248, -6679.081222901491, -5594.328712740983, -8136.571423598698, -9375.796839689832, -8213.014389635848, 0.056, 0.9540000000000001, 0.318, 192.0, 0.0, 0.0, 0.0, 0.0, 0.0, 0.0, 0.0, 0.0, 0.0, 1.730919600201589E9, 0.0, 2024-11-06 16:00:00.201
66.0, -9054.557568378159, -8267.083259473236, -6667.637129740373, -6659.232873825178, -5577.028462532576, -8146.585005114675, -9382.56941825979, -8201.05620635226, 0.056, 0.9540000000000001, 0.318, 192.0, 0.0, 0.0, 0.0, 0.0, 0.0, 0.0, 0.0, 0.0, 0.0, 1.730919600204532E9, 0.0, 2024-11-06 16:00:00.204
67.0, -9033.368114634528, -8247.81605575276, -6655.880112156882, -6661.199827337245, -5597.212087775718, -8150.362449927623, -9394.348787587738, -8206.867659910638, 0.056, 0.9540000000000001, 0.318, 192.0, 0.0, 0.0, 0.0, 0.0, 0.0, 0.0, 0.0, 0.0, 0.0, 1.7309196002085211E9, 0.0, 2024-11-06 16:00:00.208
68.0, -9002.992093919765, -8217.48473852691, -6624.364152474899, -6679.148278134857, -5614.981724617687, -8138.203100943935, -9386.637435750656, -8220.524575772832, 0.052000000000000005, 0.96, 0.32, 192.0, 1.0, 160.0, 30.0, 0.0, 10.0, 0.0, 0.0, 0.0, 0.0, 1.7309196002126014E9, 0.0, 2024-11-06 16:00:00.212
69.0, -9019.01829469422, -8231.812206722761, -6631.472007211686, -6678.880057201392, -5596.407424975327, -8131.497577607343, -9372.891112910642, -8219.161119361057, 0.052000000000000005, 0.96, 0.32, 192.0, 0.0, 0.0, 0.0, 0.0, 0.0, 0.0, 0.0, 0.0, 0.0, 1.7309196002164848E9, 0.0, 2024-11-06 16:00:00.216
70.0, -9051.07069624313, -8264.311643160778, -6664.038498883069, -6661.021013381603, -5575.8661718209, -8141.846435290151, -9377.89790366863, -8208.655799467064, 0.052000000000000005, 0.96, 0.32, 192.0, 0.0, 0.0, 0.0, 0.0, 0.0, 0.0, 0.0, 0.0, 0.0, 1.7309196002213838E9, 0.0, 2024-11-06 16:00:00.221
71.0, -9038.911347259444, -8254.58863432272, -6661.244530826156, -6659.165818591812, -5590.864192350411, -8149.557787127232, -9391.465412553003, -8212.165023346546, 0.052000000000000005, 0.96, 0.32, 192.0, 0.0, 0.0, 0.0, 0.0, 0.0, 0.0, 0.0, 0.0, 0.0, 1.7309196002255783E9, 0.0, 2024-11-06 16:00:00.225
72.0, -9004.579067776092, -8220.77044496184, -6628.163949032301, -6676.84604845596, -5612.433625749783, -8139.946537011449, -9387.218581106494, -8226.358381075666, 0.052000000000000005, 0.96, 0.32, 192.0, 0.0, 0.0, 0.0, 0.0, 0.0, 0.0, 0.0, 0.0, 0.0, 1.7309196002296631E9, 0.0, 2024-11-06 16:00:00.229
73.0, -9011.865736468522, -8226.648953753585, -6626.97930657617, -6682.031653169591, -5600.140166299363, -8131.721095051897, -9373.025223377374, -8228.928831688027, 0.052000000000000005, 0.96, 0.32, 192.0, 0.0, 0.0, 0.0, 0.0, 0.0, 0.0, 0.0, 0.0, 0.0, 1.730919600232412E9, 0.0, 2024-11-06 16:00:00.232
74.0, -9045.728629318313, -8260.333032647733, -6658.875245913893, -6664.776106450094, -5575.888523565355, -8140.125350967092, -9374.925121656075, -8218.781139705317, 0.052000000000000005, 0.96, 0.32, 192.0, 0.0, 0.0, 0.0, 0.0, 0.0, 0.0, 0.0, 0.0, 0.0, 1.7309196002366166E9, 0.0, 2024-11-06 16:00:00.236
75.0, -9042.688792072391, -8259.193093680513, -6664.597292494452, -6658.584673235974, -5585.231552747674, -8150.340098183167, -9390.169011374595, -8220.05518913927, 0.052000000000000005, 0.96, 0.32, 192.0, 0.0, 0.0, 0.0, 0.0, 0.0, 0.0, 0.0, 0.0, 0.0, 1.730919600240409E9, 0.0, 2024-11-06 16:00:00.240
76.0, -9008.11064340003, -8225.039628152803, -6633.506015957119, -6675.8849234443815, -5611.003114104643, -8143.589871357664, -9391.085432897262, -8234.695581757496, 0.052000000000000005, 0.96, 0.32, 192.0, 0.0, 0.0, 0.0, 0.0, 0.0, 0.0, 0.0, 0.0, 0.0, 1.730919600244475E9, 0.0, 2024-11-06 16:00:00.244
77.0, -9008.624733522503, -8223.67617174103, -6625.414684464298, -6686.971388694214, -5607.248021036151, -8134.850339275639, -9378.546104257835, -8240.976421949437, 0.052000000000000005, 0.96, 0.32, 192.0, 0.0, 0.0, 0.0, 0.0, 0.0, 0.0, 0.0, 0.0, 0.0, 1.7309196002494793E9, 0.0, 2024-11-06 16:00:00.249
78.0, -9045.750981062769, -8260.087163458726, -6657.310623802022, -6673.627397254396, -5583.15284051333, -8141.533510867776, -9377.294406568339, -8231.655744511574, 0.05, 0.962, 0.316, 192.0, 1.0, 144.0, 30.0, 16.0, 9.0, 224.0, 0.0, 0.0, 0.0, 1.7309196002535307E9, 0.0, 2024-11-06 16:00:00.253
79.0, -9046.779161307712, -8262.97053849346, -6665.446658783753, -6657.511789502119, -5580.425927689783, -8147.1661504705135, -9385.81042120581, -8222.58093626272, 0.05, 0.962, 0.316, 192.0, 0.0, 0.0, 0.0, 0.0, 0.0, 0.0, 0.0, 0.0, 0.0, 1.7309196002575445E9, 0.0, 2024-11-06 16:00:00.257
80.0, -9012.826861480102, -8230.180529377523, -6637.238757281156, -6671.9510164202475, -5606.935096613776, -8143.500464379843, -9390.079604396773, -8235.209671879968, 0.05, 0.962, 0.316, 192.0, 0.0, 0.0, 0.0, 0.0, 0.0, 0.0, 0.0, 0.0, 0.0, 1.7309196002605348E9, 0.0, 2024-11-06 16:00:00.260
81.0, -9003.975570675799, -8220.189299606001, -6622.30779198501, -6687.239609627678, -5609.9749338596985, -8133.889214264062, -9378.85902868021, -8244.306831873278, 0.05, 0.962, 0.316, 192.0, 0.0, 0.0, 0.0, 0.0, 0.0, 0.0, 0.0, 0.0, 0.0, 1.73091960026457E9, 0.0, 2024-11-06 16:00:00.264
82.0, -9033.725742545814, -8248.73247727543, -6646.067696341002, -6672.532161776086, -5580.716500367702, -8134.045676475249, -9370.544179742836, -8231.72279974494, 0.05, 0.962, 0.316, 192.0, 0.0, 0.0, 0.0, 0.0, 0.0, 0.0, 0.0, 0.0, 0.0, 1.7309196002684772E9, 0.0, 2024-11-06 16:00:00.268
83.0, -9044.543986862182, -8260.802419281295, -6663.36794654941, -6654.717821445206, -5572.602817130425, -8142.829912046184, -9379.797801947332, -8221.552756017776, 0.05, 0.962, 0.316, 192.0, 0.0, 0.0, 0.0, 0.0, 0.0, 0.0, 0.0, 0.0, 0.0, 1.7309196002725952E9, 0.0, 2024-11-06 16:00:00.272
84.0, -9013.944448702867, -8231.253413111379, -6640.1891875492565, -6665.804286695038, -5598.799061632045, -8142.807560301729, -9388.09029914025, -8232.460407311966, 0.05, 0.962, 0.316, 192.0, 0.0, 0.0, 0.0, 0.0, 0.0, 0.0, 0.0, 0.0, 0.0, 1.7309196002774687E9, 0.0, 2024-11-06 16:00:00.277
85.0, -8995.727776971791, -8212.030912879814, -6617.032780293558, -6682.366929336421, -5607.024503591598, -8130.804673529229, -9376.892075168142, -8242.138712661113, 0.05, 0.962, 0.316, 192.0, 0.0, 0.0, 0.0, 0.0, 0.0, 0.0, 0.0, 0.0, 0.0, 1.730919600281602E9, 0.0, 2024-11-06 16:00:00.281
86.0, -9022.21459415133, -8237.266032369856, -6635.763542147106, -6672.420403053809, -5580.4482794342375, -8128.390685128056, -9365.827961662766, -8232.281593356323, 0.05, 0.962, 0.316, 192.0, 0.0, 0.0, 0.0, 0.0, 0.0, 0.0, 0.0, 0.0, 0.0, 1.7309196002859578E9, 0.0, 2024-11-06 16:00:00.285
87.0, -9043.582861850604, -8259.573073336252, -6660.730440703684, -6654.181379578278, -5567.953654283721, -8138.761894555319, -9374.500438511424, -8221.284535084313, 0.05, 0.962, 0.316, 192.0, 0.0, 0.0, 0.0, 0.0, 0.0, 0.0, 0.0, 0.0, 0.0, 1.7309196002885683E9, 0.0, 2024-11-06 16:00:00.288
88.0, -9020.87348948401, -8238.607137037176, -6645.93358587427, -6662.9656151492145, -5593.72521564069, -8143.254595190835, -9387.062118895306, -8231.275764855834, 0.052000000000000005, 0.96, 0.318, 192.0, 1.0, 160.0, 30.0, 0.0, 9.0, 240.0, 0.0, 0.0, 0.0, 1.7309196002926073E9, 0.0, 2024-11-06 16:00:00.292
89.0, -8998.231172350785, -8214.668418725541, -6620.1173210283905, -6683.596275281463, -5610.801948404544, -8134.2468421753465, -9380.37894730317, -8245.022087695848, 0.052000000000000005, 0.96, 0.318, 192.0, 0.0, 0.0, 0.0, 0.0, 0.0, 0.0, 0.0, 0.0, 0.0, 1.7309196002966015E9, 0.0, 2024-11-06 16:00:00.296
90.0, -9018.817128994124, -8233.846215468195, -6632.0308008230695, -6678.567132779019, -5588.24903824914, -8128.793016528251, -9367.213769818994, -8237.713067258963, 0.052000000000000005, 0.96, 0.318, 192.0, 0.0, 0.0, 0.0, 0.0, 0.0, 0.0, 0.0, 0.0, 0.0, 1.7309196003025692E9, 0.0, 2024-11-06 16:00:00.302
91.0, -9046.17566420742, -8261.517675103865, -6661.400993037342, -6659.232873825178, -5570.010014773609, -8138.963060255416, -9373.829886177766, -8224.637296752608, 0.052000000000000005, 0.96, 0.318, 192.0, 0.0, 0.0, 0.0, 0.0, 0.0, 0.0, 0.0, 0.0, 0.0, 1.7309196003055632E9, 0.0, 2024-11-06 16:00:00.305
92.0, -9027.802530265157, -8245.15619816258, -6652.4602952552195, -6660.864551170415, -5588.986645816165, -8144.4615893914215, -9386.883304939665, -8228.906479943571, 0.052000000000000005, 0.96, 0.318, 192.0, 0.0, 0.0, 0.0, 0.0, 0.0, 0.0, 0.0, 0.0, 0.0, 1.730919600309507E9, 0.0, 2024-11-06 16:00:00.309
93.0, -8999.661683995924, -8216.747130959884, -6624.252393752622, -6682.188115380778, -5611.0925210824635, -8136.861996276617, -9383.843467693743, -8243.591576050709, 0.052000000000000005, 0.96, 0.318, 192.0, 0.0, 0.0, 0.0, 0.0, 0.0, 0.0, 0.0, 0.0, 0.0, 1.7309196003124993E9, 0.0, 2024-11-06 16:00:00.312
94.0, -9014.726759758802, -8229.554680532776, -6630.399123477831, -6683.37275783691, -5594.954561585732, -8130.849377018139, -9371.080621609763, -8240.909366716072, 0.052000000000000005, 0.96, 0.318, 192.0, 0.0, 0.0, 0.0, 0.0, 0.0, 0.0, 0.0, 0.0, 0.0, 1.7309196003167188E9, 0.0, 2024-11-06 16:00:00.316
95.0, -9047.36030666355, -8262.590558837719, -6662.295062815555, -6663.926740160792, -5572.893389808344, -8140.304164922734, -9375.57332224528, -8227.498320042887, 0.052000000000000005, 0.96, 0.318, 192.0, 0.0, 0.0, 0.0, 0.0, 0.0, 0.0, 0.0, 0.0, 0.0, 1.7309196003206637E9, 0.0, 2024-11-06 16:00:00.320
96.0, -9035.625640824514, -8253.046363955304, -6659.568149992007, -6659.054059869535, -5585.119794025397, -8146.94263302596, -9388.112650884706, -8226.87247119814, 0.052000000000000005, 0.96, 0.318, 192.0, 0.0, 0.0, 0.0, 0.0, 0.0, 0.0, 0.0, 0.0, 0.0, 1.7309196003244977E9, 0.0, 2024-11-06 16:00:00.324
97.0, -9000.376939818494, -8218.065883882748, -6625.660553653307, -6677.158972878334, -5607.806814647533, -8137.912528266017, -9384.29050258285, -8238.920061459548, 0.052000000000000005, 0.96, 0.318, 192.0, 0.0, 0.0, 0.0, 0.0, 0.0, 0.0, 0.0, 0.0, 0.0, 1.730919600328641E9, 0.0, 2024-11-06 16:00:00.328
98.0, -9007.663608510926, -8223.67617174103, -6623.961821074703, -6684.8032694820495, -5598.910820354321, -8129.910603751016, -9371.125325098674, -8240.708201015974, 0.052000000000000005, 0.9560000000000001, 0.322, 192.0, 1.0, 160.0, 29.0, 224.0, 10.0, 16.0, 0.0, 0.0, 0.0, 1.7309196003336952E9, 0.0, 2024-11-06 16:00:00.333
99.0, -9043.538158361693, -8258.768410535862, -6656.707126701728, -6667.301853573544, -5574.659177620313, -8137.666659077008, -9372.354671043715, -8228.124168887636, 0.052000000000000005, 0.9560000000000001, 0.322, 192.0, 0.0, 0.0, 0.0, 0.0, 0.0, 0.0, 0.0, 0.0, 0.0, 1.730919600337742E9, 0.0, 2024-11-06 16:00:00.337
100.0, -9042.867606028034, -8259.774239036351, -6664.574940749996, -6659.925777903292, -5583.063433535509, -8149.08840049367, -9387.933836929064, -8226.939526431504, 0.052000000000000005, 0.9560000000000001, 0.322, 192.0, 0.0, 0.0, 0.0, 0.0, 0.0, 0.0, 0.0, 0.0, 0.0, 1.7309196003406432E9, 0.0, 2024-11-06 16:00:00.340
101.0, -9004.64612300946, -8222.87150894064, -6630.68969615575, -6674.700280988251, -5606.77863440259, -8140.818255045207, -9387.375043317681, -8237.266032369856, 0.052000000000000005, 0.9560000000000001, 0.322, 192.0, 0.0, 0.0, 0.0, 0.0, 0.0, 0.0, 0.0, 0.0, 0.0, 1.730919600344574E9, 0.0, 2024-11-06 16:00:00.344
102.0, -9000.913381685423, -8217.417683293545, -6618.552698916519, -6684.9820834376915, -5602.241230278162, -8129.307106650724, -9372.242912321439, -8241.065828927258, 0.052000000000000005, 0.9560000000000001, 0.322, 192.0, 0.0, 0.0, 0.0, 0.0, 0.0, 0.0, 0.0, 0.0, 0.0, 1.7309196003486722E9, 0.0, 2024-11-06 16:00:00.348
103.0, -9037.950222247866, -8253.58280582223, -6650.426286509787, -6671.593388508963, -5577.788421844056, -8135.833816031673, -9371.125325098674, -8231.365171833655, 0.052000000000000005, 0.9560000000000001, 0.322, 192.0, 0.0, 0.0, 0.0, 0.0, 0.0, 0.0, 0.0, 0.0, 0.0, 1.7309196003526285E9, 0.0, 2024-11-06 16:00:00.352
104.0, -9044.275765928718, -8261.54002684832, -6664.396126794354, -6657.824713924493, -5577.296683466039, -8146.003859758838, -9384.066985138295, -8224.682000241519, 0.052000000000000005, 0.9560000000000001, 0.322, 192.0, 0.0, 0.0, 0.0, 0.0, 0.0, 0.0, 0.0, 0.0, 0.0, 1.7309196003565826E9, 0.0, 2024-11-06 16:00:00.356
105.0, -9011.128128901497, -8229.331163088222, -6637.015239836603, -6672.755679220639, -5604.610515190425, -8143.902795780039, -9389.744328229945, -8237.221328880945, 0.052000000000000005, 0.9560000000000001, 0.322, 192.0, 0.0, 0.0, 0.0, 0.0, 0.0, 0.0, 0.0, 0.0, 0.0, 1.7309196003618474E9, 0.0, 2024-11-06 16:00:00.361
106.0, -8998.387634561972, -8215.048398381281, -6618.0609605385025, -6687.083147416491, -5607.292724525061, -8131.385818885067, -9376.132115856662, -8244.306831873278, 0.052000000000000005, 0.9560000000000001, 0.322, 192.0, 0.0, 0.0, 0.0, 0.0, 0.0, 0.0, 0.0, 0.0, 0.0, 1.7309196003658433E9, 0.0, 2024-11-06 16:00:00.365
107.0, -9030.238870410785, -8245.759695262874, -6643.117266072902, -6674.744984477161, -5580.828259089978, -8132.525757852288, -9369.04661286433, -8233.577994534731, 0.052000000000000005, 0.9560000000000001, 0.322, 192.0, 0.0, 0.0, 0.0, 0.0, 0.0, 0.0, 0.0, 0.0, 0.0, 1.7309196003685596E9, 0.0, 2024-11-06 16:00:00.368
108.0, -9046.041553740688, -8262.814076282273, -6664.530237261086, -6657.780010435583, -5573.362776441905, -8143.545167868754, -9380.75892695891, -8224.257317096868, 0.05, 0.9560000000000001, 0.32, 192.0, 1.0, 144.0, 29.0, 224.0, 10.0, 0.0, 0.0, 0.0, 0.0, 1.7309196003727994E9, 0.0, 2024-11-06 16:00:00.372
109.0, -9015.285553370184, -8233.510939301364, -6641.440885238753, -6667.391260551365, -5598.217916276207, -8142.740505068363, -9388.447927051537, -8233.421532323544, 0.05, 0.9560000000000001, 0.32, 192.0, 0.0, 0.0, 0.0, 0.0, 0.0, 0.0, 0.0, 0.0, 0.0, 1.730919600376757E9, 0.0, 2024-11-06 16:00:00.376
110.0, -8994.87841068249, -8212.455596024465, -6616.250469237622, -6685.317359604521, -5608.142090814364, -8131.072894462693, -9377.272054823883, -8243.904500473083, 0.05, 0.9560000000000001, 0.32, 192.0, 0.0, 0.0, 0.0, 0.0, 0.0, 0.0, 0.0, 0.0, 0.0, 1.7309196003808527E9, 0.0, 2024-11-06 16:00:00.380
111.0, -9023.913326729933, -8239.612965537664, -6636.478797969676, -6678.790650223572, -5584.717462625202, -8130.849377018139, -9368.37606053067, -8236.975459691937, 0.05, 0.9560000000000001, 0.32, 192.0, 0.0, 0.0, 0.0, 0.0, 0.0, 0.0, 0.0, 0.0, 0.0, 1.7309196003848295E9, 0.0, 2024-11-06 16:00:00.384
112.0, -9046.622699096526, -8262.791724537818, -6662.60798723793, -6658.785838936072, -5569.920607795788, -8141.04177248976, -9376.310929812304, -8224.369075819144, 0.05, 0.9560000000000001, 0.32, 192.0, 0.0, 0.0, 0.0, 0.0, 0.0, 0.0, 0.0, 0.0, 0.0, 1.7309196003887613E9, 0.0, 2024-11-06 16:00:00.388
113.0, -9019.375922605506, -8238.115398659158, -6645.620661451896, -6662.473876771197, -5590.663026650313, -8142.539339368265, -9385.81042120581, -8229.53232878832, 0.05, 0.9560000000000001, 0.32, 192.0, 0.0, 0.0, 0.0, 0.0, 0.0, 0.0, 0.0, 0.0, 0.0, 1.7309196003938098E9, 0.0, 2024-11-06 16:00:00.393
114.0, -8992.196201347853, -8210.600401234675, -6617.815091349494, -6683.03748167008, -5608.432663492282, -8132.972792741394, -9379.261360080405, -8242.943375461504, 0.05, 0.9560000000000001, 0.32, 192.0, 0.0, 0.0, 0.0, 0.0, 0.0, 0.0, 0.0, 0.0, 0.0, 1.730919600396714E9, 0.0, 2024-11-06 16:00:00.396
115.0, -9014.324428358606, -8230.605212522176, -6630.354419988921, -6681.405804324842, -5589.500735938637, -8129.0835892061705, -9368.465467508491, -8238.987116692915, 0.05, 0.9560000000000001, 0.32, 192.0, 0.0, 0.0, 0.0, 0.0, 0.0, 0.0, 0.0, 0.0, 0.0, 1.7309196004006038E9, 0.0, 2024-11-06 16:00:00.400
116.0, -9045.616870596037, -8262.076468715248, -6659.903426158837, -6661.423344781798, -5570.2335322181625, -8138.3595631551225, -9374.09810711123, -8225.710180486463, 0.05, 0.9560000000000001, 0.32, 192.0, 0.0, 0.0, 0.0, 0.0, 0.0, 0.0, 0.0, 0.0, 0.0, 1.730919600404712E9, 0.0, 2024-11-06 16:00:00.404
117.0, -9028.115454687531, -8246.698468529996, -6649.9345481317705, -6660.08224011448, -5586.01386380361, -8141.868787034606, -9384.916351427597, -8227.319506087244, 0.05, 0.9560000000000001, 0.32, 192.0, 0.0, 0.0, 0.0, 0.0, 0.0, 0.0, 0.0, 0.0, 0.0, 1.7309196004088516E9, 0.0, 2024-11-06 16:00:00.408
118.0, -8997.717082228313, -8216.43420653751, -6619.223251250178, -6680.958769435736, -5607.471538480704, -8132.749275296841, -9380.267188580894, -8241.177587649536, 0.056, 0.9560000000000001, 0.316, 192.0, 1.0, 192.0, 29.0, 224.0, 9.0, 224.0, 0.0, 0.0, 0.0, 1.730919600412752E9, 0.0, 2024-11-06 16:00:00.412
119.0, -9012.871564969011, -8229.487625299409, -6625.2805739975665, -6685.049138671057, -5593.881677851878, -8127.094283949648, -9367.929025641564, -8240.797607993794, 0.056, 0.9560000000000001, 0.316, 192.0, 0.0, 0.0, 0.0, 0.0, 0.0, 0.0, 0.0, 0.0, 0.0, 1.7309196004167602E9, 0.0, 2024-11-06 16:00:00.416
120.0, -9047.60617585256, -8263.931663505038, -6657.824713924493, -6665.580769250485, -5570.546456640537, -8135.163263698014, -9370.745345442932, -8226.939526431504, 0.056, 0.9560000000000001, 0.316, 192.0, 0.0, 0.0, 0.0, 0.0, 0.0, 0.0, 0.0, 0.0, 0.0, 1.7309196004208913E9, 0.0, 2024-11-06 16:00:00.420
121.0, -9038.64312632598, -8257.315547146267, -6656.952995890737, -6659.657556969829, -5581.185887001263, -8141.600566101142, -9383.061156637807, -8225.352552575177, 0.056, 0.9560000000000001, 0.316, 192.0, 0.0, 0.0, 0.0, 0.0, 0.0, 0.0, 0.0, 0.0, 0.0, 1.7309196004238741E9, 0.0, 2024-11-06 16:00:00.423
122.0, -9005.316675343118, -8224.145558374592, -6625.638201908851, -6679.595313023962, -5606.689227424768, -8134.626821831086, -9382.681176982067, -8239.523558559842, 0.056, 0.9560000000000001, 0.316, 192.0, 0.0, 0.0, 0.0, 0.0, 0.0, 0.0, 0.0, 0.0, 0.0, 1.7309196004285994E9, 0.0, 2024-11-06 16:00:00.428
123.0, -9008.378864333496, -8225.240793852901, -6619.759693117106, -6685.719691004717, -5596.541535442059, -8123.98739147036, -9367.414935519093, -8239.836482982217, 0.056, 0.9560000000000001, 0.316, 192.0, 0.0, 0.0, 0.0, 0.0, 0.0, 0.0, 0.0, 0.0, 0.0, 1.7309196004326763E9, 0.0, 2024-11-06 16:00:00.432
124.0, -9043.515806617237, -8260.109515203181, -6651.454466754731, -6667.927702418292, -5570.680567107269, -8131.005839229327, -9367.057307607807, -8226.671305498041, 0.056, 0.9560000000000001, 0.316, 192.0, 0.0, 0.0, 0.0, 0.0, 0.0, 0.0, 0.0, 0.0, 0.0, 1.730919600436587E9, 0.0, 2024-11-06 16:00:00.436
125.0, -9043.873434528523, -8262.188227437524, -6660.417516281309, -6658.383507535877, -5576.29085496555, -8141.958194012427, -9381.541238014846, -8223.363247318655, 0.056, 0.9560000000000001, 0.316, 192.0, 0.0, 0.0, 0.0, 0.0, 0.0, 0.0, 0.0, 0.0, 0.0, 1.730919600440598E9, 0.0, 2024-11-06 16:00:00.440
126.0, -9007.68596025538, -8227.185395620512, -6629.348591488432, -6674.499115288153, -5601.950657600243, -8136.683182320975, -9383.418784549092, -8235.433189324522, 0.056, 0.9560000000000001, 0.316, 192.0, 0.0, 0.0, 0.0, 0.0, 0.0, 0.0, 0.0, 0.0, 0.0, 1.73091960044477E9, 0.0, 2024-11-06 16:00:00.444
127.0, -9003.21561136432, -8221.172776362035, -6617.971553560681, -6687.664292772329, -5601.034236077576, -8127.4966153498435, -9371.170028587583, -8241.758733005374, 0.056, 0.9560000000000001, 0.316, 192.0, 0.0, 0.0, 0.0, 0.0, 0.0, 0.0, 0.0, 0.0, 0.0, 1.730919600448592E9, 0.0, 2024-11-06 16:00:00.448
128.0, -9036.40795188045, -8252.956956977481, -6645.754771918628, -6671.213408853222, -5573.161610741808, -8130.044714217748, -9366.073830851774, -8228.43709331001, 0.05, 0.9560000000000001, 0.312, 192.0, 1.0, 144.0, 29.0, 224.0, 9.0, 192.0, 0.0, 0.0, 0.0, 1.7309196004516397E9, 0.0, 2024-11-06 16:00:00.451
129.0, -9043.761675806247, -8261.54002684832, -6659.970481392203, -6654.874283656393, -5569.428869417771, -8138.940708510961, -9377.316758312792, -8219.384636805611, 0.05, 0.9560000000000001, 0.312, 192.0, 0.0, 0.0, 0.0, 0.0, 0.0, 0.0, 0.0, 0.0, 0.0, 1.7309196004567232E9, 0.0, 2024-11-06 16:00:00.456
130.0, -9010.122300401008, -8229.264107854857, -6633.416608979298, -6668.352385562943, -5596.072148808497, -8136.906699765528, -9383.195267104538, -8230.851081711184, 0.05, 0.9560000000000001, 0.312, 192.0, 0.0, 0.0, 0.0, 0.0, 0.0, 0.0, 0.0, 0.0, 0.0, 1.730919600460822E9, 0.0, 2024-11-06 16:00:00.460
131.0, -8995.794832205156, -8213.416721036045, -6613.568259902985, -6684.0433101705685, -5600.900125610844, -8125.283792648768, -9370.588883231745, -8239.165930648558, 0.05, 0.9560000000000001, 0.312, 192.0, 0.0, 0.0, 0.0, 0.0, 0.0, 0.0, 0.0, 0.0, 0.0, 1.7309196004647372E9, 0.0, 2024-11-06 16:00:00.464
132.0, -9025.679114541903, -8241.423456838544, -6636.188225291757, -6671.347519319955, -5573.563942142003, -8124.613240315109, -9362.072868594274, -8227.744189231895, 0.05, 0.9560000000000001, 0.312, 192.0, 0.0, 0.0, 0.0, 0.0, 0.0, 0.0, 0.0, 0.0, 0.0, 1.7309196004686325E9, 0.0, 2024-11-06 16:00:00.468
133.0, -9044.8345595401, -8261.741192548418, -6660.08224011448, -6654.918987145304, -5566.0090525161095, -8136.817292787707, -9373.941644900042, -8218.870546683138, 0.05, 0.9560000000000001, 0.312, 192.0, 0.0, 0.0, 0.0, 0.0, 0.0, 0.0, 0.0, 0.0, 0.0, 1.7309196004728167E9, 0.0, 2024-11-06 16:00:00.472
134.0, -9015.35260860355, -8234.136788146114, -6638.289289270555, -6663.546760505053, -5590.3053987390285, -8136.951403254438, -9381.943569415042, -8227.364209576155, 0.05, 0.9560000000000001, 0.312, 192.0, 0.0, 0.0, 0.0, 0.0, 0.0, 0.0, 0.0, 0.0, 0.0, 1.7309196004768703E9, 0.0, 2024-11-06 16:00:00.476
135.0, -8994.207858348831, -8212.522651257832, -6613.232983736156, -6682.70220550325, -5602.621209933903, -8126.51313859381, -9372.354671043715, -8239.076523670736, 0.05, 0.9560000000000001, 0.312, 192.0, 0.0, 0.0, 0.0, 0.0, 0.0, 0.0, 0.0, 0.0, 0.0, 1.7309196004797916E9, 0.0, 2024-11-06 16:00:00.479
136.0, -9019.35357086105, -8236.05903816927, -6630.130902544368, -6674.901446688348, -5578.3919189443495, -8122.959211225416, -9360.687060438046, -8230.33699158871, 0.05, 0.9560000000000001, 0.312, 192.0, 0.0, 0.0, 0.0, 0.0, 0.0, 0.0, 0.0, 0.0, 0.0, 1.7309196004837615E9, 0.0, 2024-11-06 16:00:00.483
137.0, -9044.208710695351, -8261.49532335941, -6658.607024980429, -6655.544835990052, -5564.042099004042, -8133.9562694974275, -9369.873627409175, -8218.311753071755, 0.05, 0.9560000000000001, 0.312, 192.0, 0.0, 0.0, 0.0, 0.0, 0.0, 0.0, 0.0, 0.0, 0.0, 1.730919600488875E9, 0.0, 2024-11-06 16:00:00.488
138.0, -9022.751036018257, -8241.982250449926, -6645.866530640904, -6661.333937803976, -5586.952637070732, -8139.365391655611, -9383.016453148897, -8225.754883975373, 0.052000000000000005, 0.9560000000000001, 0.316, 192.0, 1.0, 160.0, 29.0, 224.0, 9.0, 224.0, 0.0, 0.0, 0.0, 1.7309196004929633E9, 0.0, 2024-11-06 16:00:00.492
139.0, -8995.548963016148, -8214.310790814256, -6616.429283193265, -6681.9869496806805, -5605.01284659062, -8129.597679328643, -9376.46739202349, -8239.098875415191, 0.052000000000000005, 0.9560000000000001, 0.316, 192.0, 0.0, 0.0, 0.0, 0.0, 0.0, 0.0, 0.0, 0.0, 0.0, 1.7309196004967537E9, 0.0, 2024-11-06 16:00:00.496
140.0, -9013.363303347029, -8230.471102055442, -6624.967649575192, -6678.902408945848, -5584.270427736095, -8122.89215599205, -9362.676365694568, -8233.332125345722, 0.052000000000000005, 0.9560000000000001, 0.316, 192.0, 0.0, 0.0, 0.0, 0.0, 0.0, 0.0, 0.0, 0.0, 0.0, 1.7309196005007968E9, 0.0, 2024-11-06 16:00:00.500
141.0, -9045.594518851582, -8262.702317559995, -6657.668251713307, -6660.439868025765, -5565.785535071556, -8134.671525319997, -9370.030089620363, -8222.022142651336, 0.052000000000000005, 0.9560000000000001, 0.316, 192.0, 0.0, 0.0, 0.0, 0.0, 0.0, 0.0, 0.0, 0.0, 0.0, 1.730919600504841E9, 0.0, 2024-11-06 16:00:00.504
142.0, -9032.719914045325, -8251.749962776896, -6653.55553073353, -6661.825676181994, -5584.404538202827, -8143.902795780039, -9385.408089805615, -8227.319506087244, 0.052000000000000005, 0.9560000000000001, 0.316, 192.0, 0.0, 0.0, 0.0, 0.0, 0.0, 0.0, 0.0, 0.0, 0.0, 1.730919600507944E9, 0.0, 2024-11-06 16:00:00.507
143.0, -9000.801622963147, -8220.166947861546, -6622.576012918475, -6682.769260736616, -5607.1586140583295, -8136.057333476226, -9382.43530779306, -8241.669326027552, 0.052000000000000005, 0.9560000000000001, 0.316, 192.0, 0.0, 0.0, 0.0, 0.0, 0.0, 0.0, 0.0, 0.0, 0.0, 1.730919600511752E9, 0.0, 2024-11-06 16:00:00.511
144.0, -9010.032893423187, -8227.319506087244, -6622.710123385206, -6684.378586337399, -5591.311227239517, -8126.51313859381, -9366.945548885531, -8238.67419227054, 0.052000000000000005, 0.9560000000000001, 0.316, 192.0, 0.0, 0.0, 0.0, 0.0, 0.0, 0.0, 0.0, 0.0, 0.0, 1.7309196005169415E9, 0.0, 2024-11-06 16:00:00.516
145.0, -9045.661574084947, -8262.098820459703, -6656.640071468362, -6666.094859372957, -5568.534799639559, -8135.453836375933, -9370.164200087094, -8225.91134618656, 0.052000000000000005, 0.9560000000000001, 0.316, 192.0, 0.0, 0.0, 0.0, 0.0, 0.0, 0.0, 0.0, 0.0, 0.0, 1.7309196005209415E9, 0.0, 2024-11-06 16:00:00.520
146.0, -9039.514844359737, -8257.717878546462, -6659.791667436561, -6660.484571514675, -5579.934189311765, -8144.796865558251, -9384.46931653849, -8225.19609036399, 0.052000000000000005, 0.9560000000000001, 0.316, 192.0, 0.0, 0.0, 0.0, 0.0, 0.0, 0.0, 0.0, 0.0, 0.0, 1.730919600524789E9, 0.0, 2024-11-06 16:00:00.524
147.0, -9001.025140407699, -8219.943430416994, -6624.520614686086, -6675.974330422203, -5602.040064578065, -8135.029153231282, -9380.960092659008, -8235.522596302342, 0.052000000000000005, 0.9560000000000001, 0.316, 192.0, 0.0, 0.0, 0.0, 0.0, 0.0, 0.0, 0.0, 0.0, 0.0, 1.7309196005289125E9, 0.0, 2024-11-06 16:00:00.528
148.0, -9003.662646253426, -8220.926907173027, -6618.440940194242, -6685.026786926603, -5595.11102379692, -8125.79788277124, -9367.124362841174, -8238.718895759452, 0.044, 0.96, 0.314, 192.0, 1.0, 96.0, 30.0, 0.0, 9.0, 208.0, 0.0, 0.0, 0.0, 1.730919600531911E9, 0.0, 2024-11-06 16:00:00.531
149.0, -9039.112512959542, -8255.750925034396, -6649.733382431672, -6667.458315784731, -5568.914779295299, -8131.654039818531, -9365.604444218212, -8225.576070019732, 0.044, 0.96, 0.314, 192.0, 0.0, 0.0, 0.0, 0.0, 0.0, 0.0, 0.0, 0.0, 0.0, 1.7309196005358016E9, 0.0, 2024-11-06 16:00:00.535
150.0, -9042.308812416652, -8260.400087881098, -6660.372812792399, -6657.265920313111, -5573.563942142003, -8143.3440021686565, -9380.088374625251, -8221.91038392906, 0.044, 0.96, 0.314, 192.0, 0.0, 0.0, 0.0, 0.0, 0.0, 0.0, 0.0, 0.0, 0.0, 1.7309196005400956E9, 0.0, 2024-11-06 16:00:00.540
151.0, -9006.657780010437, -8225.240793852901, -6629.706219399717, -6672.599217009451, -5599.15668954333, -8138.694839321953, -9382.43530779306, -8233.734456745919, 0.044, 0.96, 0.314, 192.0, 0.0, 0.0, 0.0, 0.0, 0.0, 0.0, 0.0, 0.0, 0.0, 1.7309196005448194E9, 0.0, 2024-11-06 16:00:00.544
152.0, -9000.064015396121, -8217.261221082357, -6615.7140273706955, -6685.9208567048145, -5598.799061632045, -8127.630725816575, -9369.515999497891, -8239.814131237761, 0.044, 0.96, 0.314, 192.0, 0.0, 0.0, 0.0, 0.0, 0.0, 0.0, 0.0, 0.0, 0.0, 1.730919600548903E9, 0.0, 2024-11-06 16:00:00.548
153.0, -9031.825844267112, -8248.285442386323, -6641.418533494299, -6669.000586152147, -5569.630035117869, -8127.451911860933, -9362.050516849818, -8225.017276408349, 0.044, 0.96, 0.314, 192.0, 0.0, 0.0, 0.0, 0.0, 0.0, 0.0, 0.0, 0.0, 0.0, 1.7309196005530555E9, 0.0, 2024-11-06 16:00:00.553
154.0, -9041.54885310517, -8260.020108225359, -6658.025879624592, -6652.236777810666, -5564.600892615425, -8137.018458487804, -9372.354671043715, -8214.981343147916, 0.044, 0.96, 0.314, 192.0, 0.0, 0.0, 0.0, 0.0, 0.0, 0.0, 0.0, 0.0, 0.0, 1.7309196005588708E9, 0.0, 2024-11-06 16:00:00.558
155.0, -9010.904611456945, -8231.119302644647, -6634.60125143543, -6666.161914606323, -5592.62998016238, -8137.4207898879995, -9380.557761258813, -8227.38656132061, 0.044, 0.96, 0.314, 192.0, 0.0, 0.0, 0.0, 0.0, 0.0, 0.0, 0.0, 0.0, 0.0, 1.7309196005619323E9, 0.0, 2024-11-06 16:00:00.561
156.0, -8997.046529894655, -8215.897764670583, -6614.7752541035725, -6683.573923537007, -5600.587201188469, -8126.982525227371, -9370.343014042737, -8237.646012025596, 0.044, 0.96, 0.314, 192.0, 0.0, 0.0, 0.0, 0.0, 0.0, 0.0, 0.0, 0.0, 0.0, 1.7309196005648906E9, 0.0, 2024-11-06 16:00:00.564
157.0, -9026.483777342293, -8243.591576050709, -6636.322335758488, -6672.867437942915, -5574.323901453484, -8125.999048471338, -9361.223502304972, -8227.38656132061, 0.044, 0.96, 0.314, 192.0, 0.0, 0.0, 0.0, 0.0, 0.0, 0.0, 0.0, 0.0, 0.0, 1.7309196005680134E9, 0.0, 2024-11-06 16:00:00.568
158.0, -9044.186358950898, -8262.121172204157, -6658.674080213796, -6653.8684551559045, -5562.5445321255365, -8135.1856154424695, -9369.7618686869, -8215.651895481575, 0.044, 0.9540000000000001, 0.318, 192.0, 1.0, 96.0, 29.0, 208.0, 9.0, 240.0, 0.0, 0.0, 0.0, 1.7309196005730464E9, 0.0, 2024-11-06 16:00:00.573
159.0, -9016.827823737602, -8236.215500380456, -6639.339821259955, -6661.333937803976, -5586.572657414992, -8136.5937753431535, -9378.94843565803, -8223.854985696673, 0.044, 0.9540000000000001, 0.318, 192.0, 0.0, 0.0, 0.0, 0.0, 0.0, 0.0, 0.0, 0.0, 0.0, 1.730919600576962E9, 0.0, 2024-11-06 16:00:00.576
160.0, -8996.197163605353, -8214.467253025443, -6615.155233759312, -6682.054004914046, -5602.1071198114305, -8128.122464194592, -9372.33231929926, -8237.601308536687, 0.044, 0.9540000000000001, 0.318, 192.0, 0.0, 0.0, 0.0, 0.0, 0.0, 0.0, 0.0, 0.0, 0.0, 1.7309196005809317E9, 0.0, 2024-11-06 16:00:00.580
161.0, -9022.348704618062, -8238.808302737272, -6632.410780478809, -6678.500077545653, -5581.2082387457185, -8126.691952549452, -9363.190455817039, -8232.460407311966, 0.044, 0.9540000000000001, 0.318, 192.0, 0.0, 0.0, 0.0, 0.0, 0.0, 0.0, 0.0, 0.0, 0.0, 1.7309196005840478E9, 0.0, 2024-11-06 16:00:00.584
162.0, -9050.131922976008, -8267.127962962146, -6662.69739421575, -6661.244530826156, -5566.836067060955, -8138.761894555319, -9372.600540232723, -8222.066846140247, 0.044, 0.9540000000000001, 0.318, 192.0, 0.0, 0.0, 0.0, 0.0, 0.0, 0.0, 0.0, 0.0, 0.0, 1.730919600588084E9, 0.0, 2024-11-06 16:00:00.588
163.0, -9029.903594243955, -8248.553663319786, -6651.298004543544, -6664.5525890055405, -5587.846706848944, -8143.276946935291, -9385.251627594427, -8227.319506087244, 0.044, 0.9540000000000001, 0.318, 192.0, 0.0, 0.0, 0.0, 0.0, 0.0, 0.0, 0.0, 0.0, 0.0, 1.7309196005919151E9, 0.0, 2024-11-06 16:00:00.591
164.0, -9000.041663651666, -8218.647029238586, -6619.849100094927, -6682.344577591965, -5605.079901823986, -8131.542281096254, -9377.830848435266, -8237.601308536687, 0.044, 0.9540000000000001, 0.318, 192.0, 0.0, 0.0, 0.0, 0.0, 0.0, 0.0, 0.0, 0.0, 0.0, 1.730919600596036E9, 0.0, 2024-11-06 16:00:00.596
165.0, -9017.520727815716, -8234.762636990861, -6628.163949032301, -6682.65750201434, -5588.025520804586, -8127.116635694103, -9366.029127362863, -8234.695581757496, 0.044, 0.9540000000000001, 0.318, 192.0, 0.0, 0.0, 0.0, 0.0, 0.0, 0.0, 0.0, 0.0, 0.0, 1.7309196006000333E9, 0.0, 2024-11-06 16:00:00.600
166.0, -9048.299079930674, -8265.630396083641, -6659.344632547454, -6663.479705271686, -5567.1266397388745, -8136.951403254438, -9371.102973354218, -8222.15625311807, 0.044, 0.9540000000000001, 0.318, 192.0, 0.0, 0.0, 0.0, 0.0, 0.0, 0.0, 0.0, 0.0, 0.0, 1.7309196006049483E9, 0.0, 2024-11-06 16:00:00.604
167.0, -9033.859853012545, -8253.091067444215, -6654.31549004501, -6660.350461047943, -5580.984721301165, -8142.718153323907, -9383.731708971467, -8223.3408955742, 0.044, 0.9540000000000001, 0.318, 192.0, 0.0, 0.0, 0.0, 0.0, 0.0, 0.0, 0.0, 0.0, 0.0, 1.7309196006088948E9, 0.0, 2024-11-06 16:00:00.608
168.0, -9003.64029450897, -8222.849157196184, -6625.191167019745, -6681.629321769396, -5605.906916368833, -8136.638478832064, -9382.85999093771, -8239.322392859745, 0.046, 0.962, 0.318, 192.0, 1.0, 112.0, 30.0, 16.0, 9.0, 240.0, 0.0, 0.0, 0.0, 1.7309196006121554E9, 0.0, 2024-11-06 16:00:00.612
169.0, -9011.418701579416, -8228.3923898211, -6624.185338519256, -6685.116193904423, -5592.339407484461, -8127.451911860933, -9367.52669424137, -8238.227157381434, 0.046, 0.962, 0.318, 192.0, 0.0, 0.0, 0.0, 0.0, 0.0, 0.0, 0.0, 0.0, 0.0, 1.7309196006161604E9, 0.0, 2024-11-06 16:00:00.616
170.0, -9044.07460022862, -8260.802419281295, -6654.8072284230275, -6665.93839716177, -5567.059584505509, -8134.023324730793, -9367.861970408198, -8224.3914275636, 0.046, 0.962, 0.318, 192.0, 0.0, 0.0, 0.0, 0.0, 0.0, 0.0, 0.0, 0.0, 0.0, 1.7309196006201189E9, 0.0, 2024-11-06 16:00:00.620
171.0, -9037.83846352559, -8256.86851225716, -6656.729478446184, -6656.952995890737, -5574.346253197939, -8140.684144578475, -9379.596636247235, -8221.10572112867, 0.046, 0.962, 0.318, 192.0, 0.0, 0.0, 0.0, 0.0, 0.0, 0.0, 0.0, 0.0, 0.0, 1.7309196006239913E9, 0.0, 2024-11-06 16:00:00.623
172.0, -9002.20978286383, -8222.290363584802, -6624.587669919452, -6673.023900154102, -5598.642599420858, -8132.5481095967425, -9378.43434553556, -8232.81803522325, 0.046, 0.962, 0.318, 192.0, 0.0, 0.0, 0.0, 0.0, 0.0, 0.0, 0.0, 0.0, 0.0, 1.7309196006289396E9, 0.0, 2024-11-06 16:00:00.628
173.0, -9003.103852642042, -8221.351590317678, -6617.613925649396, -6683.37275783691, -5593.72521564069, -8123.875632748084, -9365.358575029204, -8236.975459691937, 0.046, 0.962, 0.318, 192.0, 0.0, 0.0, 0.0, 0.0, 0.0, 0.0, 0.0, 0.0, 0.0, 1.730919600632952E9, 0.0, 2024-11-06 16:00:00.632
174.0, -9037.0338007252, -8254.007488966881, -6646.961766119214, -6666.65365298434, -5566.970177527688, -8128.681257805974, -9362.430496505558, -8223.542061274298, 0.046, 0.962, 0.318, 192.0, 0.0, 0.0, 0.0, 0.0, 0.0, 0.0, 0.0, 0.0, 0.0, 1.730919600636918E9, 0.0, 2024-11-06 16:00:00.636
175.0, -9040.364210649039, -8259.126038447146, -6658.204693580234, -6654.31549004501, -5568.668910106291, -8138.404266644034, -9375.595673989734, -8217.82001469374, 0.046, 0.962, 0.318, 192.0, 0.0, 0.0, 0.0, 0.0, 0.0, 0.0, 0.0, 0.0, 0.0, 1.730919600640057E9, 0.0, 2024-11-06 16:00:00.640
176.0, -9008.624733522503, -8228.638259010108, -6632.254318267623, -6671.1240018754015, -5597.390901731361, -8136.504368365332, -9381.943569415042, -8232.169834634047, 0.046, 0.962, 0.318, 192.0, 0.0, 0.0, 0.0, 0.0, 0.0, 0.0, 0.0, 0.0, 0.0, 1.7309196006442525E9, 0.0, 2024-11-06 16:00:00.644
177.0, -9000.242829351762, -8218.669380983041, -6616.943373315737, -6685.004435182147, -5598.799061632045, -8126.110807193614, -9369.001909375418, -8239.00946843737, 0.046, 0.962, 0.318, 192.0, 0.0, 0.0, 0.0, 0.0, 0.0, 0.0, 0.0, 0.0, 0.0, 1.7309196006480868E9, 0.0, 2024-11-06 16:00:00.648
178.0, -9030.417684366428, -8247.480779585932, -6640.524463716086, -6669.537028019075, -5569.607683373414, -8126.110807193614, -9360.7094121825, -8224.704351985974, 0.052000000000000005, 0.9580000000000001, 0.314, 192.0, 1.0, 160.0, 29.0, 240.0, 9.0, 208.0, 0.0, 0.0, 0.0, 1.7309196006519332E9, 0.0, 2024-11-06 16:00:00.651
179.0, -9041.92883276091, -8260.467143114465, -6657.958824391226, -6652.594405721951, -5563.393898414838, -8135.498539864843, -9371.013566376396, -8213.751997202873, 0.052000000000000005, 0.9580000000000001, 0.314, 192.0, 0.0, 0.0, 0.0, 0.0, 0.0, 0.0, 0.0, 0.0, 0.0, 1.7309196006559763E9, 0.0, 2024-11-06 16:00:00.655
180.0, -9012.73745450228, -8232.683924756519, -6635.696486913739, -6665.089030872468, -5590.931247583777, -8136.236147431869, -9380.28954032535, -8225.084331641714, 0.052000000000000005, 0.9580000000000001, 0.314, 192.0, 0.0, 0.0, 0.0, 0.0, 0.0, 0.0, 0.0, 0.0, 0.0, 1.7309196006609592E9, 0.0, 2024-11-06 16:00:00.660
181.0, -8995.68307348288, -8214.2884390698, -6613.434149436253, -6681.3387490914765, -5598.48613720967, -8124.769702526296, -9368.778391930866, -8234.360305590666, 0.052000000000000005, 0.9580000000000001, 0.314, 192.0, 0.0, 0.0, 0.0, 0.0, 0.0, 0.0, 0.0, 0.0, 0.0, 1.7309196006650758E9, 0.0, 2024-11-06 16:00:00.665
182.0, -9023.779216263201, -8240.194110893503, -6633.438960723754, -6671.79455420906, -5572.7592793416125, -8123.830929259173, -9358.764810414888, -8224.972572919438, 0.052000000000000005, 0.9580000000000001, 0.314, 192.0, 0.0, 0.0, 0.0, 0.0, 0.0, 0.0, 0.0, 0.0, 0.0, 1.7309196006689107E9, 0.0, 2024-11-06 16:00:00.668
183.0, -9043.7840275507, -8261.361212892678, -6657.735306946673, -6653.332013288977, -5560.868151291389, -8134.224490430891, -9367.593749474734, -8213.19320359149, 0.052000000000000005, 0.9580000000000001, 0.314, 192.0, 0.0, 0.0, 0.0, 0.0, 0.0, 0.0, 0.0, 0.0, 0.0, 1.7309196006720772E9, 0.0, 2024-11-06 16:00:00.672
184.0, -9017.721893515813, -8237.288384114312, -6640.50211197163, -6659.724612203195, -5584.24807599164, -8136.012629987315, -9377.987310646453, -8218.892898427594, 0.052000000000000005, 0.9580000000000001, 0.314, 192.0, 0.0, 0.0, 0.0, 0.0, 0.0, 0.0, 0.0, 0.0, 0.0, 1.730919600676087E9, 0.0, 2024-11-06 16:00:00.676
185.0, -8997.202992105842, -8216.747130959884, -6617.055132038014, -6681.584618280485, -5601.883602366877, -8128.904775250528, -9373.09227861074, -8231.3428200892, 0.052000000000000005, 0.9580000000000001, 0.314, 192.0, 0.0, 0.0, 0.0, 0.0, 0.0, 0.0, 0.0, 0.0, 0.0, 1.7309196006799436E9, 0.0, 2024-11-06 16:00:00.679
186.0, -9020.046474939165, -8238.137750403614, -6631.673172911785, -6677.784821723083, -5580.96236955671, -8126.714304293908, -9362.676365694568, -8223.698523485486, 0.052000000000000005, 0.9580000000000001, 0.314, 192.0, 0.0, 0.0, 0.0, 0.0, 0.0, 0.0, 0.0, 0.0, 0.0, 1.7309196006850188E9, 0.0, 2024-11-06 16:00:00.685
187.0, -9048.187321208397, -8266.97150075096, -6661.468048270709, -6659.702260458739, -5565.092630993442, -8138.627784088587, -9371.035918120851, -8210.600401234675, 0.052000000000000005, 0.9580000000000001, 0.314, 192.0, 0.0, 0.0, 0.0, 0.0, 0.0, 0.0, 0.0, 0.0, 0.0, 1.7309196006890595E9, 0.0, 2024-11-06 16:00:00.689
188.0, -9027.422550609417, -8247.860759241672, -6649.286347542567, -6659.344632547454, -5582.191715501752, -8141.712324823418, -9381.42947929257, -8211.67328496853, 0.05, 0.9560000000000001, 0.314, 192.0, 1.0, 144.0, 29.0, 224.0, 9.0, 208.0, 0.0, 0.0, 0.0, 1.7309196006930633E9, 0.0, 2024-11-06 16:00:00.693
189.0, -8997.404157805939, -8217.551793760276, -6618.440940194242, -6677.762469978627, -5601.034236077576, -8131.27406016279, -9375.483915267458, -8222.804453707273, 0.05, 0.9560000000000001, 0.314, 192.0, 0.0, 0.0, 0.0, 0.0, 0.0, 0.0, 0.0, 0.0, 0.0, 1.7309196006960807E9, 0.0, 2024-11-06 16:00:00.696
190.0, -9013.095082413565, -8231.476930555931, -6624.766483875094, -6678.857705456938, -5584.695110880746, -8125.574365326687, -9363.212807561495, -8219.205822849968, 0.05, 0.9560000000000001, 0.314, 192.0, 0.0, 0.0, 0.0, 0.0, 0.0, 0.0, 0.0, 0.0, 0.0, 1.7309196007000153E9, 0.0, 2024-11-06 16:00:00.700
191.0, -9044.164007206442, -8261.92000650406, -6655.142504589857, -6659.2105220807225, -5562.723346081179, -8134.224490430891, -9366.856141907709, -8204.230154064913, 0.05, 0.9560000000000001, 0.314, 192.0, 0.0, 0.0, 0.0, 0.0, 0.0, 0.0, 0.0, 0.0, 0.0, 1.730919600704307E9, 0.0, 2024-11-06 16:00:00.704
192.0, -9035.223309424318, -8255.035669211826, -6655.03074586758, -6658.115286602412, -5579.308340467017, -8143.634574846576, -9382.480011281968, -8206.778252932818, 0.05, 0.9560000000000001, 0.314, 192.0, 0.0, 0.0, 0.0, 0.0, 0.0, 0.0, 0.0, 0.0, 0.0, 1.7309196007082145E9, 0.0, 2024-11-06 16:00:00.708
193.0, -9001.271009596707, -8221.396293806589, -6622.799530363028, -6675.929626933293, -5602.218878533707, -8134.537414853266, -9379.395470547137, -8218.892898427594, 0.05, 0.9560000000000001, 0.314, 192.0, 0.0, 0.0, 0.0, 0.0, 0.0, 0.0, 0.0, 0.0, 0.0, 1.7309196007120671E9, 0.0, 2024-11-06 16:00:00.712
194.0, -9008.870602711511, -8227.319506087244, -6622.1736815182785, -6684.244475870666, -5593.233477262674, -8127.6754293054855, -9366.632624463156, -8220.77044496184, 0.05, 0.9560000000000001, 0.314, 192.0, 0.0, 0.0, 0.0, 0.0, 0.0, 0.0, 0.0, 0.0, 0.0, 1.7309196007172308E9, 0.0, 2024-11-06 16:00:00.717
195.0, -9045.236890940296, -8263.149352449102, -6655.9248156457925, -6671.191057108767, -5572.155782241319, -8138.091342221659, -9370.43242102056, -8210.823918679229, 0.05, 0.9560000000000001, 0.314, 192.0, 0.0, 0.0, 0.0, 0.0, 0.0, 0.0, 0.0, 0.0, 0.0, 1.7309196007200725E9, 0.0, 2024-11-06 16:00:00.720
196.0, -9041.884129272, -8261.428268126043, -6660.551626748041, -6663.345594804954, -5579.129526511375, -8146.316784181212, -9383.57524676028, -8207.873488411127, 0.05, 0.9560000000000001, 0.314, 192.0, 0.0, 0.0, 0.0, 0.0, 0.0, 0.0, 0.0, 0.0, 0.0, 1.7309196007242076E9, 0.0, 2024-11-06 16:00:00.724
197.0, -9007.127166643997, -8227.744189231895, -6629.3932949773425, -6680.13175489089, -5604.409349490327, -8140.080647478181, -9384.80459270532, -8219.943430416994, 0.05, 0.9560000000000001, 0.314, 192.0, 0.0, 0.0, 0.0, 0.0, 0.0, 0.0, 0.0, 0.0, 0.0, 1.7309196007280889E9, 0.0, 2024-11-06 16:00:00.728
198.0, -9006.121338143508, -8224.972572919438, -6620.519652428586, -6691.687606774284, -5601.414215733316, -8131.050542718237, -9372.131153599163, -8224.637296752608, 0.046, 0.9560000000000001, 0.314, 192.0, 1.0, 112.0, 29.0, 224.0, 9.0, 208.0, 0.0, 0.0, 0.0, 1.7309196007321992E9, 0.0, 2024-11-06 16:00:00.732
199.0, -9039.179568192909, -8256.980270979437, -6648.861664397916, -6675.9966821666585, -5574.368604942394, -8134.738580553363, -9367.437287263547, -8211.360360546156, 0.046, 0.9560000000000001, 0.314, 192.0, 0.0, 0.0, 0.0, 0.0, 0.0, 0.0, 0.0, 0.0, 0.0, 1.7309196007360768E9, 0.0, 2024-11-06 16:00:00.736
200.0, -9041.571204849626, -8260.824771025751, -6658.674080213796, -6660.305757559033, -5571.485229907659, -8141.309993423223, -9376.489743767946, -8201.726758685918, 0.046, 0.9560000000000001, 0.314, 192.0, 0.0, 0.0, 0.0, 0.0, 0.0, 0.0, 0.0, 0.0, 0.0, 1.730919600740026E9, 0.0, 2024-11-06 16:00:00.740
201.0, -9010.703445756846, -8231.253413111379, -6633.260146768111, -6675.9966821666585, -5599.670779665802, -8139.834778289173, -9382.994101404442, -8215.048398381281, 0.046, 0.9560000000000001, 0.314, 192.0, 0.0, 0.0, 0.0, 0.0, 0.0, 0.0, 0.0, 0.0, 0.0, 1.7309196007451065E9, 0.0, 2024-11-06 16:00:00.745
202.0, -9002.9250386864, -8222.089197884703, -6618.552698916519, -6692.358159107943, -5604.521108212603, -8131.207004929424, -9372.622891977178, -8224.234965352412, 0.046, 0.9560000000000001, 0.314, 192.0, 0.0, 0.0, 0.0, 0.0, 0.0, 0.0, 0.0, 0.0, 0.0, 1.7309196007491252E9, 0.0, 2024-11-06 16:00:00.749
203.0, -9036.251489669263, -8253.91808198906, -6645.039516096058, -6682.344577591965, -5579.867134078399, -8134.649173575542, -9367.549045985825, -8214.824880936729, 0.046, 0.9560000000000001, 0.314, 192.0, 0.0, 0.0, 0.0, 0.0, 0.0, 0.0, 0.0, 0.0, 0.0, 1.730919600753184E9, 0.0, 2024-11-06 16:00:00.753
204.0, -9049.193149708886, -8267.843218784717, -6663.926740160792, -6665.3125483170215, -5571.664043863302, -8143.61222310212, -9377.495572268435, -8204.028988364815, 0.046, 0.9560000000000001, 0.314, 192.0, 0.0, 0.0, 0.0, 0.0, 0.0, 0.0, 0.0, 0.0, 0.0, 1.7309196007561097E9, 0.0, 2024-11-06 16:00:00.756
205.0, -9019.800605750157, -8239.903538215583, -6641.686754427762, -6675.214371110723, -5596.4744802086925, -8143.008726001826, -9385.765717716899, -8213.237907080402, 0.046, 0.9560000000000001, 0.314, 192.0, 0.0, 0.0, 0.0, 0.0, 0.0, 0.0, 0.0, 0.0, 0.0, 1.7309196007601275E9, 0.0, 2024-11-06 16:00:00.760
206.0, -9003.148556130953, -8222.044494395792, -6619.9385070727485, -6693.319284119521, -5607.404483247338, -8133.643345075053, -9376.847371679232, -8224.346724074689, 0.046, 0.9560000000000001, 0.314, 192.0, 0.0, 0.0, 0.0, 0.0, 0.0, 0.0, 0.0, 0.0, 0.0, 1.7309196007641776E9, 0.0, 2024-11-06 16:00:00.764
207.0, -9030.372980877517, -8247.704297030485, -6639.8986148713375, -6686.457298571742, -5584.404538202827, -8133.464531119411, -9368.219598319483, -8216.68007572652, 0.046, 0.9560000000000001, 0.314, 192.0, 0.0, 0.0, 0.0, 0.0, 0.0, 0.0, 0.0, 0.0, 0.0, 1.7309196007682548E9, 0.0, 2024-11-06 16:00:00.768
208.0, -9049.729591575813, -8268.022032740359, -6663.278539571588, -6666.676004728795, -5569.67473860678, -8141.75702831233, -9375.193342589539, -8203.447843008977, 0.05, 0.9540000000000001, 0.318, 192.0, 1.0, 144.0, 29.0, 208.0, 9.0, 240.0, 0.0, 0.0, 0.0, 1.7309196007730615E9, 0.0, 2024-11-06 16:00:00.773
209.0, -9023.443940096371, -8243.368058606155, -6645.307737029521, -6669.626434996896, -5589.411328960816, -8141.667621334508, -9383.619950249189, -8207.828784922218, 0.05, 0.9540000000000001, 0.318, 192.0, 0.0, 0.0, 0.0, 0.0, 0.0, 0.0, 0.0, 0.0, 0.0, 1.7309196007761347E9, 0.0, 2024-11-06 16:00:00.776
210.0, -9001.092195641064, -8220.345761817189, -6620.743169873139, -6690.279446873599, -5607.315076269517, -8133.889214264062, -9378.657862980112, -8221.843328695695, 0.05, 0.9540000000000001, 0.318, 192.0, 0.0, 0.0, 0.0, 0.0, 0.0, 0.0, 0.0, 0.0, 0.0, 1.7309196007800498E9, 0.0, 2024-11-06 16:00:00.780
211.0, -9021.58874530658, -8239.232985881923, -6632.6790014122735, -6687.217257883222, -5587.176154515285, -8129.821196773196, -9366.856141907709, -8216.121282115137, 0.05, 0.9540000000000001, 0.318, 192.0, 0.0, 0.0, 0.0, 0.0, 0.0, 0.0, 0.0, 0.0, 0.0, 1.7309196007841475E9, 0.0, 2024-11-06 16:00:00.784
212.0, -9047.516768874737, -8265.898617017105, -6660.08224011448, -6667.346557062454, -5567.730136839168, -8138.203100943935, -9371.102973354218, -8201.90557264156, 0.05, 0.9540000000000001, 0.318, 192.0, 0.0, 0.0, 0.0, 0.0, 0.0, 0.0, 0.0, 0.0, 0.0, 1.7309196007880487E9, 0.0, 2024-11-06 16:00:00.788
213.0, -9029.009524465744, -8249.06775344226, -6650.180417320778, -6666.296025073055, -5583.577523657981, -8141.958194012427, -9382.211790348505, -8203.917229642539, 0.05, 0.9540000000000001, 0.318, 192.0, 0.0, 0.0, 0.0, 0.0, 0.0, 0.0, 0.0, 0.0, 0.0, 1.7309196007920184E9, 0.0, 2024-11-06 16:00:00.792
214.0, -9000.846326452056, -8220.72574147293, -6621.9948675626365, -6686.032615427091, -5604.722273912701, -8134.1350834530695, -9379.373118802681, -8218.088235627203, 0.05, 0.9540000000000001, 0.318, 192.0, 0.0, 0.0, 0.0, 0.0, 0.0, 0.0, 0.0, 0.0, 0.0, 1.7309196007961917E9, 0.0, 2024-11-06 16:00:00.796
215.0, -9014.838518481078, -8232.750979989885, -6627.672210654285, -6688.625417783906, -5590.43950920576, -8128.524795594788, -9367.057307607807, -8216.344799559689, 0.05, 0.9540000000000001, 0.318, 192.0, 0.0, 0.0, 0.0, 0.0, 0.0, 0.0, 0.0, 0.0, 0.0, 1.730919600801086E9, 0.0, 2024-11-06 16:00:00.801
216.0, -9045.482760129305, -8263.01524198237, -6657.310623802022, -6669.782897208082, -5567.707785094713, -8136.236147431869, -9368.823095419777, -8202.173793575024, 0.05, 0.9540000000000001, 0.318, 192.0, 0.0, 0.0, 0.0, 0.0, 0.0, 0.0, 0.0, 0.0, 0.0, 1.730919600805066E9, 0.0, 2024-11-06 16:00:00.805
217.0, -9035.737399546791, -8255.10272444519, -6656.483609257175, -6665.424307039298, -5579.57656140048, -8144.103961480137, -9382.6141217487, -8202.509069741855, 0.05, 0.9540000000000001, 0.318, 192.0, 0.0, 0.0, 0.0, 0.0, 0.0, 0.0, 0.0, 0.0, 0.0, 1.7309196008101184E9, 0.0, 2024-11-06 16:00:00.810
218.0, -9002.947390430856, -8222.446825795987, -6625.906422842315, -6682.031653169591, -5602.241230278162, -8136.012629987315, -9381.071851381284, -8214.62371523663, 0.052000000000000005, 0.9560000000000001, 0.322, 192.0, 1.0, 160.0, 29.0, 224.0, 10.0, 16.0, 0.0, 0.0, 0.0, 1.730919600813177E9, 0.0, 2024-11-06 16:00:00.813
219.0, -9009.027064922699, -8226.894822942593, -6623.760655374605, -6689.295970117566, -5594.44047146326, -8128.345981639145, -9368.487819252947, -8215.897764670583, 0.052000000000000005, 0.9560000000000001, 0.322, 192.0, 0.0, 0.0, 0.0, 0.0, 0.0, 0.0, 0.0, 0.0, 0.0, 1.7309196008182402E9, 0.0, 2024-11-06 16:00:00.818
220.0, -9041.54885310517, -8259.148390191602, -6653.019088866603, -6672.442754798264, -5569.585331628959, -8134.4256561309885, -9367.52669424137, -8201.10090984117, 0.052000000000000005, 0.9560000000000001, 0.322, 192.0, 0.0, 0.0, 0.0, 0.0, 0.0, 0.0, 0.0, 0.0, 0.0, 1.73091960082227E9, 0.0, 2024-11-06 16:00:00.822
221.0, -9039.648954826469, -8258.723707046951, -6659.009356380625, -6662.384469793376, -5574.100384008931, -8142.494635879355, -9379.730746713967, -8195.892953383083, 0.052000000000000005, 0.9560000000000001, 0.322, 192.0, 0.0, 0.0, 0.0, 0.0, 0.0, 0.0, 0.0, 0.0, 0.0, 1.7309196008251922E9, 0.0, 2024-11-06 16:00:00.825
222.0, -9005.987227676776, -8225.82193920874, -6629.102722299424, -6676.331958333488, -5598.307323254028, -8136.951403254438, -9381.00479614792, -8206.867659910638, 0.052000000000000005, 0.9560000000000001, 0.322, 192.0, 0.0, 0.0, 0.0, 0.0, 0.0, 0.0, 0.0, 0.0, 0.0, 1.7309196008282025E9, 0.0, 2024-11-06 16:00:00.828
223.0, -9002.67916949739, -8220.993962406394, -6618.0609605385025, -6686.65846427184, -5595.91568659731, -8127.362504883112, -9367.683156452556, -8210.667456468042, 0.052000000000000005, 0.9560000000000001, 0.322, 192.0, 0.0, 0.0, 0.0, 0.0, 0.0, 0.0, 0.0, 0.0, 0.0, 1.7309196008321936E9, 0.0, 2024-11-06 16:00:00.832
224.0, -9037.0338007252, -8254.2980616448, -6647.565263219508, -6674.9461501772585, -5573.094555508442, -8133.03984797476, -9365.80560991831, -8200.229191807413, 0.052000000000000005, 0.9560000000000001, 0.322, 192.0, 0.0, 0.0, 0.0, 0.0, 0.0, 0.0, 0.0, 0.0, 0.0, 1.7309196008382761E9, 0.0, 2024-11-06 16:00:00.838
225.0, -9044.49928337327, -8263.3505181492, -6662.2056558377335, -6662.630338982384, -5572.535761897059, -8143.0534294907375, -9378.210828091005, -8194.149517315569, 0.052000000000000005, 0.9560000000000001, 0.322, 192.0, 0.0, 0.0, 0.0, 0.0, 0.0, 0.0, 0.0, 0.0, 0.0, 1.7309196008432412E9, 0.0, 2024-11-06 16:00:00.843
226.0, -9011.821032979613, -8231.745151489396, -6635.584728191463, -6672.755679220639, -5596.0050935751315, -8138.784246299773, -9382.14473511514, -8203.581953475708, 0.052000000000000005, 0.9560000000000001, 0.322, 192.0, 0.0, 0.0, 0.0, 0.0, 0.0, 0.0, 0.0, 0.0, 0.0, 1.7309196008473065E9, 0.0, 2024-11-06 16:00:00.847
227.0, -9002.478003797294, -8221.4409972955, -6620.1173210283905, -6688.625417783906, -5602.710616911723, -8130.849377018139, -9372.555836743813, -8213.729645458418, 0.052000000000000005, 0.9560000000000001, 0.322, 192.0, 0.0, 0.0, 0.0, 0.0, 0.0, 0.0, 0.0, 0.0, 0.0, 1.730919600850324E9, 0.0, 2024-11-06 16:00:00.850
228.0, -9031.69173380038, -8249.425381353543, -6642.804341650527, -6678.187153123278, -5578.414270688805, -8131.94461249645, -9365.068002351285, -8203.850174409172, 0.048, 0.9560000000000001, 0.322, 192.0, 1.0, 128.0, 29.0, 224.0, 10.0, 16.0, 0.0, 0.0, 0.0, 1.7309196008532708E9, 0.0, 2024-11-06 16:00:00.853
229.0, -9045.773332807223, -8264.378698394145, -6661.870379670904, -6661.289234315066, -5569.33946243995, -8140.661792834019, -9373.919293155586, -8193.434261493, 0.048, 0.9560000000000001, 0.322, 192.0, 0.0, 0.0, 0.0, 0.0, 0.0, 0.0, 0.0, 0.0, 0.0, 1.73091960085615E9, 0.0, 2024-11-06 16:00:00.856
230.0, -9018.437149338382, -8238.853006226183, -6641.9549753612255, -6669.1346966188785, -5592.451166206738, -8140.773551556296, -9382.547066515335, -8202.643180208586, 0.048, 0.9560000000000001, 0.322, 192.0, 0.0, 0.0, 0.0, 0.0, 0.0, 0.0, 0.0, 0.0, 0.0, 1.7309196008602293E9, 0.0, 2024-11-06 16:00:00.860
231.0, -8998.722910728802, -8218.490567027398, -6618.552698916519, -6684.244475870666, -5602.151823300341, -8129.754141539829, -9372.868761166186, -8212.321485557733, 0.048, 0.9560000000000001, 0.322, 192.0, 0.0, 0.0, 0.0, 0.0, 0.0, 0.0, 0.0, 0.0, 0.0, 1.7309196008662555E9, 0.0, 2024-11-06 16:00:00.866
232.0, -9024.06978894112, -8242.116360916658, -6635.808245636016, -6678.298911845554, -5580.582389900969, -8128.055408961226, -9362.832827905755, -8204.833651165205, 0.048, 0.9560000000000001, 0.322, 192.0, 0.0, 0.0, 0.0, 0.0, 0.0, 0.0, 0.0, 0.0, 0.0, 1.7309196008691628E9, 0.0, 2024-11-06 16:00:00.869
233.0, -9047.449713641372, -8265.92096876156, -6662.406821537831, -6662.384469793376, -5568.601854872925, -8139.365391655611, -9371.840580921244, -8194.90947662705, 0.048, 0.9560000000000001, 0.322, 192.0, 0.0, 0.0, 0.0, 0.0, 0.0, 0.0, 0.0, 0.0, 0.0, 1.7309196008721204E9, 0.0, 2024-11-06 16:00:00.872
234.0, -9025.947335475366, -8246.094971429702, -6649.353402775932, -6666.385432050876, -5589.053701049531, -8143.791037057762, -9383.865819438199, -8201.86086915265, 0.048, 0.9560000000000001, 0.322, 192.0, 0.0, 0.0, 0.0, 0.0, 0.0, 0.0, 0.0, 0.0, 0.0, 1.730919600876261E9, 0.0, 2024-11-06 16:00:00.876
235.0, -9001.047492152155, -8221.038665895303, -6622.486605940653, -6682.970426436714, -5604.230535534684, -8134.068028219704, -9377.652034479623, -8213.550831502776, 0.048, 0.9560000000000001, 0.322, 192.0, 0.0, 0.0, 0.0, 0.0, 0.0, 0.0, 0.0, 0.0, 0.0, 1.730919600880332E9, 0.0, 2024-11-06 16:00:00.880
236.0, -9021.253469139752, -8239.232985881923, -6634.355382246421, -6682.635150269884, -5587.936113826766, -8131.27406016279, -9367.191418074539, -8210.332180301211, 0.048, 0.9560000000000001, 0.322, 192.0, 0.0, 0.0, 0.0, 0.0, 0.0, 0.0, 0.0, 0.0, 0.0, 1.7309196008843224E9, 0.0, 2024-11-06 16:00:00.884
237.0, -9048.343783419585, -8266.63622458413, -6662.362118048921, -6665.0219756391025, -5570.099421751431, -8140.3712201561, -9371.8629326657, -8197.77049991733, 0.048, 0.9560000000000001, 0.322, 192.0, 0.0, 0.0, 0.0, 0.0, 0.0, 0.0, 0.0, 0.0, 0.0, 1.730919600888216E9, 0.0, 2024-11-06 16:00:00.888
238.0, -9030.417684366428, -8250.341802876212, -6652.594405721951, -6661.065716870513, -5582.8175643465, -8143.008726001826, -9381.541238014846, -8197.85990689515, 0.05, 0.9580000000000001, 0.316, 192.0, 1.0, 144.0, 29.0, 240.0, 9.0, 224.0, 0.0, 0.0, 0.0, 1.7309196008922465E9, 0.0, 2024-11-06 16:00:00.892
239.0, -8999.952256673843, -8219.608154250163, -6622.061922796002, -6676.421365311309, -5601.235401777673, -8133.106903208126, -9376.735612956954, -8209.259296567358, 0.05, 0.9580000000000001, 0.316, 192.0, 0.0, 0.0, 0.0, 0.0, 0.0, 0.0, 0.0, 0.0, 0.0, 1.7309196008952212E9, 0.0, 2024-11-06 16:00:00.895
240.0, -9013.698579513857, -8231.611041022663, -6626.97930657617, -6681.919894447315, -5591.490041195159, -8128.815368272707, -9366.587920974245, -8210.488642512399, 0.05, 0.9580000000000001, 0.316, 192.0, 0.0, 0.0, 0.0, 0.0, 0.0, 0.0, 0.0, 0.0, 0.0, 1.7309196008992949E9, 0.0, 2024-11-06 16:00:00.899
241.0, -9045.058076984653, -8263.01524198237, -6656.617719723907, -6666.273673328599, -5571.328767696473, -8137.174920698992, -9368.934854142053, -8198.642217951086, 0.05, 0.9580000000000001, 0.316, 192.0, 0.0, 0.0, 0.0, 0.0, 0.0, 0.0, 0.0, 0.0, 0.0, 1.730919600903355E9, 0.0, 2024-11-06 16:00:00.903
242.0, -9037.167911191931, -8257.114381446168, -6657.198865079745, -6660.283405814577, -5580.649445134335, -8144.595699858153, -9380.490706025446, -8197.457575494955, 0.05, 0.9580000000000001, 0.316, 192.0, 0.0, 0.0, 0.0, 0.0, 0.0, 0.0, 0.0, 0.0, 0.0, 1.7309196009082701E9, 0.0, 2024-11-06 16:00:00.908
243.0, -9005.428434065394, -8225.687828742008, -6627.783969376561, -6675.728461233194, -5603.180003545285, -8138.761894555319, -9380.848333936732, -8210.19806983448, 0.05, 0.9580000000000001, 0.316, 192.0, 0.0, 0.0, 0.0, 0.0, 0.0, 0.0, 0.0, 0.0, 0.0, 1.730919600912246E9, 0.0, 2024-11-06 16:00:00.912
244.0, -9009.183527133886, -8227.475968298431, -6623.425379207776, -6683.41746132582, -5597.189736031263, -8130.916432251505, -9368.979557630964, -8213.10379661367, 0.05, 0.9580000000000001, 0.316, 192.0, 0.0, 0.0, 0.0, 0.0, 0.0, 0.0, 0.0, 0.0, 0.0, 1.7309196009162705E9, 0.0, 2024-11-06 16:00:00.916
245.0, -9043.225233939318, -8260.601253581197, -6654.136676089368, -6670.699318730751, -5576.2237997321845, -8137.912528266017, -9369.04661286433, -8202.799642419774, 0.05, 0.9580000000000001, 0.316, 192.0, 0.0, 0.0, 0.0, 0.0, 0.0, 0.0, 0.0, 0.0, 0.0, 1.7309196009203255E9, 0.0, 2024-11-06 16:00:00.920
246.0, -9044.49928337327, -8263.372869893656, -6663.077373871491, -6661.803324437538, -5580.537686412059, -8147.009688259326, -9381.787107203854, -8199.402177262566, 0.05, 0.9580000000000001, 0.316, 192.0, 0.0, 0.0, 0.0, 0.0, 0.0, 0.0, 0.0, 0.0, 0.0, 1.73091960092345E9, 0.0, 2024-11-06 16:00:00.923
247.0, -9012.715102757824, -8232.706276500974, -6635.696486913739, -6674.923798432804, -5604.1634803013185, -8142.449932390444, -9385.318682827794, -8211.136843101602, 0.05, 0.9580000000000001, 0.316, 192.0, 0.0, 0.0, 0.0, 0.0, 0.0, 0.0, 0.0, 0.0, 0.0, 1.730919600927309E9, 0.0, 2024-11-06 16:00:00.927
248.0, -9007.775367233202, -8226.425436309033, -6623.559489674508, -6685.518525304619, -5603.247058778651, -8132.70457180793, -9372.913464655097, -8216.076578626225, 0.048, 0.9560000000000001, 0.31, 192.0, 1.0, 128.0, 29.0, 224.0, 9.0, 176.0, 0.0, 0.0, 0.0, 1.730919600931295E9, 0.0, 2024-11-06 16:00:00.931
249.0, -9038.397257136972, -8256.086201201226, -6649.308699287021, -6673.403879809843, -5579.48715442266, -8136.057333476226, -9367.303176796815, -8204.699540698473, 0.048, 0.9560000000000001, 0.31, 192.0, 0.0, 0.0, 0.0, 0.0, 0.0, 0.0, 0.0, 0.0, 0.0, 1.730919600935168E9, 0.0, 2024-11-06 16:00:00.935
250.0, -9047.092085730086, -8266.099782717203, -6664.418478538809, -6660.50692325913, -5576.939055554754, -8145.847397547651, -9378.367290302192, -8197.703444683963, 0.048, 0.9560000000000001, 0.31, 192.0, 0.0, 0.0, 0.0, 0.0, 0.0, 0.0, 0.0, 0.0, 0.0, 1.7309196009402752E9, 0.0, 2024-11-06 16:00:00.940
251.0, -9018.191280149375, -8238.204805636979, -6641.530292216575, -6671.03459489758, -5600.5201459551035, -8144.506292880332, -9384.916351427597, -8208.119357600137, 0.048, 0.9560000000000001, 0.31, 192.0, 0.0, 0.0, 0.0, 0.0, 0.0, 0.0, 0.0, 0.0, 0.0, 1.7309196009453073E9, 0.0, 2024-11-06 16:00:00.945
252.0, -9004.802585220647, -8223.653819996574, -6623.067751296491, -6684.065661915024, -5605.281067524084, -8133.710400308419, -9373.695775711034, -8215.271915825835, 0.048, 0.9560000000000001, 0.31, 192.0, 0.0, 0.0, 0.0, 0.0, 0.0, 0.0, 0.0, 0.0, 0.0, 1.7309196009494913E9, 0.0, 2024-11-06 16:00:00.949
253.0, -9031.35645763355, -8249.045401697804, -6642.536120717064, -6674.163839121323, -5581.118831767897, -8132.391647385556, -9364.240987806439, -8204.543078487288, 0.048, 0.9560000000000001, 0.31, 192.0, 0.0, 0.0, 0.0, 0.0, 0.0, 0.0, 0.0, 0.0, 0.0, 1.730919600952304E9, 0.0, 2024-11-06 16:00:00.952
254.0, -9045.616870596037, -8264.088125716225, -6661.400993037342, -6657.288272057566, -5570.635863618358, -8140.482978878377, -9371.415897776593, -8193.456613237455, 0.048, 0.9560000000000001, 0.31, 192.0, 0.0, 0.0, 0.0, 0.0, 0.0, 0.0, 0.0, 0.0, 0.0, 1.7309196009553988E9, 0.0, 2024-11-06 16:00:00.955
255.0, -9019.331219116595, -8239.232985881923, -6642.871396883893, -6663.882036671882, -5592.138241784363, -8142.226414945891, -9380.535409514358, -8201.81616566374, 0.048, 0.9560000000000001, 0.31, 192.0, 0.0, 0.0, 0.0, 0.0, 0.0, 0.0, 0.0, 0.0, 0.0, 1.7309196009594297E9, 0.0, 2024-11-06 16:00:00.959
0.0, -8998.946428173354, -8218.334104816211, -6619.111492527902, -6679.483554301686, -5603.068244823008, -8132.2575369188235, -9372.220560576983, -8211.896802413083, 0.048, 0.9560000000000001, 0.31, 192.0, 0.0, 0.0, 0.0, 0.0, 0.0, 0.0, 0.0, 0.0, 0.0, 1.7309196009663165E9, 0.0, 2024-11-06 16:00:00.966
1.0, -9022.683980784892, -8240.618794038153, -6634.713010157706, -6676.264903100122, -5584.136317269364, -8130.715266551408, -9363.391621517138, -8206.040645365792, 0.048, 0.9560000000000001, 0.31, 192.0, 0.0, 0.0, 0.0, 0.0, 0.0, 0.0, 0.0, 0.0, 0.0, 1.7309196009702988E9, 0.0, 2024-11-06 16:00:00.970
2.0, -9043.225233939318, -8261.852951270694, -6657.400030779842, -6658.316452302511, -5568.311282195006, -8137.979583499383, -9367.996080874931, -8192.875467881617, 0.046, 0.9560000000000001, 0.306, 192.0, 1.0, 112.0, 29.0, 224.0, 9.0, 144.0, 0.0, 0.0, 0.0, 1.7309196009732487E9, 0.0, 2024-11-06 16:00:00.973
3.0, -9022.773387762712, -8243.591576050709, -6646.0006411076365, -6661.065716870513, -5586.617360903902, -8141.488807378866, -9378.702566469023, -8198.418700506532, 0.046, 0.9560000000000001, 0.306, 192.0, 0.0, 0.0, 0.0, 0.0, 0.0, 0.0, 0.0, 0.0, 0.0, 1.7309196009763212E9, 0.0, 2024-11-06 16:00:00.976
4.0, -8999.728739229291, -8220.278706583824, -6621.748998373628, -6679.9305891907925, -5605.169308801807, -8134.403304386534, -9374.925121656075, -8212.522651257832, 0.046, 0.9560000000000001, 0.306, 192.0, 0.0, 0.0, 0.0, 0.0, 0.0, 0.0, 0.0, 0.0, 0.0, 1.730919600980442E9, 0.0, 2024-11-06 16:00:00.980
5.0, -9016.045512681665, -8234.96380269096, -6629.572108932985, -6679.438850812776, -5588.852535349433, -8128.927126994983, -9362.385793016649, -8208.14170934459, 0.046, 0.9560000000000001, 0.306, 192.0, 0.0, 0.0, 0.0, 0.0, 0.0, 0.0, 0.0, 0.0, 0.0, 1.7309196009833045E9, 0.0, 2024-11-06 16:00:00.983
6.0, -9040.431265882406, -8259.416611125065, -6654.65076621184, -6660.283405814577, -5567.752488583624, -8134.448007875444, -9363.168104072583, -8192.629598692609, 0.046, 0.9560000000000001, 0.306, 192.0, 0.0, 0.0, 0.0, 0.0, 0.0, 0.0, 0.0, 0.0, 0.0, 1.7309196009872286E9, 0.0, 2024-11-06 16:00:00.987
7.0, -9027.221384909319, -8248.039573197315, -6650.180417320778, -6658.584673235974, -5581.3870527013605, -8140.5276823672875, -9375.908598412108, -8194.842421393683, 0.046, 0.9560000000000001, 0.306, 192.0, 0.0, 0.0, 0.0, 0.0, 0.0, 0.0, 0.0, 0.0, 0.0, 1.7309196009912784E9, 0.0, 2024-11-06 16:00:00.991
8.0, -8999.996960162754, -8221.083369384214, -6624.11828328589, -6676.823696711504, -5603.403520989838, -8134.89504276455, -9375.975653645475, -8209.214593078446, 0.046, 0.9560000000000001, 0.306, 192.0, 0.0, 0.0, 0.0, 0.0, 0.0, 0.0, 0.0, 0.0, 0.0, 1.730919600996387E9, 0.0, 2024-11-06 16:00:00.996
9.0, -9009.652913767448, -8228.951183432482, -6625.749960631128, -6681.428156069298, -5592.5405731845585, -8128.03305721677, -9363.972766872976, -8208.700502955973, 0.046, 0.9560000000000001, 0.306, 192.0, 0.0, 0.0, 0.0, 0.0, 0.0, 0.0, 0.0, 0.0, 0.0, 1.730919601000281E9, 0.0, 2024-11-06 16:00:01.000
10.0, -9041.057114727153, -8260.198922181002, -6655.589539478963, -6667.212446595722, -5572.1110787524085, -8136.169092198503, -9366.207941318506, -8197.301113283767, 0.046, 0.9560000000000001, 0.306, 192.0, 0.0, 0.0, 0.0, 0.0, 0.0, 0.0, 0.0, 0.0, 0.0, 1.7309196010033169E9, 0.0, 2024-11-06 16:00:01.003
11.0, -9034.284536157196, -8255.63916631212, -6656.8635889129155, -6660.059888370024, -5578.906009066822, -8143.321650424201, -9378.23317983546, -8194.99888360487, 0.046, 0.9560000000000001, 0.306, 192.0, 0.0, 0.0, 0.0, 0.0, 0.0, 0.0, 0.0, 0.0, 0.0, 1.7309196010074322E9, 0.0, 2024-11-06 16:00:01.007
12.0, -9001.919210185912, -8224.190261863501, -6627.761617632105, -6673.716804232216, -5599.983704088176, -8136.794941043251, -9378.23317983546, -8206.152404088069, 0.05, 0.9500000000000001, 0.308, 192.0, 1.0, 144.0, 29.0, 176.0, 9.0, 160.0, 0.0, 0.0, 0.0, 1.730919601011417E9, 0.0, 2024-11-06 16:00:01.011
13.0, -9004.02027416471, -8224.972572919438, -6622.084274540458, -6682.65750201434, -5595.289837752562, -8129.038885717259, -9366.587920974245, -8209.594572734186, 0.05, 0.9500000000000001, 0.308, 192.0, 0.0, 0.0, 0.0, 0.0, 0.0, 0.0, 0.0, 0.0, 0.0, 1.7309196010152168E9, 0.0, 2024-11-06 16:00:01.015
14.0, -9039.201919937363, -8259.39425938061, -6653.130847588879, -6672.822734454005, -5576.000282287631, -8137.309031165723, -9368.286653552848, -8201.279723796812, 0.05, 0.9500000000000001, 0.308, 192.0, 0.0, 0.0, 0.0, 0.0, 0.0, 0.0, 0.0, 0.0, 0.0, 1.7309196010194752E9, 0.0, 2024-11-06 16:00:01.019
15.0, -9044.275765928718, -8266.055079228292, -6664.954920405737, -6665.334900061477, -5580.470631178693, -8149.08840049367, -9383.418784549092, -8199.268066795834, 0.05, 0.9500000000000001, 0.308, 192.0, 0.0, 0.0, 0.0, 0.0, 0.0, 0.0, 0.0, 0.0, 0.0, 1.7309196010243473E9, 0.0, 2024-11-06 16:00:01.024
16.0, -9014.369131847518, -8237.10957015867, -6639.78685614906, -6678.298911845554, -5604.230535534684, -8146.406191159033, -9387.822078206787, -8211.270953568335, 0.05, 0.9500000000000001, 0.308, 192.0, 0.0, 0.0, 0.0, 0.0, 0.0, 0.0, 0.0, 0.0, 0.0, 1.7309196010283947E9, 0.0, 2024-11-06 16:00:01.028
17.0, -9005.294323598662, -8226.358381075666, -6624.520614686086, -6687.440775327776, -5602.710616911723, -8134.4256561309885, -9373.516961755391, -8214.62371523663, 0.05, 0.9500000000000001, 0.308, 192.0, 0.0, 0.0, 0.0, 0.0, 0.0, 0.0, 0.0, 0.0, 0.0, 1.73091960103143E9, 0.0, 2024-11-06 16:00:01.031
18.0, -9034.150425690465, -8254.20865466698, -6647.989946364159, -6675.773164722105, -5578.906009066822, -8135.94557475395, -9366.878493652164, -8202.889049397594, 0.05, 0.9500000000000001, 0.308, 192.0, 0.0, 0.0, 0.0, 0.0, 0.0, 0.0, 0.0, 0.0, 0.0, 1.7309196010353613E9, 0.0, 2024-11-06 16:00:01.035
19.0, -9045.46040838485, -8266.770335050862, -6665.044327383558, -6663.591463993963, -5575.910875309811, -8146.674412092497, -9378.590807746747, -8196.295284783278, 0.05, 0.9500000000000001, 0.308, 192.0, 0.0, 0.0, 0.0, 0.0, 0.0, 0.0, 0.0, 0.0, 0.0, 1.730919601039364E9, 0.0, 2024-11-06 16:00:01.039
20.0, -9015.754940003746, -8238.137750403614, -6641.239719538656, -6671.347519319955, -5597.1226807978965, -8144.528644624787, -9384.514020027402, -8204.76659593184, 0.05, 0.9500000000000001, 0.308, 192.0, 0.0, 0.0, 0.0, 0.0, 0.0, 0.0, 0.0, 0.0, 0.0, 1.7309196010433407E9, 0.0, 2024-11-06 16:00:01.043
21.0, -8999.862849696023, -8221.82097695124, -6620.206728006212, -6683.663330514829, -5602.241230278162, -8133.1963101859465, -9372.913464655097, -8211.62858147962, 0.05, 0.9500000000000001, 0.308, 192.0, 0.0, 0.0, 0.0, 0.0, 0.0, 0.0, 0.0, 0.0, 0.0, 1.73091960104748E9, 0.0, 2024-11-06 16:00:01.047
22.0, -9024.829748252601, -8245.53617781832, -6638.557510204018, -6674.99085366617, -5579.420099189294, -8132.034019474271, -9363.637490706145, -8201.57029647473, 0.054, 0.9500000000000001, 0.31, 192.0, 1.0, 176.0, 29.0, 176.0, 9.0, 176.0, 0.0, 0.0, 0.0, 1.7309196010524015E9, 0.0, 2024-11-06 16:00:01.052
23.0, -9044.231062439807, -8265.965672250471, -6662.071545371002, -6661.669213970807, -5571.731099096668, -8144.349830669145, -9374.254569322417, -8193.791889404285, 0.054, 0.9500000000000001, 0.31, 192.0, 0.0, 0.0, 0.0, 0.0, 0.0, 0.0, 0.0, 0.0, 0.0, 1.7309196010563817E9, 0.0, 2024-11-06 16:00:01.056
24.0, -9020.314695872628, -8243.859796984172, -6645.486550985164, -6667.145391362356, -5592.607628417924, -8146.18267371448, -9383.75406071592, -8201.57029647473, 0.054, 0.9500000000000001, 0.31, 192.0, 0.0, 0.0, 0.0, 0.0, 0.0, 0.0, 0.0, 0.0, 0.0, 1.730919601059462E9, 0.0, 2024-11-06 16:00:01.059
25.0, -9000.35458807404, -8223.206785107468, -6622.576012918475, -6683.596275281463, -5605.839861135467, -8136.951403254438, -9376.75796470141, -8212.835575680207, 0.054, 0.9500000000000001, 0.31, 192.0, 0.0, 0.0, 0.0, 0.0, 0.0, 0.0, 0.0, 0.0, 0.0, 1.7309196010633516E9, 0.0, 2024-11-06 16:00:01.063
26.0, -9022.393408106973, -8243.859796984172, -6636.992888092147, -6680.690548502273, -5587.377320215383, -8134.358600897623, -9366.476162251969, -8207.024122121826, 0.054, 0.9500000000000001, 0.31, 192.0, 0.0, 0.0, 0.0, 0.0, 0.0, 0.0, 0.0, 0.0, 0.0, 1.7309196010674033E9, 0.0, 2024-11-06 16:00:01.067
27.0, -9046.153312462964, -8268.044384484814, -6662.987966893669, -6664.194961094256, -5572.133430496863, -8143.098132979648, -9372.846409421732, -8195.267104538334, 0.054, 0.9500000000000001, 0.31, 192.0, 0.0, 0.0, 0.0, 0.0, 0.0, 0.0, 0.0, 0.0, 0.0, 1.730919601071286E9, 0.0, 2024-11-06 16:00:01.071
28.0, -9026.841405253579, -8249.96182322047, -6651.834446410471, -6664.016147138614, -5587.511430682115, -8146.026211503293, -9382.85999093771, -8198.530459228808, 0.054, 0.9500000000000001, 0.31, 192.0, 0.0, 0.0, 0.0, 0.0, 0.0, 0.0, 0.0, 0.0, 0.0, 1.7309196010754704E9, 0.0, 2024-11-06 16:00:01.075
29.0, -8997.694730483858, -8220.435168795011, -6621.838405351449, -6677.158972878334, -5601.525974455592, -8134.045676475249, -9375.059232122807, -8207.42645352202, 0.054, 0.9500000000000001, 0.31, 192.0, 0.0, 0.0, 0.0, 0.0, 0.0, 0.0, 0.0, 0.0, 0.0, 1.730919601080356E9, 0.0, 2024-11-06 16:00:01.080
30.0, -9013.475062069305, -8235.030857924326, -6629.54975718853, -6679.014167668124, -5588.181983015774, -8129.687086306463, -9364.531560484358, -8205.39244477659, 0.054, 0.9500000000000001, 0.31, 192.0, 0.0, 0.0, 0.0, 0.0, 0.0, 0.0, 0.0, 0.0, 0.0, 1.7309196010844488E9, 0.0, 2024-11-06 16:00:01.084
31.0, -9041.414742638439, -8263.3505181492, -6657.288272057566, -6662.764449449116, -5569.741793840146, -8138.203100943935, -9368.420764019582, -8193.009578348348, 0.054, 0.9500000000000001, 0.31, 192.0, 0.0, 0.0, 0.0, 0.0, 0.0, 0.0, 0.0, 0.0, 0.0, 1.730919601087402E9, 0.0, 2024-11-06 16:00:01.087
32.0, -9027.891937242977, -8251.235872654423, -6652.192074321756, -6657.467086013208, -5580.224761989684, -8142.472284134899, -9378.881380424666, -8192.227267292414, 0.06, 0.9480000000000001, 0.31, 192.0, 1.0, 224.0, 29.0, 160.0, 9.0, 176.0, 0.0, 0.0, 0.0, 1.730919601092507E9, 0.0, 2024-11-06 16:00:01.092
33.0, -8999.728739229291, -8222.715046729452, -6624.9900013196475, -6674.163839121323, -5601.883602366877, -8135.833816031673, -9378.121421113185, -8205.750072687873, 0.06, 0.9480000000000001, 0.31, 192.0, 0.0, 0.0, 0.0, 0.0, 0.0, 0.0, 0.0, 0.0, 0.0, 1.7309196010954633E9, 0.0, 2024-11-06 16:00:01.095
34.0, -9010.301114356651, -8232.01337242286, -6627.605155420918, -6682.255170614144, -5595.736872641668, -8131.765798540807, -9368.75604018641, -8209.10283435617, 0.06, 0.9480000000000001, 0.31, 192.0, 0.0, 0.0, 0.0, 0.0, 0.0, 0.0, 0.0, 0.0, 0.0, 1.7309196010994618E9, 0.0, 2024-11-06 16:00:01.099
35.0, -9041.21357693834, -8262.814076282273, -6656.550664490541, -6667.391260551365, -5574.525067153581, -8139.27598467779, -9369.225426819972, -8196.921133628028, 0.06, 0.9480000000000001, 0.31, 192.0, 0.0, 0.0, 0.0, 0.0, 0.0, 0.0, 0.0, 0.0, 0.0, 1.7309196011033678E9, 0.0, 2024-11-06 16:00:01.103
36.0, -9037.21261468084, -8260.198922181002, -6660.50692325913, -6659.501094758642, -5580.470631178693, -8147.032040003782, -9381.161258359107, -8194.216572548936, 0.06, 0.9480000000000001, 0.31, 192.0, 0.0, 0.0, 0.0, 0.0, 0.0, 0.0, 0.0, 0.0, 0.0, 1.7309196011085413E9, 0.0, 2024-11-06 16:00:01.108
37.0, -9002.96974217531, -8226.559546775765, -6630.1532542888235, -6670.744022219661, -5600.0507593215425, -8138.806598044229, -9380.334243814259, -8203.649008709075, 0.06, 0.9480000000000001, 0.31, 192.0, 0.0, 0.0, 0.0, 0.0, 0.0, 0.0, 0.0, 0.0, 0.0, 1.7309196011125336E9, 0.0, 2024-11-06 16:00:01.112
38.0, -9002.299189841651, -8224.72670373043, -6622.240736751644, -6679.863533957427, -5596.116852297408, -8130.536452595766, -9368.063136108296, -8207.471157010932, 0.06, 0.9480000000000001, 0.31, 192.0, 0.0, 0.0, 0.0, 0.0, 0.0, 0.0, 0.0, 0.0, 0.0, 1.7309196011154668E9, 0.0, 2024-11-06 16:00:01.115
39.0, -9032.921079745422, -8254.566282578264, -6648.436981253265, -6665.98310065068, -5572.133430496863, -8134.1350834530695, -9364.084525595252, -8195.28945628279, 0.06, 0.9480000000000001, 0.31, 192.0, 0.0, 0.0, 0.0, 0.0, 0.0, 0.0, 0.0, 0.0, 0.0, 1.7309196011194663E9, 0.0, 2024-11-06 16:00:01.119
40.0, -9038.687829814891, -8261.361212892678, -6661.043365126057, -6656.1036296014345, -5574.256846220118, -8144.215720202414, -9376.825019934777, -8190.975569602915, 0.06, 0.9480000000000001, 0.31, 192.0, 0.0, 0.0, 0.0, 0.0, 0.0, 0.0, 0.0, 0.0, 0.0, 1.730919601123548E9, 0.0, 2024-11-06 16:00:01.123
41.0, -9009.339989345073, -8233.19801487899, -6636.769370647594, -6669.402917552343, -5599.648427921346, -8143.209891701925, -9383.530543271369, -8203.581953475708, 0.06, 0.9480000000000001, 0.31, 192.0, 0.0, 0.0, 0.0, 0.0, 0.0, 0.0, 0.0, 0.0, 0.0, 1.7309196011275427E9, 0.0, 2024-11-06 16:00:01.127
42.0, -9001.561582274626, -8224.324372330233, -6622.64306815184, -6682.433984569787, -5602.822375634, -8134.336249153167, -9373.136982099652, -8210.823918679229, 0.064, 0.9560000000000001, 0.314, 192.0, 2.0, 0.0, 29.0, 224.0, 9.0, 208.0, 0.0, 0.0, 0.0, 1.730919601131343E9, 0.0, 2024-11-06 16:00:01.131
43.0, -9031.088236700087, -8252.465218599466, -6646.470027741198, -6671.973368164703, -5579.017767789098, -8135.94557475395, -9366.52086574088, -8200.117433085135, 0.064, 0.9560000000000001, 0.314, 192.0, 0.0, 0.0, 0.0, 0.0, 0.0, 0.0, 0.0, 0.0, 0.0, 1.7309196011364005E9, 0.0, 2024-11-06 16:00:01.136
44.0, -9043.69462057288, -8266.077430972748, -6664.5525890055405, -6658.048231369046, -5573.3404246974505, -8145.601528358642, -9376.914426912597, -8191.914342870038, 0.064, 0.9560000000000001, 0.314, 192.0, 0.0, 0.0, 0.0, 0.0, 0.0, 0.0, 0.0, 0.0, 0.0, 1.7309196011394584E9, 0.0, 2024-11-06 16:00:01.139
45.0, -9016.425492337405, -8240.328221360234, -6644.346612017944, -6667.279501829088, -5597.033273820076, -8145.825045803195, -9385.81042120581, -8202.19614531948, 0.064, 0.9560000000000001, 0.314, 192.0, 0.0, 0.0, 0.0, 0.0, 0.0, 0.0, 0.0, 0.0, 0.0, 1.7309196011425593E9, 0.0, 2024-11-06 16:00:01.142
46.0, -9000.376939818494, -8223.385599063111, -6624.185338519256, -6682.32222584751, -5605.72810241319, -8135.789112542762, -9376.75796470141, -8211.516822757343, 0.064, 0.9560000000000001, 0.314, 192.0, 0.0, 0.0, 0.0, 0.0, 0.0, 0.0, 0.0, 0.0, 0.0, 1.730919601149924E9, 0.0, 2024-11-06 16:00:01.149
47.0, -9022.706332529347, -8244.284480128823, -6639.78685614906, -6672.308644331532, -5581.141183512353, -8131.542281096254, -9364.509208739903, -8199.938619129494, 0.064, 0.9560000000000001, 0.314, 192.0, 0.0, 0.0, 0.0, 0.0, 0.0, 0.0, 0.0, 0.0, 0.0, 1.7309196011513507E9, 0.0, 2024-11-06 16:00:01.151
48.0, -9041.258280427252, -8263.954015249494, -6662.9656151492145, -6656.170684834801, -5570.010014773609, -8141.265289934313, -9372.645243721634, -8189.254485279857, 0.064, 0.9560000000000001, 0.314, 192.0, 0.0, 0.0, 0.0, 0.0, 0.0, 0.0, 0.0, 0.0, 0.0, 1.7309196011554232E9, 0.0, 2024-11-06 16:00:01.155
49.0, -9019.241812138775, -8243.524520817342, -6649.286347542567, -6662.295062815555, -5592.384110973372, -8144.662755091519, -9384.178743860573, -8197.524630728321, 0.064, 0.9560000000000001, 0.314, 192.0, 0.0, 0.0, 0.0, 0.0, 0.0, 0.0, 0.0, 0.0, 0.0, 1.7309196011594455E9, 0.0, 2024-11-06 16:00:01.159
50.0, -8999.169945617909, -8222.916212429549, -6626.018181564592, -6680.645845013362, -5608.63382919238, -8136.504368365332, -9378.881380424666, -8210.555697745765, 0.064, 0.9560000000000001, 0.314, 192.0, 0.0, 0.0, 0.0, 0.0, 0.0, 0.0, 0.0, 0.0, 0.0, 1.730919601164452E9, 0.0, 2024-11-06 16:00:01.164
51.0, -9019.688847027881, -8241.803436494283, -6638.1998822927335, -6678.120097889912, -5589.992474316654, -8133.263365419312, -9367.973729130475, -8205.124223843124, 0.064, 0.9560000000000001, 0.314, 192.0, 0.0, 0.0, 0.0, 0.0, 0.0, 0.0, 0.0, 0.0, 0.0, 1.7309196011675084E9, 0.0, 2024-11-06 16:00:01.167
52.0, -9044.387524650994, -8267.105611217692, -6664.3737750498985, -6660.9763098926915, -5573.541590397548, -8142.226414945891, -9373.919293155586, -8192.76370915934, 0.08, 0.9560000000000001, 0.316, 192.0, 2.0, 128.0, 29.0, 224.0, 9.0, 224.0, 0.0, 0.0, 0.0, 1.7309196011705449E9, 0.0, 2024-11-06 16:00:01.170
53.0, -9026.439073853382, -8250.945299976504, -6654.539007489563, -6660.46221977022, -5589.612494660913, -8146.0485632477485, -9385.139868872151, -8195.736491171896, 0.08, 0.9560000000000001, 0.316, 192.0, 0.0, 0.0, 0.0, 0.0, 0.0, 0.0, 0.0, 0.0, 0.0, 1.73091960117546E9, 0.0, 2024-11-06 16:00:01.175
54.0, -8999.102890384542, -8223.475006040931, -6626.711085642706, -6677.628359511896, -5608.700884425746, -8137.912528266017, -9381.89886592613, -8208.611095978153, 0.08, 0.9560000000000001, 0.316, 192.0, 0.0, 0.0, 0.0, 0.0, 0.0, 0.0, 0.0, 0.0, 0.0, 1.7309196011795516E9, 0.0, 2024-11-06 16:00:01.179
55.0, -9015.73258825929, -8238.271860870345, -6634.60125143543, -6682.299874103055, -5597.390901731361, -8134.872691020095, -9372.466429765991, -8209.14753784508, 0.08, 0.9560000000000001, 0.316, 192.0, 0.0, 0.0, 0.0, 0.0, 0.0, 0.0, 0.0, 0.0, 0.0, 1.730919601183458E9, 0.0, 2024-11-06 16:00:01.183
56.0, -9045.281594429207, -8267.329128662244, -6663.591463993963, -6665.670176228306, -5576.9837590436655, -8143.165188213014, -9375.14863910063, -8196.474098738921, 0.08, 0.9560000000000001, 0.316, 192.0, 0.0, 0.0, 0.0, 0.0, 0.0, 0.0, 0.0, 0.0, 0.0, 1.73091960118755E9, 0.0, 2024-11-06 16:00:01.187
57.0, -9036.005620480255, -8259.908349503083, -6662.9656151492145, -6662.384469793376, -5589.2548667496285, -8150.697726094452, -9388.604389262724, -8197.815203406239, 0.08, 0.9560000000000001, 0.316, 192.0, 0.0, 0.0, 0.0, 0.0, 0.0, 0.0, 0.0, 0.0, 0.0, 1.7309196011913707E9, 0.0, 2024-11-06 16:00:01.191
58.0, -9002.030968908188, -8226.045456653292, -6630.64499266684, -6674.99085366617, -5607.963276858721, -8139.946537011449, -9383.99992990493, -8207.091177355192, 0.08, 0.9560000000000001, 0.316, 192.0, 0.0, 0.0, 0.0, 0.0, 0.0, 0.0, 0.0, 0.0, 0.0, 1.7309196011965911E9, 0.0, 2024-11-06 16:00:01.196
59.0, -9006.478966054794, -8228.526500287831, -6626.778140876072, -6679.4612025572305, -5597.592067431458, -8130.827025273684, -9369.42659252007, -8206.398273277078, 0.08, 0.9560000000000001, 0.316, 192.0, 0.0, 0.0, 0.0, 0.0, 0.0, 0.0, 0.0, 0.0, 0.0, 1.7309196011994772E9, 0.0, 2024-11-06 16:00:01.199
60.0, -9037.391428636483, -8258.723707046951, -6654.874283656393, -6663.189132593767, -5573.452183419727, -8136.3032026652345, -9367.481990752458, -8192.584895203698, 0.08, 0.9560000000000001, 0.316, 192.0, 0.0, 0.0, 0.0, 0.0, 0.0, 0.0, 0.0, 0.0, 0.0, 1.7309196012035537E9, 0.0, 2024-11-06 16:00:01.203
61.0, -9034.038666968187, -8257.427305868543, -6659.568149992007, -6653.466123755708, -5577.542552655048, -8143.433409146477, -9378.590807746747, -8188.226305034913, 0.08, 0.9560000000000001, 0.316, 192.0, 0.0, 0.0, 0.0, 0.0, 0.0, 0.0, 0.0, 0.0, 0.0, 1.7309196012074485E9, 0.0, 2024-11-06 16:00:01.207
62.0, -9002.478003797294, -8226.827767709228, -6632.12020780089, -6668.330033818488, -5602.218878533707, -8138.761894555319, -9381.675348481578, -8200.877392396616, 0.094, 0.964, 0.318, 192.0, 2.0, 240.0, 30.0, 32.0, 9.0, 240.0, 0.0, 0.0, 0.0, 1.7309196012126324E9, 0.0, 2024-11-06 16:00:01.212
63.0, -9000.44399505186, -8223.095026385192, -6622.97834431867, -6678.835353712482, -5599.782538388078, -8130.0223624732935, -9370.164200087094, -8205.660665710053, 0.094, 0.964, 0.318, 192.0, 0.0, 0.0, 0.0, 0.0, 0.0, 0.0, 0.0, 0.0, 0.0, 1.7309196012164264E9, 0.0, 2024-11-06 16:00:01.216
64.0, -9029.83653901059, -8251.749962776896, -6647.542911475052, -6663.345594804954, -5572.982796786166, -8131.654039818531, -9364.106877339707, -8191.735528914396, 0.094, 0.964, 0.318, 192.0, 0.0, 0.0, 0.0, 0.0, 0.0, 0.0, 0.0, 0.0, 0.0, 1.7309196012195797E9, 0.0, 2024-11-06 16:00:01.219
65.0, -9035.603289080058, -8259.126038447146, -6660.193998836756, -6650.806266165527, -5571.8205060744895, -8141.04177248976, -9375.461563523002, -8185.186467788991, 0.094, 0.964, 0.318, 192.0, 0.0, 0.0, 0.0, 0.0, 0.0, 0.0, 0.0, 0.0, 0.0, 1.7309196012234125E9, 0.0, 2024-11-06 16:00:01.223
66.0, -9005.271971854207, -8230.113474144158, -6635.674135169284, -6663.2561878271335, -5597.189736031263, -8139.365391655611, -9382.14473511514, -8197.032892350304, 0.094, 0.964, 0.318, 192.0, 0.0, 0.0, 0.0, 0.0, 0.0, 0.0, 0.0, 0.0, 0.0, 1.7309196012265775E9, 0.0, 2024-11-06 16:00:01.226
67.0, -8993.850230437545, -8217.708255971464, -6617.703332627218, -6675.840219955471, -5599.804890132534, -8128.480092105877, -9370.43242102056, -8203.62665696462, 0.094, 0.964, 0.318, 192.0, 0.0, 0.0, 0.0, 0.0, 0.0, 0.0, 0.0, 0.0, 0.0, 1.7309196012306027E9, 0.0, 2024-11-06 16:00:01.230
68.0, -9023.890974985477, -8246.050267940793, -6640.904443371826, -6665.93839716177, -5575.687357865258, -8129.955307239928, -9363.659842450601, -8193.76953765983, 0.094, 0.964, 0.318, 192.0, 0.0, 0.0, 0.0, 0.0, 0.0, 0.0, 0.0, 0.0, 0.0, 1.7309196012385547E9, 0.0, 2024-11-06 16:00:01.238
69.0, -9038.55371934816, -8261.629433826141, -6660.931606403781, -6651.275652799089, -5569.630035117869, -8140.192406200458, -9374.120458855685, -8185.231171277902, 0.094, 0.964, 0.318, 192.0, 0.0, 0.0, 0.0, 0.0, 0.0, 0.0, 0.0, 0.0, 0.0, 1.7309196012415893E9, 0.0, 2024-11-06 16:00:01.241
70.0, -9011.910439957433, -8236.48372131392, -6640.993850349647, -6660.350461047943, -5594.105195296431, -8141.04177248976, -9383.709357227011, -8195.021235349326, 0.094, 0.964, 0.318, 192.0, 0.0, 0.0, 0.0, 0.0, 0.0, 0.0, 0.0, 0.0, 0.0, 1.7309196012455535E9, 0.0, 2024-11-06 16:00:01.245
71.0, -8994.341968815563, -8217.931773416016, -6619.402065205821, -6676.823696711504, -5604.118776812408, -8131.743446796352, -9375.305101311815, -8205.303037798767, 0.094, 0.964, 0.318, 192.0, 0.0, 0.0, 0.0, 0.0, 0.0, 0.0, 0.0, 0.0, 0.0, 1.7309196012485447E9, 0.0, 2024-11-06 16:00:01.248
72.0, -9021.432283095393, -8243.189244650514, -6638.9598416042145, -6672.018071653613, -5583.041081791053, -8131.4305223739775, -9367.124362841174, -8198.821031906728, 0.108, 0.964, 0.32, 192.0, 3.0, 96.0, 30.0, 32.0, 10.0, 0.0, 0.0, 0.0, 0.0, 1.730919601251508E9, 0.0, 2024-11-06 16:00:01.251
73.0, -9042.577033350115, -8264.512808860876, -6662.719745960206, -6654.360193533921, -5568.981834528665, -8140.639441089564, -9374.232217577961, -8186.929903856505, 0.108, 0.964, 0.32, 192.0, 0.0, 0.0, 0.0, 0.0, 0.0, 0.0, 0.0, 0.0, 0.0, 1.7309196012544367E9, 0.0, 2024-11-06 16:00:01.254
74.0, -9020.493509828271, -8243.971555706448, -6648.593443464451, -6658.607024980429, -5589.657198149825, -8143.768685313307, -9384.893999683143, -8193.367206259634, 0.108, 0.964, 0.32, 192.0, 0.0, 0.0, 0.0, 0.0, 0.0, 0.0, 0.0, 0.0, 0.0, 1.7309196012586458E9, 0.0, 2024-11-06 16:00:01.258
75.0, -8995.21368684932, -8218.892898427594, -6621.614887906896, -6675.41553681082, -5604.744625657157, -8133.643345075053, -9377.450868779524, -8204.498374998377, 0.108, 0.964, 0.32, 192.0, 0.0, 0.0, 0.0, 0.0, 0.0, 0.0, 0.0, 0.0, 0.0, 1.73091960126354E9, 0.0, 2024-11-06 16:00:01.263
76.0, -9015.665533025925, -8238.338916103712, -6633.595422934941, -6674.834391454982, -5587.287913237562, -8131.1399496960585, -9366.878493652164, -8201.078558096715, 0.108, 0.964, 0.32, 192.0, 0.0, 0.0, 0.0, 0.0, 0.0, 0.0, 0.0, 0.0, 0.0, 1.7309196012675655E9, 0.0, 2024-11-06 16:00:01.267
77.0, -9043.247585683774, -8266.345651906211, -6662.272711071099, -6657.780010435583, -5569.630035117869, -8141.220586445402, -9372.734650699455, -8189.6568166800525, 0.108, 0.964, 0.32, 192.0, 0.0, 0.0, 0.0, 0.0, 0.0, 0.0, 0.0, 0.0, 0.0, 1.7309196012715728E9, 0.0, 2024-11-06 16:00:01.271
78.0, -9026.282611642197, -8251.124113932146, -6654.091972600458, -6656.260091812622, -5585.29860798104, -8145.601528358642, -9384.089336882751, -8191.981398103404, 0.108, 0.964, 0.32, 192.0, 0.0, 0.0, 0.0, 0.0, 0.0, 0.0, 0.0, 0.0, 0.0, 1.730919601274551E9, 0.0, 2024-11-06 16:00:01.274
79.0, -8996.30892232763, -8221.262183339857, -6623.73830363015, -6673.202714109745, -5605.3928262463605, -8136.526720109788, -9379.99896764743, -8204.00663662036, 0.108, 0.964, 0.32, 192.0, 0.0, 0.0, 0.0, 0.0, 0.0, 0.0, 0.0, 0.0, 0.0, 1.7309196012784944E9, 0.0, 2024-11-06 16:00:01.278
80.0, -9008.870602711511, -8231.454578811477, -6626.800492620528, -6676.108440888935, -5591.19946851724, -8129.932955495472, -9367.437287263547, -8202.799642419774, 0.108, 0.964, 0.32, 192.0, 0.0, 0.0, 0.0, 0.0, 0.0, 0.0, 0.0, 0.0, 0.0, 1.730919601282651E9, 0.0, 2024-11-06 16:00:01.282
81.0, -9040.341858904583, -8262.411744882076, -6657.176513335289, -6659.925777903292, -5569.227703717674, -8138.918356766505, -9370.879455909664, -8191.489659725387, 0.108, 0.964, 0.32, 192.0, 0.0, 0.0, 0.0, 0.0, 0.0, 0.0, 0.0, 0.0, 0.0, 1.730919601286477E9, 0.0, 2024-11-06 16:00:01.286
82.0, -9031.959954733844, -8256.086201201226, -6657.422382524298, -6655.2766150565885, -5580.045948034042, -8146.786170814774, -9384.446964794037, -8191.847287636672, 0.11800000000000001, 0.962, 0.318, 192.0, 3.0, 176.0, 30.0, 16.0, 9.0, 240.0, 0.0, 0.0, 0.0, 1.7309196012925181E9, 0.0, 2024-11-06 16:00:01.292
83.0, -9000.622809007504, -8225.978401419927, -6628.499225199131, -6672.867437942915, -5604.29759076805, -8140.840606789662, -9384.983406660964, -8205.593610476686, 0.11800000000000001, 0.962, 0.318, 192.0, 0.0, 0.0, 0.0, 0.0, 0.0, 0.0, 0.0, 0.0, 0.0, 1.7309196012954726E9, 0.0, 2024-11-06 16:00:01.295
84.0, -9005.629599765492, -8229.264107854857, -6624.878242597371, -6681.0481764135575, -5596.921515097799, -8133.03984797476, -9372.846409421732, -8208.365226789145, 0.11800000000000001, 0.962, 0.318, 192.0, 0.0, 0.0, 0.0, 0.0, 0.0, 0.0, 0.0, 0.0, 0.0, 1.730919601300558E9, 0.0, 2024-11-06 16:00:01.300
85.0, -9035.491530357782, -8258.120209946657, -6650.873321398893, -6662.429173282287, -5569.518276395593, -8135.94557475395, -9368.800743675321, -8193.322502770723, 0.11800000000000001, 0.962, 0.318, 192.0, 0.0, 0.0, 0.0, 0.0, 0.0, 0.0, 0.0, 0.0, 0.0, 1.7309196013075333E9, 0.0, 2024-11-06 16:00:01.307
86.0, -9032.36228613404, -8256.712050045973, -6655.902463901337, -6649.889844642859, -5571.261712463107, -8141.6452695900525, -9378.43434553556, -8186.482868967399, 0.11800000000000001, 0.962, 0.318, 192.0, 0.0, 0.0, 0.0, 0.0, 0.0, 0.0, 0.0, 0.0, 0.0, 1.7309196013105617E9, 0.0, 2024-11-06 16:00:01.310
87.0, -9000.421643307405, -8225.553718275276, -6627.895728098837, -6664.262016327622, -5596.653294164335, -8136.280850920779, -9381.00479614792, -8198.150479573069, 0.11800000000000001, 0.962, 0.318, 192.0, 0.0, 0.0, 0.0, 0.0, 0.0, 0.0, 0.0, 0.0, 0.0, 1.7309196013145227E9, 0.0, 2024-11-06 16:00:01.314
88.0, -8998.16411711742, -8222.312715329255, -6618.172719260779, -6677.851876956449, -5597.457956964727, -8129.061237461715, -9370.43242102056, -8205.526555243321, 0.11800000000000001, 0.962, 0.318, 192.0, 0.0, 0.0, 0.0, 0.0, 0.0, 0.0, 0.0, 0.0, 0.0, 1.730919601317525E9, 0.0, 2024-11-06 16:00:01.317
89.0, -9028.942469232377, -8252.196997666002, -6643.8325218954715, -6663.993795394158, -5571.1723054852855, -8131.98931598536, -9365.537388984847, -8193.389558004088, 0.11800000000000001, 0.962, 0.318, 192.0, 0.0, 0.0, 0.0, 0.0, 0.0, 0.0, 0.0, 0.0, 0.0, 1.730919601320609E9, 0.0, 2024-11-06 16:00:01.320
90.0, -9038.352553648061, -8262.456448370987, -6659.992833136658, -6651.298004543544, -5569.562979884503, -8142.1146562236145, -9378.099069368729, -8186.795793389773, 0.11800000000000001, 0.962, 0.318, 192.0, 0.0, 0.0, 0.0, 0.0, 0.0, 0.0, 0.0, 0.0, 0.0, 1.730919601323678E9, 0.0, 2024-11-06 16:00:01.323
91.0, -9009.697617256357, -8235.232023624423, -6638.088123570457, -6664.776106450094, -5597.1226807978965, -8141.555862612232, -9386.57038051729, -8198.821031906728, 0.11800000000000001, 0.962, 0.318, 192.0, 0.0, 0.0, 0.0, 0.0, 0.0, 0.0, 0.0, 0.0, 0.0, 1.7309196013276107E9, 0.0, 2024-11-06 16:00:01.327
92.0, -8996.286570583174, -8220.681037984019, -6619.446768694731, -6678.969464179214, -5601.905954111333, -8131.005839229327, -9375.483915267458, -8206.53238374381, 0.11800000000000001, 0.962, 0.318, 192.0, 0.0, 0.0, 0.0, 0.0, 0.0, 0.0, 0.0, 0.0, 0.0, 1.7309196013305967E9, 0.0, 2024-11-06 16:00:01.330
93.0, -9025.12032093052, -8247.838407497216, -6640.055077082525, -6668.978234407692, -5576.469668921193, -8132.212833429913, -9367.861970408198, -8197.614037706142, 0.116, 0.9540000000000001, 0.314, 192.0, 3.0, 160.0, 29.0, 208.0, 9.0, 208.0, 0.0, 0.0, 0.0, 1.7309196013346317E9, 0.0, 2024-11-06 16:00:01.334
94.0, -9042.375867650017, -8266.54681760631, -6654.583710978474, -6651.946205132748, -5567.059584505509, -8142.204063201436, -9377.47322052398, -8187.801621890262, 0.116, 0.9540000000000001, 0.314, 192.0, 0.0, 0.0, 0.0, 0.0, 0.0, 0.0, 0.0, 0.0, 0.0, 1.7309196013386316E9, 0.0, 2024-11-06 16:00:01.338
95.0, -9016.492547570771, -8241.557567305275, -6631.762579889605, -6659.098763358446, -5590.551267928036, -8142.718153323907, -9386.592732261746, -8195.423566749521, 0.116, 0.9540000000000001, 0.314, 192.0, 0.0, 0.0, 0.0, 0.0, 0.0, 0.0, 0.0, 0.0, 0.0, 1.7309196013425786E9, 0.0, 2024-11-06 16:00:01.342
96.0, -8997.851192695045, -8221.776273462328, -6609.544945901031, -6677.60600776744, -5604.118776812408, -8134.51506310881, -9379.842505436243, -8207.42645352202, 0.116, 0.9540000000000001, 0.314, 192.0, 0.0, 0.0, 0.0, 0.0, 0.0, 0.0, 0.0, 0.0, 0.0, 1.730919601347682E9, 0.0, 2024-11-06 16:00:01.347
97.0, -9021.07465518411, -8243.144541161602, -6624.878242597371, -6671.571036764507, -5581.3870527013605, -8132.2575369188235, -9369.225426819972, -8200.966799374437, 0.116, 0.9540000000000001, 0.314, 192.0, 0.0, 0.0, 0.0, 0.0, 0.0, 0.0, 0.0, 0.0, 0.0, 1.7309196013515716E9, 0.0, 2024-11-06 16:00:01.351
98.0, -9043.381696150505, -8266.25624492839, -6650.2698242986, -6653.60023422244, -5566.791363572045, -8141.712324823418, -9376.422688534582, -8190.372072502622, 0.116, 0.9540000000000001, 0.314, 192.0, 0.0, 0.0, 0.0, 0.0, 0.0, 0.0, 0.0, 0.0, 0.0, 1.7309196013558471E9, 0.0, 2024-11-06 16:00:01.355
99.0, -9022.907498229444, -8247.614890052664, -6637.618736936896, -6657.288272057566, -5587.53378242657, -8145.08743823617, -9388.00089216243, -8196.831726650205, 0.116, 0.9540000000000001, 0.314, 192.0, 0.0, 0.0, 0.0, 0.0, 0.0, 0.0, 0.0, 0.0, 0.0, 1.7309196013587563E9, 0.0, 2024-11-06 16:00:01.358
100.0, -8997.337102572574, -8222.066846140247, -6609.500242412119, -6675.661405999828, -5604.409349490327, -8136.102036965137, -9382.18943860405, -8209.952200645472, 0.116, 0.9540000000000001, 0.314, 192.0, 0.0, 0.0, 0.0, 0.0, 0.0, 0.0, 0.0, 0.0, 0.0, 1.7309196013625748E9, 0.0, 2024-11-06 16:00:01.362
101.0, -9013.78798649168, -8236.863700969661, -6617.390408204843, -6674.454411799242, -5585.544477170048, -8131.497577607343, -9370.164200087094, -8207.314694799745, 0.116, 0.9540000000000001, 0.314, 192.0, 0.0, 0.0, 0.0, 0.0, 0.0, 0.0, 0.0, 0.0, 0.0, 1.7309196013665962E9, 0.0, 2024-11-06 16:00:01.366
102.0, -9040.31950716013, -8263.68579431603, -6644.3019085290325, -6655.097801100946, -5564.556189126514, -8139.164225955514, -9373.516961755391, -8194.976531860415, 0.116, 0.9540000000000001, 0.314, 192.0, 0.0, 0.0, 0.0, 0.0, 0.0, 0.0, 0.0, 0.0, 0.0, 1.730919601370727E9, 0.0, 2024-11-06 16:00:01.370
103.0, -9027.802530265157, -8252.82284651075, -6639.853911382426, -6654.2707865561, -5580.895314323344, -8144.32747892469, -9386.078642139273, -8197.546982472775, 0.11, 0.9500000000000001, 0.31, 192.0, 3.0, 112.0, 29.0, 176.0, 9.0, 176.0, 0.0, 0.0, 0.0, 1.7309196013757224E9, 0.0, 2024-11-06 16:00:01.375
104.0, -8998.767614217713, -8224.078503141225, -6610.97545754617, -6673.046251898558, -5603.627038434392, -8137.197272443447, -9383.95522641602, -8210.488642512399, 0.11, 0.9500000000000001, 0.31, 192.0, 0.0, 0.0, 0.0, 0.0, 0.0, 0.0, 0.0, 0.0, 0.0, 1.7309196013797383E9, 0.0, 2024-11-06 16:00:01.379
105.0, -9008.11064340003, -8231.834558467217, -6611.288381968544, -6676.801344967049, -5591.043006306053, -8130.692914806952, -9371.102973354218, -8210.153366345568, 0.11, 0.9500000000000001, 0.31, 192.0, 0.0, 0.0, 0.0, 0.0, 0.0, 0.0, 0.0, 0.0, 0.0, 1.730919601382694E9, 0.0, 2024-11-06 16:00:01.382
106.0, -9037.614946081036, -8260.601253581197, -6638.624565437385, -6657.578844735485, -5565.71847983819, -8136.034981731771, -9370.52182799838, -8196.094119083182, 0.11, 0.9500000000000001, 0.31, 192.0, 0.0, 0.0, 0.0, 0.0, 0.0, 0.0, 0.0, 0.0, 0.0, 1.730919601386756E9, 0.0, 2024-11-06 16:00:01.386
107.0, -9030.171815177418, -8254.543930833808, -6639.049248582036, -6649.241644053655, -5572.871038063889, -8141.287641678768, -9380.893037425642, -8192.09315682568, 0.11, 0.9500000000000001, 0.31, 192.0, 0.0, 0.0, 0.0, 0.0, 0.0, 0.0, 0.0, 0.0, 0.0, 1.730919601390602E9, 0.0, 2024-11-06 16:00:01.390
108.0, -8999.147593873453, -8224.77140721934, -6610.997809290625, -6666.608949495429, -5597.949695342743, -8135.677353820486, -9381.831810692765, -8204.230154064913, 0.11, 0.9500000000000001, 0.31, 192.0, 0.0, 0.0, 0.0, 0.0, 0.0, 0.0, 0.0, 0.0, 0.0, 1.7309196013947556E9, 0.0, 2024-11-06 16:00:01.394
109.0, -8999.795794462658, -8224.81611070825, -6604.962838287693, -6675.527295533097, -5591.400634217338, -8128.770664783796, -9370.208903576005, -8207.761729688851, 0.11, 0.9500000000000001, 0.31, 192.0, 0.0, 0.0, 0.0, 0.0, 0.0, 0.0, 0.0, 0.0, 0.0, 1.7309196013986945E9, 0.0, 2024-11-06 16:00:01.398
110.0, -9031.73643728929, -8256.175608179046, -6633.506015957119, -6660.350461047943, -5566.344328682939, -8133.777455541785, -9368.800743675321, -8196.585857461198, 0.11, 0.9500000000000001, 0.31, 192.0, 0.0, 0.0, 0.0, 0.0, 0.0, 0.0, 0.0, 0.0, 0.0, 1.730919601403734E9, 0.0, 2024-11-06 16:00:01.403
111.0, -9036.430303624906, -8261.249454170402, -6642.871396883893, -6649.688678942762, -5569.138296739852, -8141.958194012427, -9380.490706025446, -8189.8356306356945, 0.11, 0.9500000000000001, 0.31, 192.0, 0.0, 0.0, 0.0, 0.0, 0.0, 0.0, 0.0, 0.0, 0.0, 1.7309196014077408E9, 0.0, 2024-11-06 16:00:01.407
112.0, -9007.618905022015, -8233.555642790276, -6617.725684371672, -6664.820809939005, -5595.222782519196, -8138.247804432846, -9385.00575840542, -8198.038720850793, 0.11, 0.9500000000000001, 0.31, 192.0, 0.0, 0.0, 0.0, 0.0, 0.0, 0.0, 0.0, 0.0, 0.0, 1.730919601410617E9, 0.0, 2024-11-06 16:00:01.410
113.0, -9001.919210185912, -8226.492491542398, -6605.543983643531, -6678.2318566121885, -5597.077977308986, -8130.268231662301, -9375.439211778548, -8202.218497063936, 0.116, 0.9460000000000001, 0.298, 192.0, 3.0, 160.0, 29.0, 144.0, 9.0, 80.0, 0.0, 0.0, 0.0, 1.7309196014146795E9, 0.0, 2024-11-06 16:00:01.414
114.0, -9033.435169867895, -8256.734401790429, -6630.555585689019, -6666.676004728795, -5572.893389808344, -8135.163263698014, -9372.28761581035, -8191.601418447664, 0.116, 0.9460000000000001, 0.298, 192.0, 0.0, 0.0, 0.0, 0.0, 0.0, 0.0, 0.0, 0.0, 0.0, 1.7309196014196925E9, 0.0, 2024-11-06 16:00:01.419
115.0, -9047.673231085924, -8272.06769848677, -6649.442809753753, -6655.477780756686, -5571.619340374392, -8147.747295826352, -9386.033938650364, -8185.655854422553, 0.116, 0.9460000000000001, 0.298, 192.0, 0.0, 0.0, 0.0, 0.0, 0.0, 0.0, 0.0, 0.0, 0.0, 1.730919601423673E9, 0.0, 2024-11-06 16:00:01.423
116.0, -9020.269992383719, -8245.714991773963, -6626.64403040934, -6665.692527972762, -5595.803927875034, -8144.103961480137, -9391.443060808548, -8191.981398103404, 0.116, 0.9460000000000001, 0.298, 192.0, 0.0, 0.0, 0.0, 0.0, 0.0, 0.0, 0.0, 0.0, 0.0, 1.7309196014288824E9, 0.0, 2024-11-06 16:00:01.428
117.0, -9006.009579421232, -8229.957011932971, -6606.214535977189, -6680.310568846532, -5601.794195389056, -8132.749275296841, -9380.155429858618, -8197.85990689515, 0.116, 0.9460000000000001, 0.298, 192.0, 0.0, 0.0, 0.0, 0.0, 0.0, 0.0, 0.0, 0.0, 0.0, 1.7309196014318404E9, 0.0, 2024-11-06 16:00:01.431
118.0, -9031.088236700087, -8253.024012210848, -6623.470082696686, -6670.118173374913, -5575.821468331989, -8131.832853774173, -9371.013566376396, -8188.494525968376, 0.116, 0.9460000000000001, 0.298, 192.0, 0.0, 0.0, 0.0, 0.0, 0.0, 0.0, 0.0, 0.0, 0.0, 1.7309196014358723E9, 0.0, 2024-11-06 16:00:01.435
119.0, -9048.41083865295, -8271.531256619843, -6643.609004450918, -6652.348536532943, -5563.975043770676, -8139.2983364222455, -9378.43434553556, -8177.497467696366, 0.116, 0.9460000000000001, 0.298, 192.0, 0.0, 0.0, 0.0, 0.0, 0.0, 0.0, 0.0, 0.0, 0.0, 1.730919601438684E9, 0.0, 2024-11-06 16:00:01.438
120.0, -9024.606230808047, -8249.224215653447, -6625.884071097859, -6657.93647264677, -5585.164497514307, -8137.644307332553, -9385.452793294526, -8181.833706120695, 0.116, 0.9460000000000001, 0.298, 192.0, 0.0, 0.0, 0.0, 0.0, 0.0, 0.0, 0.0, 0.0, 0.0, 1.7309196014428847E9, 0.0, 2024-11-06 16:00:01.442
121.0, -9007.060111410632, -8230.761674733361, -6603.711140598195, -6677.695414745262, -5599.8719453659, -8129.351810139634, -9379.32841531377, -8193.76953765983, 0.116, 0.9460000000000001, 0.298, 192.0, 0.0, 0.0, 0.0, 0.0, 0.0, 0.0, 0.0, 0.0, 0.0, 1.730919601446823E9, 0.0, 2024-11-06 16:00:01.446
122.0, -9028.40602736545, -8250.498265087399, -6616.742207615639, -6673.582693765485, -5578.637788133358, -8127.407208372022, -9369.42659252007, -8189.209781790946, 0.116, 0.9460000000000001, 0.298, 192.0, 0.0, 0.0, 0.0, 0.0, 0.0, 0.0, 0.0, 0.0, 0.0, 1.7309196014507463E9, 0.0, 2024-11-06 16:00:01.450
123.0, -9051.204806709864, -8273.341747920722, -6640.680925927273, -6654.203731322734, -5560.756392569112, -8135.319725909201, -9374.276921066872, -8176.916322340528, 0.12, 0.9440000000000001, 0.28600000000000003, 192.0, 3.0, 192.0, 29.0, 128.0, 8.0, 240.0, 0.0, 0.0, 0.0, 1.7309196014547713E9, 0.0, 2024-11-06 16:00:01.454
124.0, -9034.9327367464, -8258.231968668935, -6630.846158366938, -6656.12598134589, -5578.906009066822, -8137.443141632455, -9384.111688627207, -8178.883275852594, 0.12, 0.9440000000000001, 0.28600000000000003, 192.0, 0.0, 0.0, 0.0, 0.0, 0.0, 0.0, 0.0, 0.0, 0.0, 1.7309196014588234E9, 0.0, 2024-11-06 16:00:01.458
125.0, -9008.758843989235, -8232.080427656225, -6603.241753964634, -6673.448583298753, -5596.116852297408, -8127.0272287162825, -9377.38381354616, -8187.041662578781, 0.12, 0.9440000000000001, 0.28600000000000003, 192.0, 0.0, 0.0, 0.0, 0.0, 0.0, 0.0, 0.0, 0.0, 0.0, 1.730919601463766E9, 0.0, 2024-11-06 16:00:01.463
126.0, -9024.427416852406, -8246.25143364089, -6610.237849979145, -6675.370833321909, -5581.230590490173, -8124.5014815928325, -9367.906673897109, -8185.968778844926, 0.12, 0.9440000000000001, 0.28600000000000003, 192.0, 0.0, 0.0, 0.0, 0.0, 0.0, 0.0, 0.0, 0.0, 0.0, 1.7309196014667654E9, 0.0, 2024-11-06 16:00:01.466
127.0, -9055.898673045478, -8277.610931111685, -6640.345649760444, -6660.283405814577, -5562.812753059001, -8135.207967186924, -9374.18751408905, -8177.631578163097, 0.12, 0.9440000000000001, 0.28600000000000003, 192.0, 0.0, 0.0, 0.0, 0.0, 0.0, 0.0, 0.0, 0.0, 0.0, 1.7309196014709735E9, 0.0, 2024-11-06 16:00:01.470
128.0, -9047.114437474542, -8270.480724630443, -6638.60221369293, -6658.115286602412, -5575.754413098623, -8139.812426544718, -9385.877476439176, -8177.899799096561, 0.12, 0.9440000000000001, 0.28600000000000003, 192.0, 0.0, 0.0, 0.0, 0.0, 0.0, 0.0, 0.0, 0.0, 0.0, 1.7309196014748657E9, 0.0, 2024-11-06 16:00:01.474
129.0, -9018.481852827294, -8242.25047138339, -6611.221326735178, -6676.108440888935, -5597.189736031263, -8132.391647385556, -9383.619950249189, -8188.203953290457, 0.12, 0.9440000000000001, 0.28600000000000003, 192.0, 0.0, 0.0, 0.0, 0.0, 0.0, 0.0, 0.0, 0.0, 0.0, 1.7309196014788263E9, 0.0, 2024-11-06 16:00:01.478
130.0, -9024.628582552503, -8246.430247596532, -6609.053207523014, -6680.735251991183, -5586.170326014796, -8125.954344982428, -9371.438249521047, -8188.650988179564, 0.12, 0.9440000000000001, 0.28600000000000003, 192.0, 0.0, 0.0, 0.0, 0.0, 0.0, 0.0, 0.0, 0.0, 0.0, 1.7309196014848506E9, 0.0, 2024-11-06 16:00:01.484
131.0, -9053.819960811134, -8275.3534049217, -6634.9141758578035, -6662.920911660303, -5561.6057588584135, -8131.27406016279, -9371.482953009958, -8177.318653740723, 0.12, 0.9440000000000001, 0.28600000000000003, 192.0, 0.0, 0.0, 0.0, 0.0, 0.0, 0.0, 0.0, 0.0, 0.0, 1.7309196014879842E9, 0.0, 2024-11-06 16:00:01.487
132.0, -9050.757771820758, -8273.878189787649, -6639.183359048768, -6655.120152845401, -5567.90895079481, -8137.465493376911, -9382.725880470978, -8174.077650794703, 0.12, 0.9440000000000001, 0.28600000000000003, 192.0, 0.0, 0.0, 0.0, 0.0, 0.0, 0.0, 0.0, 0.0, 0.0, 1.7309196014918249E9, 0.0, 2024-11-06 16:00:01.491
133.0, -9022.952201718355, -8245.804398751783, -6613.568259902985, -6671.9510164202475, -5591.758262128623, -8131.27406016279, -9384.066985138295, -8184.582970688698, 0.112, 0.9540000000000001, 0.27, 192.0, 3.0, 128.0, 29.0, 208.0, 8.0, 112.0, 0.0, 0.0, 0.0, 1.7309196014948263E9, 0.0, 2024-11-06 16:00:01.494
134.0, -9022.84044299608, -8243.703334772985, -6606.214535977189, -6682.4563363142415, -5587.690244637757, -8124.903812993028, -9373.80753443331, -8190.014444591337, 0.112, 0.9540000000000001, 0.27, 192.0, 0.0, 0.0, 0.0, 0.0, 0.0, 0.0, 0.0, 0.0, 0.0, 1.7309196014977856E9, 0.0, 2024-11-06 16:00:01.497
135.0, -9050.064867742643, -8270.570131608263, -6628.990963577147, -6665.871341928404, -5560.644633846836, -8127.541318838754, -9370.231255320461, -8179.486772952888, 0.112, 0.9540000000000001, 0.27, 192.0, 0.0, 0.0, 0.0, 0.0, 0.0, 0.0, 0.0, 0.0, 0.0, 1.7309196015028324E9, 0.0, 2024-11-06 16:00:01.502
136.0, -9051.808303810156, -8273.453506642998, -6637.395219492343, -6651.387411521365, -5558.364755912395, -8132.190481685458, -9378.054365879818, -8171.350737971156, 0.112, 0.9540000000000001, 0.27, 192.0, 0.0, 0.0, 0.0, 0.0, 0.0, 0.0, 0.0, 0.0, 0.0, 1.7309196015070012E9, 0.0, 2024-11-06 16:00:01.507
137.0, -9025.857928497546, -8248.598366808697, -6616.473986682176, -6667.100687873446, -5585.455070192226, -8130.111769451114, -9383.441136293548, -8182.057223565248, 0.112, 0.9540000000000001, 0.27, 192.0, 0.0, 0.0, 0.0, 0.0, 0.0, 0.0, 0.0, 0.0, 0.0, 1.7309196015108364E9, 0.0, 2024-11-06 16:00:01.510
