%OpenBCI Raw EXG Data
%Number of channels = 8
%Sample Rate = 250 Hz
%Board = OpenBCI_GUI$BoardCytonSerial
Sample Index, EXG Channel 0, EXG Channel 1, EXG Channel 2, EXG Channel 3, EXG Channel 4, EXG Channel 5, EXG Channel 6, EXG Channel 7, Accel Channel 0, Accel Channel 1, Accel Channel 2, Not Used, Digital Channel 0 (D11), Digital Channel 1 (D12), Digital Channel 2 (D13), Digital Channel 3 (D17), Not Used, Digital Channel 4 (D18), Analog Channel 0, Analog Channel 1, Analog Channel 2, Timestamp, Marker Channel, Timestamp (Formatted)
87.0, -8964.97177660129, -8266.479762372943, -6582.275817665555, -6651.3427080324545, -5509.570897766459, -8005.63490457951, -9289.250885158883, -8052.0147743242715, 0.0, 0.0, 0.0, 192.0, 0.0, 0.0, 0.0, 0.0, 0.0, 0.0, 0.0, 0.0, 0.0, 1.730919631107187E9, 0.0, 2024-11-06 16:00:31.107
88.0, -8982.406137276428, -8284.651730615107, -6603.733492342651, -6635.920004358292, -5505.458176786683, -8016.654314595976, -9301.969027753954, -8043.4987596867995, 0.0, 0.0, 0.0, 192.0, 0.0, 0.0, 0.0, 0.0, 0.0, 0.0, 0.0, 0.0, 0.0, 1.7309196311072347E9, 0.0, 2024-11-06 16:00:31.107
89.0, -8950.823122361078, -8254.409820367076, -6579.25833216409, -6647.855835897427, -5530.737999765635, -8016.542555873699, -9310.038007502319, -8054.160541791981, 0.0, 0.0, 0.0, 192.0, 0.0, 0.0, 0.0, 0.0, 0.0, 0.0, 0.0, 0.0, 0.0, 1.730919631107268E9, 0.0, 2024-11-06 16:00:31.107
0.0, 0.0, 0.0, 0.0, 0.0, 0.0, 0.0, 0.0, 0.0, 0.0, 0.0, 0.0, 192.0, 0.0, 0.0, 0.0, 0.0, 0.0, 0.0, 0.0, 0.0, 0.0, 1.7309196311871238E9, 0.0, 2024-11-06 16:00:31.187
1.0, -8994.185506604375, -8419.455101425065, -6595.038663749536, -6662.9656151492145, -5486.995635866599, -8026.869061812051, -9291.866039260154, -8111.269248875291, -0.004, 0.974, 0.20600000000000002, 192.0, 255.0, 224.0, 30.0, 112.0, 6.0, 112.0, 0.0, 0.0, 0.0, 1.7309196312050736E9, 0.0, 2024-11-06 16:00:31.205
2.0, -9004.556716031637, -8430.809787608361, -6614.082350025457, -6651.856798154927, -5489.7001969456915, -8041.665916641465, -9308.74160632391, -8106.4636238174, -0.004, 0.974, 0.20600000000000002, 192.0, 0.0, 0.0, 0.0, 0.0, 0.0, 0.0, 0.0, 0.0, 0.0, 1.7309196312080722E9, 0.0, 2024-11-06 16:00:31.208
3.0, -8965.619977190492, -8392.677711567607, -6582.678149065751, -6667.41361229582, -5516.119958891864, -8039.296631729202, -9313.882507548631, -8120.545222824243, -0.004, 0.974, 0.20600000000000002, 192.0, 0.0, 0.0, 0.0, 0.0, 0.0, 0.0, 0.0, 0.0, 0.0, 1.7309196312113018E9, 0.0, 2024-11-06 16:00:31.211
4.0, -8952.767724128691, -8379.154906172145, -6562.114544166869, -6683.350406092454, -5519.360961837883, -8027.271393212247, -9300.538516108814, -8129.977658984382, -0.004, 0.974, 0.20600000000000002, 192.0, 0.0, 0.0, 0.0, 0.0, 0.0, 0.0, 0.0, 0.0, 0.0, 1.730919631215192E9, 0.0, 2024-11-06 16:00:31.215
5.0, -8990.430413535883, -8416.012932778947, -6591.194163703223, -6670.475801286198, -5493.745862692102, -8028.768960090752, -9294.302379405783, -8117.75125476733, -0.004, 0.974, 0.20600000000000002, 192.0, 0.0, 0.0, 0.0, 0.0, 0.0, 0.0, 0.0, 0.0, 0.0, 1.730919631218183E9, 0.0, 2024-11-06 16:00:31.218
6.0, -9007.820070722111, -8434.408418465664, -6615.825786092972, -6652.996737122147, -5487.1744498222415, -8041.375343963546, -9306.88641153412, -8107.067120917693, -0.004, 0.974, 0.20600000000000002, 192.0, 0.0, 0.0, 0.0, 0.0, 0.0, 0.0, 0.0, 0.0, 0.0, 1.730919631223051E9, 0.0, 2024-11-06 16:00:31.223
7.0, -8971.185561559863, -8398.869144781727, -6588.735471813139, -6662.228007582189, -5510.554374522492, -8040.2130532518695, -9313.435472659525, -8116.678371033475, -0.004, 0.974, 0.20600000000000002, 192.0, 0.0, 0.0, 0.0, 0.0, 0.0, 0.0, 0.0, 0.0, 0.0, 1.73091963122729E9, 0.0, 2024-11-06 16:00:31.227
8.0, -8947.649174648426, -8374.684557281083, -6559.454686576687, -6679.75177523515, -5518.846871715412, -8026.265564711758, -9300.158536453073, -8127.317801394201, -0.002, 0.984, 0.20400000000000001, 192.0, 255.0, 240.0, 30.0, 192.0, 6.0, 96.0, 0.0, 0.0, 0.0, 1.730919631231397E9, 0.0, 2024-11-06 16:00:31.231
9.0, -8978.11460234101, -8404.121804728724, -6579.660663564285, -6669.738193719172, -5493.254124314085, -8022.510471643266, -9288.557981080769, -8115.963115210905, -0.002, 0.984, 0.20400000000000001, 192.0, 0.0, 0.0, 0.0, 0.0, 0.0, 0.0, 0.0, 0.0, 0.0, 1.730919631234223E9, 0.0, 2024-11-06 16:00:31.234
10.0, -9003.528535786692, -8430.228642252523, -6609.187317989746, -6648.280519042078, -5478.792545651501, -8033.239308981813, -9297.521030607348, -8100.875687703573, -0.002, 0.984, 0.20400000000000001, 192.0, 0.0, 0.0, 0.0, 0.0, 0.0, 0.0, 0.0, 0.0, 0.0, 1.7309196312381732E9, 0.0, 2024-11-06 16:00:31.238
11.0, -8975.700613939836, -8403.317141928334, -6592.624675348363, -6655.008394123125, -5501.680731973735, -8038.223747995347, -9309.926248780042, -8109.458757574411, -0.002, 0.984, 0.20400000000000001, 192.0, 0.0, 0.0, 0.0, 0.0, 0.0, 0.0, 0.0, 0.0, 0.0, 1.730919631242236E9, 0.0, 2024-11-06 16:00:31.242
12.0, -8947.380953714963, -8374.66220553663, -6562.20395114469, -6678.388318823376, -5520.255031616096, -8029.3501054465905, -9304.472423132947, -8126.624897316086, -0.002, 0.984, 0.20400000000000001, 192.0, 0.0, 0.0, 0.0, 0.0, 0.0, 0.0, 0.0, 0.0, 0.0, 1.730919631246116E9, 0.0, 2024-11-06 16:00:31.246
13.0, -8971.67729993788, -8398.355054659254, -6576.173791429257, -6675.571999022008, -5500.451386028693, -8023.717465843853, -9292.715405549456, -8120.902850735528, -0.002, 0.984, 0.20400000000000001, 192.0, 0.0, 0.0, 0.0, 0.0, 0.0, 0.0, 0.0, 0.0, 0.0, 1.7309196312513115E9, 0.0, 2024-11-06 16:00:31.251
14.0, -9006.657780010437, -8433.871976598737, -6613.143576758334, -6655.880112156882, -5483.307598031473, -8036.010925294272, -9301.633751587124, -8107.044769173238, -0.002, 0.984, 0.20400000000000001, 192.0, 0.0, 0.0, 0.0, 0.0, 0.0, 0.0, 0.0, 0.0, 0.0, 1.730919631255135E9, 0.0, 2024-11-06 16:00:31.255
15.0, -8988.284646068174, -8416.638781623697, -6606.415701677287, -6657.511789502119, -5502.194822096208, -8044.214015509369, -9316.229440716439, -8112.3644843536, -0.002, 0.984, 0.20400000000000001, 192.0, 0.0, 0.0, 0.0, 0.0, 0.0, 0.0, 0.0, 0.0, 0.0, 1.7309196312581651E9, 0.0, 2024-11-06 16:00:31.258
16.0, -8952.901834595423, -8380.764231772928, -6571.0999454379025, -6679.327092090499, -5523.9207177067665, -8034.580413649132, -9311.13324298063, -8128.725961294886, -0.002, 0.984, 0.20400000000000001, 192.0, 0.0, 0.0, 0.0, 0.0, 0.0, 0.0, 0.0, 0.0, 0.0, 1.7309196312620862E9, 0.0, 2024-11-06 16:00:31.262
17.0, -8966.312881268606, -8393.102394712258, -6573.469230350164, -6680.08705140198, -5507.46983378766, -8024.030390266227, -9295.08469046172, -8125.127330437581, -0.002, 0.984, 0.20400000000000001, 192.0, 0.0, 0.0, 0.0, 0.0, 0.0, 0.0, 0.0, 0.0, 0.0, 1.7309196312662504E9, 0.0, 2024-11-06 16:00:31.266
18.0, -9003.103852642042, -8430.742732374994, -6608.06973076698, -6657.601196479941, -5482.905266631278, -8031.2947072142015, -9297.632789329624, -8107.335341851157, -0.004, 0.988, 0.198, 192.0, 255.0, 224.0, 30.0, 224.0, 6.0, 48.0, 0.0, 0.0, 0.0, 1.730919631270301E9, 0.0, 2024-11-06 16:00:31.270
19.0, -8992.039739136666, -8421.220889237034, -6607.287419711044, -6651.163894076812, -5493.4552900141825, -8039.989535807316, -9310.976780769442, -8105.815423228196, -0.004, 0.988, 0.198, 192.0, 0.0, 0.0, 0.0, 0.0, 0.0, 0.0, 0.0, 0.0, 0.0, 1.7309196312742212E9, 0.0, 2024-11-06 16:00:31.274
20.0, -8954.600567174026, -8383.737013785483, -6573.133954183335, -6674.029728654591, -5520.657363016291, -8034.625117138043, -9311.647333103101, -8124.2109089149135, -0.004, 0.988, 0.198, 192.0, 0.0, 0.0, 0.0, 0.0, 0.0, 0.0, 0.0, 0.0, 0.0, 1.7309196312791057E9, 0.0, 2024-11-06 16:00:31.279
21.0, -8960.568482943592, -8388.877915010204, -6568.82006750346, -6683.238647370177, -5513.348342579406, -8025.1256257445375, -9298.07982421873, -8127.809539772218, -0.004, 0.988, 0.198, 192.0, 0.0, 0.0, 0.0, 0.0, 0.0, 0.0, 0.0, 0.0, 0.0, 1.7309196312832155E9, 0.0, 2024-11-06 16:00:31.283
22.0, -9002.276838097196, -8430.496863185987, -6606.102777254913, -6665.2231413392, -5489.074348100942, -8032.680515370431, -9299.711501563967, -8113.213850642902, -0.004, 0.988, 0.198, 192.0, 0.0, 0.0, 0.0, 0.0, 0.0, 0.0, 0.0, 0.0, 0.0, 1.7309196312862606E9, 0.0, 2024-11-06 16:00:31.286
23.0, -9001.472175296805, -8430.653325397174, -6615.468158181687, -6653.086144099969, -5493.075310358442, -8042.5599864196765, -9313.837804059722, -8106.888306962051, -0.004, 0.988, 0.198, 192.0, 0.0, 0.0, 0.0, 0.0, 0.0, 0.0, 0.0, 0.0, 0.0, 1.7309196312902293E9, 0.0, 2024-11-06 16:00:31.290
24.0, -8960.121448054488, -8390.196667933067, -6580.621788575863, -6669.849952441448, -5518.623354270859, -8037.016753794761, -9315.357722682682, -8120.70168503543, -0.004, 0.988, 0.198, 192.0, 0.0, 0.0, 0.0, 0.0, 0.0, 0.0, 0.0, 0.0, 0.0, 1.7309196312940345E9, 0.0, 2024-11-06 16:00:31.294
25.0, -8953.706497395813, -8382.507667840442, -6564.72969826814, -6681.852839213949, -5516.119958891864, -8023.963335032861, -9299.487984119414, -8125.887289749061, -0.004, 0.988, 0.198, 192.0, 0.0, 0.0, 0.0, 0.0, 0.0, 0.0, 0.0, 0.0, 0.0, 1.7309196312980878E9, 0.0, 2024-11-06 16:00:31.298
26.0, -8992.039739136666, -8419.991543291992, -6595.4633468941865, -6663.993795394158, -5487.956760878177, -8025.393846678001, -9293.40830962757, -8109.615219785598, -0.004, 0.988, 0.198, 192.0, 0.0, 0.0, 0.0, 0.0, 0.0, 0.0, 0.0, 0.0, 0.0, 1.7309196313022096E9, 0.0, 2024-11-06 16:00:31.302
27.0, -9002.746224730758, -8431.81561610885, -6614.529384914564, -6648.146408575346, -5485.252199799085, -8037.508492172778, -9307.065225489763, -8100.473356303377, -0.004, 0.988, 0.198, 192.0, 0.0, 0.0, 0.0, 0.0, 0.0, 0.0, 0.0, 0.0, 0.0, 1.7309196313072903E9, 0.0, 2024-11-06 16:00:31.307
28.0, -8965.8658463795, -8395.561086602342, -6585.785041545038, -6662.920911660303, -5512.0072379120875, -8036.882643328028, -9313.904859293087, -8114.398493099034, -0.008, 0.98, 0.194, 192.0, 255.0, 192.0, 30.0, 160.0, 6.0, 16.0, 0.0, 0.0, 0.0, 1.7309196313113017E9, 0.0, 2024-11-06 16:00:31.311
29.0, -8949.504369438217, -8378.551409071852, -6561.8910267223155, -6679.505906046142, -5516.723455992157, -8024.432721666422, -9300.516164364359, -8124.277964148279, -0.008, 0.98, 0.194, 192.0, 0.0, 0.0, 0.0, 0.0, 0.0, 0.0, 0.0, 0.0, 0.0, 1.7309196313140364E9, 0.0, 2024-11-06 16:00:31.314
30.0, -8983.210800076818, -8411.94491528808, -6586.2544281786, -6665.558417506029, -5489.119051589853, -8023.091616999104, -9291.351949137683, -8110.688103519453, -0.008, 0.98, 0.194, 192.0, 0.0, 0.0, 0.0, 0.0, 0.0, 0.0, 0.0, 0.0, 0.0, 1.7309196313181076E9, 0.0, 2024-11-06 16:00:31.318
31.0, -9006.68013175489, -8436.375371977732, -6615.825786092972, -6649.331051031477, -5482.905266631278, -8038.894300329006, -9306.685245834024, -8101.546240037232, -0.008, 0.98, 0.194, 192.0, 0.0, 0.0, 0.0, 0.0, 0.0, 0.0, 0.0, 0.0, 0.0, 1.7309196313222108E9, 0.0, 2024-11-06 16:00:31.322
32.0, -8974.515971483705, -8405.038226251392, -6593.675207337762, -6659.568149992007, -5508.18508961023, -8042.02354455275, -9317.302324450293, -8112.565650053699, -0.008, 0.98, 0.194, 192.0, 0.0, 0.0, 0.0, 0.0, 0.0, 0.0, 0.0, 0.0, 0.0, 1.7309196313283458E9, 0.0, 2024-11-06 16:00:31.328
33.0, -8948.096209537533, -8377.970263716015, -6563.165076156268, -6678.142449634368, -5519.271554860063, -8028.187814734914, -9305.210030699973, -8124.546185081743, -0.008, 0.98, 0.194, 192.0, 0.0, 0.0, 0.0, 0.0, 0.0, 0.0, 0.0, 0.0, 0.0, 1.7309196313313298E9, 0.0, 2024-11-06 16:00:31.331
34.0, -8974.515971483705, -8403.607714606253, -6579.392442630821, -6668.039461140569, -5493.65645571428, -8021.392884420501, -9291.351949137683, -8112.655057031519, -0.008, 0.98, 0.194, 192.0, 0.0, 0.0, 0.0, 0.0, 0.0, 0.0, 0.0, 0.0, 0.0, 1.7309196313353064E9, 0.0, 2024-11-06 16:00:31.335
35.0, -9002.299189841651, -8431.681505642116, -6610.170794745779, -6645.330088773977, -5476.982054350621, -8031.473521169844, -9299.443280630503, -8096.159469623503, -0.008, 0.98, 0.194, 192.0, 0.0, 0.0, 0.0, 0.0, 0.0, 0.0, 0.0, 0.0, 0.0, 1.730919631339362E9, 0.0, 2024-11-06 16:00:31.339
36.0, -8978.20400931883, -8408.56980187533, -6597.095024239425, -6651.007431865625, -5499.736130206124, -8038.447265439901, -9313.36841742616, -8103.870821460584, -0.008, 0.98, 0.194, 192.0, 0.0, 0.0, 0.0, 0.0, 0.0, 0.0, 0.0, 0.0, 0.0, 1.7309196313421996E9, 0.0, 2024-11-06 16:00:31.342
37.0, -8948.453837448817, -8378.573760816307, -6565.512009324076, -6675.281426344089, -5520.9032322053, -8030.40063743599, -9308.27221969035, -8121.573403069187, -0.008, 0.98, 0.194, 192.0, 0.0, 0.0, 0.0, 0.0, 0.0, 0.0, 0.0, 0.0, 0.0, 1.7309196313462834E9, 0.0, 2024-11-06 16:00:31.346
38.0, -8970.9173406264, -8399.830269793305, -6576.374957129355, -6674.610874010429, -5503.2006505966965, -8024.58918387761, -9295.397614884092, -8117.058350689215, -0.008, 0.98, 0.194, 192.0, 0.0, 0.0, 30.0, 192.0, 6.0, 16.0, 0.0, 0.0, 0.0, 1.7309196313502629E9, 0.0, 2024-11-06 16:00:31.350
39.0, -9005.45078580985, -8434.564880676851, -6611.444844179731, -6651.677984199284, -5482.033548597521, -8033.842806082107, -9300.337350408716, -8099.713396991897, -0.008, 0.98, 0.194, 192.0, 0.0, 0.0, 0.0, 0.0, 0.0, 0.0, 0.0, 0.0, 0.0, 1.730919631354124E9, 0.0, 2024-11-06 16:00:31.354
40.0, -8986.54121000066, -8417.130520001712, -6604.336989442943, -6648.101705086435, -5496.22690632664, -8039.698963129397, -9312.876679048142, -8099.959266180906, -0.008, 0.98, 0.194, 192.0, 0.0, 0.0, 0.0, 0.0, 0.0, 0.0, 0.0, 0.0, 0.0, 1.730919631358248E9, 0.0, 2024-11-06 16:00:31.358
41.0, -8949.236148504753, -8379.624292805707, -6568.507143081087, -6670.118173374913, -5519.182147882241, -8030.802968836185, -9309.412158657571, -8116.387798355556, -0.008, 0.98, 0.194, 192.0, 0.0, 0.0, 0.0, 0.0, 0.0, 0.0, 0.0, 0.0, 0.0, 1.730919631362426E9, 0.0, 2024-11-06 16:00:31.362
42.0, -8961.507256210716, -8390.46488886653, -6569.647082048307, -6674.923798432804, -5506.888688431823, -8022.130491987526, -9295.17409743954, -8116.0525221887265, -0.008, 0.98, 0.194, 192.0, 0.0, 0.0, 0.0, 0.0, 0.0, 0.0, 0.0, 0.0, 0.0, 1.7309196313662264E9, 0.0, 2024-11-06 16:00:31.366
43.0, -9002.098024141553, -8431.770912619939, -6607.376826688866, -6655.008394123125, -5483.642874198303, -8031.629983381032, -9298.571562596746, -8100.808632470207, -0.008, 0.98, 0.194, 192.0, 0.0, 0.0, 0.0, 0.0, 0.0, 0.0, 0.0, 0.0, 0.0, 1.7309196313694801E9, 0.0, 2024-11-06 16:00:31.369
44.0, -8997.292399083663, -8428.373447462733, -6612.607134891407, -6648.8840161423705, -5494.2152493256635, -8043.699925386897, -9314.597763371201, -8100.182783625458, -0.008, 0.98, 0.194, 192.0, 0.0, 0.0, 0.0, 0.0, 0.0, 0.0, 0.0, 0.0, 0.0, 1.7309196313741848E9, 0.0, 2024-11-06 16:00:31.374
45.0, -8955.740506141246, -8386.866258009226, -6575.2126664176785, -6667.391260551365, -5518.2880781040285, -8036.145035761004, -9313.03314125933, -8114.89023147705, -0.008, 0.98, 0.194, 192.0, 0.0, 0.0, 0.0, 0.0, 0.0, 0.0, 0.0, 0.0, 0.0, 1.730919631378208E9, 0.0, 2024-11-06 16:00:31.378
46.0, -8958.378011986973, -8388.095603954269, -6567.478962836142, -6678.634188012385, -5513.66126700178, -8026.377323434034, -9299.331521908227, -8120.031132701771, -0.008, 0.98, 0.194, 192.0, 0.0, 0.0, 0.0, 0.0, 0.0, 0.0, 0.0, 0.0, 0.0, 1.7309196313821392E9, 0.0, 2024-11-06 16:00:31.382
47.0, -9000.73456772978, -8430.608621908263, -6604.225230720667, -6661.780972693083, -5489.163755078764, -8033.306364215179, -9299.26446667486, -8106.1954028839355, -0.008, 0.98, 0.194, 192.0, 0.0, 0.0, 0.0, 0.0, 0.0, 0.0, 0.0, 0.0, 0.0, 1.7309196313861291E9, 0.0, 2024-11-06 16:00:31.386
48.0, -9005.182564876386, -8436.487130700008, -6617.7703878605835, -6649.062830098013, -5491.443633013205, -8045.197492265403, -9313.569583126258, -8099.825155714173, -0.008, 0.98, 0.194, 192.0, 0.0, 0.0, 30.0, 192.0, 6.0, 16.0, 0.0, 0.0, 0.0, 1.7309196313902361E9, 0.0, 2024-11-06 16:00:31.390
49.0, -8963.697727167337, -8395.069348224324, -6582.58874208793, -6663.926740160792, -5515.874089702856, -8039.721314873853, -9315.156556982583, -8112.386836098056, -0.008, 0.98, 0.194, 192.0, 0.0, 0.0, 0.0, 0.0, 0.0, 0.0, 0.0, 0.0, 0.0, 1.730919631394344E9, 0.0, 2024-11-06 16:00:31.394
50.0, -8954.622918918481, -8384.452269608053, -6564.640291290319, -6678.745946734661, -5516.991676925621, -8027.4949106568, -9300.829088786733, -8120.254650146324, -0.008, 0.98, 0.194, 192.0, 0.0, 0.0, 0.0, 0.0, 0.0, 0.0, 0.0, 0.0, 0.0, 1.7309196313973083E9, 0.0, 2024-11-06 16:00:31.397
51.0, -8992.933808914877, -8422.293772970888, -6595.038663749536, -6663.323243060499, -5489.968417879155, -8028.903070557484, -9294.88352476162, -8106.105995906115, -0.008, 0.98, 0.194, 192.0, 0.0, 0.0, 0.0, 0.0, 0.0, 0.0, 0.0, 0.0, 0.0, 1.7309196314023826E9, 0.0, 2024-11-06 16:00:31.402
52.0, -9005.942524187867, -8436.420075466642, -6616.384579704354, -6645.084219584968, -5484.224019554141, -8039.7436666183075, -9307.154632467584, -8094.661902744998, -0.008, 0.98, 0.194, 192.0, 0.0, 0.0, 0.0, 0.0, 0.0, 0.0, 0.0, 0.0, 0.0, 1.7309196314062216E9, 0.0, 2024-11-06 16:00:31.406
53.0, -8970.023270848187, -8401.2831331829, -6590.054224736003, -6658.9199494028035, -5511.224926856152, -8040.816550352163, -9315.670647105057, -8108.140004651547, -0.008, 0.98, 0.194, 192.0, 0.0, 0.0, 0.0, 0.0, 0.0, 0.0, 0.0, 0.0, 0.0, 1.7309196314103243E9, 0.0, 2024-11-06 16:00:31.410
54.0, -8952.030116561666, -8382.194743418067, -6566.1155064243685, -6679.03651941258, -5520.836176971934, -8030.333582202624, -9304.673588833046, -8121.551051324732, -0.008, 0.98, 0.194, 192.0, 0.0, 0.0, 0.0, 0.0, 0.0, 0.0, 0.0, 0.0, 0.0, 1.7309196314141507E9, 0.0, 2024-11-06 16:00:31.414
55.0, -8984.998939633244, -8414.76123508945, -6589.473079380165, -6667.570074507007, -5494.952856892688, -8028.277221712736, -9294.615303828157, -8109.637571530053, -0.008, 0.98, 0.194, 192.0, 0.0, 0.0, 0.0, 0.0, 0.0, 0.0, 0.0, 0.0, 0.0, 1.7309196314182792E9, 0.0, 2024-11-06 16:00:31.418
56.0, -9008.803547478146, -8439.214043523556, -6618.195071005234, -6647.252338797133, -5483.218191053652, -8040.25775674078, -9305.45589988898, -8096.159469623503, -0.008, 0.98, 0.194, 192.0, 0.0, 0.0, 0.0, 0.0, 0.0, 0.0, 0.0, 0.0, 0.0, 1.73091963142233E9, 0.0, 2024-11-06 16:00:31.422
57.0, -8979.455707008328, -8410.894383298682, -6599.2184399626785, -6656.640071468362, -5508.341551821417, -8044.884567843029, -9317.212917472472, -8107.156527895514, -0.008, 0.98, 0.194, 192.0, 0.0, 0.0, 0.0, 0.0, 0.0, 0.0, 0.0, 0.0, 0.0, 1.7309196314252932E9, 0.0, 2024-11-06 16:00:31.425
58.0, -8952.991241573243, -8383.781717274394, -6568.641253547818, -6678.835353712482, -5524.166586895774, -8033.976916548839, -9308.071053990252, -8122.735693780863, 0.002, 0.986, 0.194, 192.0, 0.0, 16.0, 30.0, 208.0, 6.0, 16.0, 0.0, 0.0, 0.0, 1.7309196314303184E9, 0.0, 2024-11-06 16:00:31.430
59.0, -8979.209837819319, -8409.486223397997, -6583.907495010793, -6672.599217009451, -5501.300752317996, -8027.785483334718, -9294.771766039345, -8114.1749756544805, 0.002, 0.986, 0.194, 192.0, 0.0, 0.0, 0.0, 0.0, 0.0, 0.0, 0.0, 0.0, 0.0, 1.7309196314343405E9, 0.0, 2024-11-06 16:00:31.434
60.0, -9011.597515535059, -8442.790322636405, -6618.820919849983, -6651.722687688195, -5484.51459223206, -8039.4977974293, -9303.89127777711, -8099.646341758531, 0.002, 0.986, 0.194, 192.0, 0.0, 0.0, 0.0, 0.0, 0.0, 0.0, 0.0, 0.0, 0.0, 1.7309196314383025E9, 0.0, 2024-11-06 16:00:31.438
61.0, -8987.234114078774, -8419.164528747146, -6605.789852832539, -6652.4602952552195, -5502.440691285216, -8044.370477720557, -9315.60359187169, -8103.535545293755, 0.002, 0.986, 0.194, 192.0, 0.0, 0.0, 0.0, 0.0, 0.0, 0.0, 0.0, 0.0, 0.0, 1.7309196314422545E9, 0.0, 2024-11-06 16:00:31.442
62.0, -8950.107866538508, -8381.211266662034, -6568.104811680891, -6671.995719909159, -5520.2773833605515, -8031.629983381032, -9306.729949322933, -8116.968943711394, 0.002, 0.986, 0.194, 192.0, 0.0, 0.0, 0.0, 0.0, 0.0, 0.0, 0.0, 0.0, 0.0, 1.7309196314472947E9, 0.0, 2024-11-06 16:00:31.447
63.0, -8968.05631733612, -8397.639798836684, -6574.810335017483, -6672.263940842622, -5503.491223274616, -8023.672762354942, -9292.625998571635, -8113.146795409536, 0.002, 0.986, 0.194, 192.0, 0.0, 0.0, 0.0, 0.0, 0.0, 0.0, 0.0, 0.0, 0.0, 1.7309196314504063E9, 0.0, 2024-11-06 16:00:31.450
64.0, -9005.428434065394, -8435.302488243877, -6611.221326735178, -6650.515693487608, -5481.698272430691, -8033.596936893098, -9297.632789329624, -8096.740614979341, 0.002, 0.986, 0.194, 192.0, 0.0, 0.0, 0.0, 0.0, 0.0, 0.0, 0.0, 0.0, 0.0, 1.7309196314532597E9, 0.0, 2024-11-06 16:00:31.453
65.0, -8991.503297269737, -8422.606697393263, -6608.740283100639, -6646.715896930206, -5495.310484803973, -8042.4482276974, -9312.206126714484, -8097.567629524187, 0.002, 0.986, 0.194, 192.0, 0.0, 0.0, 0.0, 0.0, 0.0, 0.0, 0.0, 0.0, 0.0, 1.730919631457218E9, 0.0, 2024-11-06 16:00:31.457
66.0, -8953.170055528886, -8383.826420763306, -6572.619864060863, -6668.888827429871, -5520.255031616096, -8034.938041560417, -9310.216821457961, -8115.001990199326, 0.002, 0.986, 0.194, 192.0, 0.0, 0.0, 0.0, 0.0, 0.0, 0.0, 0.0, 0.0, 0.0, 1.7309196314622653E9, 0.0, 2024-11-06 16:00:31.462
67.0, -8961.306090510618, -8390.37548188871, -6569.781192515039, -6675.2367228551775, -5509.637952999825, -8024.812701322163, -9295.107042206173, -8116.141929166548, 0.002, 0.986, 0.194, 192.0, 0.0, 0.0, 0.0, 0.0, 0.0, 0.0, 0.0, 0.0, 0.0, 1.7309196314663324E9, 0.0, 2024-11-06 16:00:31.466
68.0, -9001.762747974724, -8430.921546330637, -6606.683922610751, -6655.120152845401, -5484.581647465426, -8032.278183970236, -9296.112870706662, -8100.003969669816, 0.002, 0.986, 0.194, 192.0, 0.0, 0.0, 31.0, 0.0, 5.0, 224.0, 0.0, 0.0, 0.0, 1.7309196314705029E9, 0.0, 2024-11-06 16:00:31.470
69.0, -8999.68403574038, -8430.116883530245, -6614.931716314759, -6646.604138207929, -5492.807089424979, -8044.079905042638, -9311.826147058744, -8097.165298123992, 0.002, 0.986, 0.194, 192.0, 0.0, 0.0, 0.0, 0.0, 0.0, 0.0, 0.0, 0.0, 0.0, 1.7309196314743612E9, 0.0, 2024-11-06 16:00:31.474
70.0, -8958.065087564599, -8388.676749310107, -6578.073689707958, -6664.731402961183, -5517.706932748191, -8037.061457283671, -9311.93790578102, -8111.4704145753885, 0.002, 0.986, 0.194, 192.0, 0.0, 0.0, 0.0, 0.0, 0.0, 0.0, 0.0, 0.0, 0.0, 1.7309196314773622E9, 0.0, 2024-11-06 16:00:31.477
71.0, -8954.309994496107, -8384.251103907956, -6564.39442210131, -6675.147315877356, -5512.677790245747, -8023.784521077218, -9295.576428839735, -8115.22550764388, 0.002, 0.986, 0.194, 192.0, 0.0, 0.0, 0.0, 0.0, 0.0, 0.0, 0.0, 0.0, 0.0, 1.7309196314814746E9, 0.0, 2024-11-06 16:00:31.481
72.0, -8992.687939725869, -8422.629049137719, -6596.044492250025, -6655.298966801044, -5484.045205598499, -8025.550308889188, -9290.234361914916, -8097.634684757553, 0.002, 0.986, 0.194, 192.0, 0.0, 0.0, 0.0, 0.0, 0.0, 0.0, 0.0, 0.0, 0.0, 1.7309196314863048E9, 0.0, 2024-11-06 16:00:31.486
73.0, -9001.181602618886, -8431.882671342215, -6613.1882802472455, -6641.753809661128, -5485.051034098988, -8038.380210206535, -9305.344141166705, -8090.727995720863, 0.002, 0.986, 0.194, 192.0, 0.0, 0.0, 0.0, 0.0, 0.0, 0.0, 0.0, 0.0, 0.0, 1.730919631490495E9, 0.0, 2024-11-06 16:00:31.490
74.0, -8964.077706823076, -8395.024644735413, -6583.68397756624, -6660.12694360339, -5514.644743757814, -8038.670782884453, -9312.65316160359, -8107.402397084523, 0.002, 0.986, 0.194, 192.0, 0.0, 0.0, 0.0, 0.0, 0.0, 0.0, 0.0, 0.0, 0.0, 1.7309196314943943E9, 0.0, 2024-11-06 16:00:31.494
75.0, -8950.465494449794, -8380.250141650456, -6562.382765100332, -6675.8849234443815, -5517.751636237102, -8025.818529822652, -9298.146879452095, -8116.2313361443685, 0.002, 0.986, 0.194, 192.0, 0.0, 0.0, 0.0, 0.0, 0.0, 0.0, 0.0, 0.0, 0.0, 1.7309196314983969E9, 0.0, 2024-11-06 16:00:31.498
76.0, -8987.547038501149, -8416.884650812704, -6591.104756725402, -6661.579806992985, -5490.974246379644, -8025.974992033839, -9290.860210759665, -8102.5520685377205, 0.002, 0.986, 0.194, 192.0, 0.0, 0.0, 0.0, 0.0, 0.0, 0.0, 0.0, 0.0, 0.0, 1.730919631501413E9, 0.0, 2024-11-06 16:00:31.501
77.0, -9004.869640454011, -8435.078970799324, -6615.624620392874, -6642.759638161617, -5483.1287840758305, -8037.888471828517, -9303.108966721175, -8090.750347465319, 0.002, 0.986, 0.194, 192.0, 0.0, 0.0, 0.0, 0.0, 0.0, 0.0, 0.0, 0.0, 0.0, 1.730919631505437E9, 0.0, 2024-11-06 16:00:31.505
78.0, -8972.012576104711, -8402.75834831695, -6592.289399181534, -6656.505961001631, -5510.532022778038, -8041.397695708, -9313.882507548631, -8104.451966816422, 0.002, 0.986, 0.194, 192.0, 0.0, 0.0, 30.0, 240.0, 6.0, 0.0, 0.0, 0.0, 0.0, 1.7309196315093365E9, 0.0, 2024-11-06 16:00:31.509
79.0, -8950.532549683161, -8380.540714328376, -6564.908512223782, -6677.158972878334, -5521.707895005691, -8030.199471735892, -9303.287780676816, -8117.840661745151, 0.002, 0.986, 0.194, 192.0, 0.0, 0.0, 0.0, 0.0, 0.0, 0.0, 0.0, 0.0, 0.0, 1.7309196315134563E9, 0.0, 2024-11-06 16:00:31.513
80.0, -8981.690881453858, -8411.274362954422, -6585.472117122665, -6667.3689088069095, -5496.338665048917, -8026.690247856409, -9292.31307414926, -8106.843603473139, 0.002, 0.986, 0.194, 192.0, 0.0, 0.0, 0.0, 0.0, 0.0, 0.0, 0.0, 0.0, 0.0, 1.730919631519584E9, 0.0, 2024-11-06 16:00:31.519
81.0, -9007.64125676647, -8438.275270256432, -6615.177585503768, -6645.643013196352, -5481.787679408512, -8037.732009617331, -9301.767862053855, -8091.778527710263, 0.002, 0.986, 0.194, 192.0, 0.0, 0.0, 0.0, 0.0, 0.0, 0.0, 0.0, 0.0, 0.0, 1.7309196315222647E9, 0.0, 2024-11-06 16:00:31.522
82.0, -8979.008672119222, -8410.536755387397, -6597.676169595262, -6652.057963855024, -5504.698217475202, -8042.470579441855, -9313.681341848534, -8099.802803969718, 0.002, 0.986, 0.194, 192.0, 0.0, 0.0, 0.0, 0.0, 0.0, 0.0, 0.0, 0.0, 0.0, 1.730919631526373E9, 0.0, 2024-11-06 16:00:31.526
83.0, -8949.683183393858, -8380.89834223966, -6565.802582001995, -6675.370833321909, -5523.048999673009, -8032.904032814984, -9306.50643187838, -8116.3430948666455, 0.002, 0.986, 0.194, 192.0, 0.0, 0.0, 0.0, 0.0, 0.0, 0.0, 0.0, 0.0, 0.0, 1.7309196315295703E9, 0.0, 2024-11-06 16:00:31.529
84.0, -8971.63259644897, -8401.66311283864, -6576.352605384899, -6669.537028019075, -5500.361979050873, -8024.767997833253, -9291.08372820422, -8107.894135462539, 0.002, 0.986, 0.194, 192.0, 0.0, 0.0, 0.0, 0.0, 0.0, 0.0, 0.0, 0.0, 0.0, 1.7309196315336554E9, 0.0, 2024-11-06 16:00:31.533
85.0, -9004.310846842629, -8434.408418465664, -6610.439015679242, -6646.224158552189, -5479.731318918624, -8034.535710160221, -9297.02929222933, -8091.040920143238, 0.002, 0.986, 0.194, 192.0, 0.0, 0.0, 0.0, 0.0, 0.0, 0.0, 0.0, 0.0, 0.0, 1.730919631537573E9, 0.0, 2024-11-06 16:00:31.537
86.0, -8982.093212854053, -8413.71070310005, -6599.3972539183205, -6644.525425973586, -5495.109319103875, -8039.631907896031, -9308.65219934609, -8093.007873655305, 0.002, 0.986, 0.194, 192.0, 0.0, 0.0, 0.0, 0.0, 0.0, 0.0, 0.0, 0.0, 0.0, 1.7309196315414865E9, 0.0, 2024-11-06 16:00:31.541
87.0, -8950.800770616625, -8381.837115506783, -6568.149515169802, -6671.79455420906, -5521.551432794504, -8035.139207260515, -9308.629847601635, -8114.554955310221, 0.002, 0.986, 0.194, 192.0, 0.0, 0.0, 0.0, 0.0, 0.0, 0.0, 0.0, 0.0, 0.0, 1.7309196315465455E9, 0.0, 2024-11-06 16:00:31.546
88.0, -8968.01161384721, -8397.706854070051, -6574.005672217092, -6676.1754961223005, -5508.386255310328, -8028.098407757093, -9296.001111984386, -8114.264382632302, 0.002, 0.992, 0.19, 192.0, 0.0, 16.0, 31.0, 0.0, 5.0, 240.0, 0.0, 0.0, 0.0, 1.7309196315505483E9, 0.0, 2024-11-06 16:00:31.550
89.0, -9005.339027087573, -8435.302488243877, -6609.321428456477, -6652.996737122147, -5483.620522453848, -8035.228614238336, -9297.923362007543, -8096.070062645682, 0.002, 0.992, 0.19, 192.0, 0.0, 0.0, 0.0, 0.0, 0.0, 0.0, 0.0, 0.0, 0.0, 1.7309196315544293E9, 0.0, 2024-11-06 16:00:31.554
90.0, -8994.58783800457, -8425.981810806014, -6609.83551857895, -6646.961766119214, -5494.550525492493, -8044.6163469095645, -9312.161423225572, -8095.086585889649, 0.002, 0.992, 0.19, 192.0, 0.0, 0.0, 0.0, 0.0, 0.0, 0.0, 0.0, 0.0, 0.0, 1.7309196315575018E9, 0.0, 2024-11-06 16:00:31.557
91.0, -8955.226416018775, -8386.620388820218, -6573.782154772539, -6668.575903007496, -5520.076217660453, -8037.620250895054, -9310.976780769442, -8112.051559931227, 0.002, 0.992, 0.19, 192.0, 0.0, 0.0, 0.0, 0.0, 0.0, 0.0, 0.0, 0.0, 0.0, 1.730919631561499E9, 0.0, 2024-11-06 16:00:31.561
92.0, -8960.076744565577, -8390.04020572188, -6567.702480280695, -6676.667234500317, -5511.314333833973, -8025.907936800473, -9295.621132328646, -8114.286734376757, 0.002, 0.992, 0.19, 192.0, 0.0, 0.0, 0.0, 0.0, 0.0, 0.0, 0.0, 0.0, 0.0, 1.7309196315654285E9, 0.0, 2024-11-06 16:00:31.565
93.0, -8999.840497951567, -8429.982773063513, -6602.97353303117, -6656.058926112524, -5484.380481765328, -8031.227651980836, -9294.36943463915, -8097.299408590724, 0.002, 0.992, 0.19, 192.0, 0.0, 0.0, 0.0, 0.0, 0.0, 0.0, 0.0, 0.0, 0.0, 1.7309196315695436E9, 0.0, 2024-11-06 16:00:31.569
94.0, -9000.175774118397, -8431.323877730832, -6613.456501180709, -6644.9501091182365, -5489.297865545495, -8042.716448630864, -9309.255696446384, -8092.426728299467, 0.002, 0.992, 0.19, 192.0, 0.0, 0.0, 0.0, 0.0, 0.0, 0.0, 0.0, 0.0, 0.0, 1.7309196315743802E9, 0.0, 2024-11-06 16:00:31.574
95.0, -8961.127276554977, -8392.633008078696, -6580.197105431213, -6664.910216916825, -5517.796339726012, -8039.5648526626655, -9313.658990104079, -8109.74933025233, 0.002, 0.992, 0.19, 192.0, 0.0, 0.0, 0.0, 0.0, 0.0, 0.0, 0.0, 0.0, 0.0, 1.7309196315784824E9, 0.0, 2024-11-06 16:00:31.578
96.0, -8955.427581718872, -8385.703967297552, -6565.243788390611, -6678.813001968027, -5516.790511225523, -8027.897242056995, -9299.309170163771, -8117.1701094114915, 0.002, 0.992, 0.19, 192.0, 0.0, 0.0, 0.0, 0.0, 0.0, 0.0, 0.0, 0.0, 0.0, 1.730919631582428E9, 0.0, 2024-11-06 16:00:31.582
97.0, -8992.844401937056, -8422.249069481977, -6595.977437016659, -6659.948129647748, -5487.576781222437, -8028.858367068574, -9292.782460782822, -8100.540411536743, 0.002, 0.992, 0.19, 192.0, 0.0, 0.0, 0.0, 0.0, 0.0, 0.0, 0.0, 0.0, 0.0, 1.730919631585451E9, 0.0, 2024-11-06 16:00:31.585
98.0, -9004.243791609262, -8434.810749865861, -6615.602268648418, -6644.436018995764, -5485.386310265817, -8041.464750941366, -9307.065225489763, -8091.733824221352, 0.004, 0.988, 0.198, 192.0, 0.0, 32.0, 30.0, 224.0, 6.0, 48.0, 0.0, 0.0, 0.0, 1.730919631589573E9, 0.0, 2024-11-06 16:00:31.589
99.0, -8966.558750457616, -8397.550391858864, -6586.097965967413, -6659.568149992007, -5512.409569312283, -8040.771846863252, -9313.904859293087, -8105.614257528098, 0.004, 0.988, 0.198, 192.0, 0.0, 0.0, 0.0, 0.0, 0.0, 0.0, 0.0, 0.0, 0.0, 1.7309196315934234E9, 0.0, 2024-11-06 16:00:31.593
100.0, -8949.705535138313, -8379.490182338976, -6562.606282544885, -6676.913103689326, -5517.885746703833, -8027.941945545906, -9300.158536453073, -8115.717246021896, 0.004, 0.988, 0.198, 192.0, 0.0, 0.0, 0.0, 0.0, 0.0, 0.0, 0.0, 0.0, 0.0, 1.7309196315995896E9, 0.0, 2024-11-06 16:00:31.599
101.0, -8985.669491966903, -8414.783586833904, -6589.450727635709, -6664.440830283264, -5491.980074880133, -8027.427855423433, -9292.000149726886, -8103.401434827022, 0.004, 0.988, 0.198, 192.0, 0.0, 0.0, 0.0, 0.0, 0.0, 0.0, 0.0, 0.0, 0.0, 1.7309196316023633E9, 0.0, 2024-11-06 16:00:31.602
102.0, -9006.948352688356, -8437.42590396713, -6616.943373315737, -6645.665364940806, -5483.4193567537495, -8040.3918672075115, -9304.762995810866, -8091.420899798978, 0.004, 0.988, 0.198, 192.0, 0.0, 0.0, 0.0, 0.0, 0.0, 0.0, 0.0, 0.0, 0.0, 1.7309196316065092E9, 0.0, 2024-11-06 16:00:31.606
103.0, -8973.82306740559, -8405.798185562871, -6594.2340009491445, -6656.148333090346, -5509.3026768329955, -8043.096428286604, -9315.13420523813, -8102.3732545820785, 0.004, 0.988, 0.198, 192.0, 0.0, 0.0, 0.0, 0.0, 0.0, 0.0, 0.0, 0.0, 0.0, 1.7309196316096191E9, 0.0, 2024-11-06 16:00:31.609
104.0, -8947.760933370702, -8378.84198174977, -6563.053317433992, -6675.951978677747, -5521.238508372129, -8030.244175224802, -9303.243077187906, -8115.046693688238, 0.004, 0.988, 0.198, 192.0, 0.0, 0.0, 0.0, 0.0, 0.0, 0.0, 0.0, 0.0, 0.0, 1.7309196316134796E9, 0.0, 2024-11-06 16:00:31.613
105.0, -8977.846381407546, -8407.787490819393, -6581.672320565262, -6668.687661729773, -5497.679769716236, -8026.220861222847, -9291.97779798243, -8106.061292417204, 0.004, 0.988, 0.198, 192.0, 0.0, 0.0, 0.0, 0.0, 0.0, 0.0, 0.0, 0.0, 0.0, 1.7309196316174662E9, 0.0, 2024-11-06 16:00:31.617
106.0, -9006.143689887964, -8436.330668488821, -6613.143576758334, -6645.777123663083, -5480.535981719016, -8036.502663672289, -9300.270295175349, -8090.057443387204, 0.004, 0.988, 0.198, 192.0, 0.0, 0.0, 0.0, 0.0, 0.0, 0.0, 0.0, 0.0, 0.0, 1.730919631621418E9, 0.0, 2024-11-06 16:00:31.621
107.0, -8980.953273886833, -8412.19078447709, -6599.151384729313, -6651.119190587901, -5502.798319196501, -8042.917614330961, -9313.904859293087, -8098.08171964666, 0.004, 0.988, 0.198, 192.0, 0.0, 0.0, 0.0, 0.0, 0.0, 0.0, 0.0, 0.0, 0.0, 1.7309196316256871E9, 0.0, 2024-11-06 16:00:31.625
108.0, -8949.571424671582, -8380.384252117188, -6565.780230257539, -6674.812039710527, -5522.624316528359, -8033.574585148644, -9307.624019101146, -8115.270211132791, 0.004, 0.978, 0.196, 192.0, 0.0, 32.0, 30.0, 144.0, 6.0, 32.0, 0.0, 0.0, 0.0, 1.7309196316305196E9, 0.0, 2024-11-06 16:00:31.630
109.0, -8971.945520871344, -8401.707816327551, -6576.889047251827, -6674.029728654591, -5504.497051775104, -8027.271393212247, -9294.88352476162, -8110.822213986185, 0.004, 0.978, 0.196, 192.0, 0.0, 0.0, 0.0, 0.0, 0.0, 0.0, 0.0, 0.0, 0.0, 1.7309196316347132E9, 0.0, 2024-11-06 16:00:31.634
110.0, -9005.562544532126, -8435.883633599715, -6610.8413470794385, -6649.688678942762, -5481.541810219504, -8035.385076449523, -9299.26446667486, -8092.247914343824, 0.004, 0.978, 0.196, 192.0, 0.0, 0.0, 0.0, 0.0, 0.0, 0.0, 0.0, 0.0, 0.0, 1.7309196316375916E9, 0.0, 2024-11-06 16:00:31.637
111.0, -8987.994073390255, -8419.388046191698, -6604.515803398586, -6647.2970422860435, -5496.740996449113, -8042.582338164132, -9313.100196492696, -8094.103109133614, 0.004, 0.978, 0.196, 192.0, 0.0, 0.0, 0.0, 0.0, 0.0, 0.0, 0.0, 0.0, 0.0, 1.730919631641548E9, 0.0, 2024-11-06 16:00:31.641
112.0, -8952.588910173048, -8383.200571918556, -6570.027061704048, -6671.906312931337, -5522.37844733935, -8035.943870060906, -9311.200298213995, -8113.213850642902, 0.004, 0.978, 0.196, 192.0, 0.0, 0.0, 0.0, 0.0, 0.0, 0.0, 0.0, 0.0, 0.0, 1.730919631645631E9, 0.0, 2024-11-06 16:00:31.645
113.0, -8964.480038223272, -8393.616484834729, -6570.20587565969, -6676.1754961223005, -5509.503842533093, -8026.086750756115, -9296.023463728841, -8112.498594820332, 0.004, 0.978, 0.196, 192.0, 0.0, 0.0, 0.0, 0.0, 0.0, 0.0, 0.0, 0.0, 0.0, 1.7309196316495519E9, 0.0, 2024-11-06 16:00:31.649
114.0, -9002.388596819472, -8431.346229475288, -6605.320466198978, -6652.616757466407, -5482.748804420091, -8031.339410703113, -9295.822298028743, -8093.499612033322, 0.004, 0.978, 0.196, 192.0, 0.0, 0.0, 0.0, 0.0, 0.0, 0.0, 0.0, 0.0, 0.0, 1.730919631653772E9, 0.0, 2024-11-06 16:00:31.653
115.0, -8997.78413746168, -8428.239336996001, -6612.07069302448, -6647.162931819312, -5494.081138858931, -8043.655221897987, -9312.764920325866, -8093.477260288866, 0.004, 0.978, 0.196, 192.0, 0.0, 0.0, 0.0, 0.0, 0.0, 0.0, 0.0, 0.0, 0.0, 1.7309196316574352E9, 0.0, 2024-11-06 16:00:31.657
116.0, -8957.953328842323, -8388.542638843375, -6576.73258504064, -6668.441792540764, -5520.590307782925, -8037.732009617331, -9313.45782440398, -8110.7104552639075, 0.004, 0.978, 0.196, 192.0, 0.0, 0.0, 0.0, 0.0, 0.0, 0.0, 0.0, 0.0, 0.0, 1.7309196316626987E9, 0.0, 2024-11-06 16:00:31.662
117.0, -8959.070916065088, -8388.386176632188, -6567.322500624955, -6678.142449634368, -5514.130653635341, -8025.863233311562, -9297.83395502972, -8114.152623910025, 0.004, 0.978, 0.196, 192.0, 0.0, 0.0, 0.0, 0.0, 0.0, 0.0, 0.0, 0.0, 0.0, 1.7309196316655483E9, 0.0, 2024-11-06 16:00:31.665
118.0, -8997.091233383564, -8426.205328250568, -6600.134861485346, -6656.327147045988, -5484.8945718878, -8028.165462990459, -9293.162440438562, -8095.243048100835, 0.01, 0.974, 0.196, 192.0, 0.0, 80.0, 30.0, 112.0, 6.0, 32.0, 0.0, 0.0, 0.0, 1.730919631669536E9, 0.0, 2024-11-06 16:00:31.669
119.0, -9000.131070629486, -8430.85449109727, -6613.12122501388, -6642.849045139438, -5486.682711444225, -8039.430742195934, -9307.579315612234, -8087.93402766395, 0.01, 0.974, 0.196, 192.0, 0.0, 0.0, 0.0, 0.0, 0.0, 0.0, 0.0, 0.0, 0.0, 1.7309196316735454E9, 0.0, 2024-11-06 16:00:31.673
120.0, -8960.68024166587, -8391.761290044939, -6580.286512409033, -6661.132772103879, -5514.555336779993, -8036.882643328028, -9312.183774970028, -8103.669655760486, 0.01, 0.974, 0.196, 192.0, 0.0, 0.0, 0.0, 0.0, 0.0, 0.0, 0.0, 0.0, 0.0, 1.7309196316775548E9, 0.0, 2024-11-06 16:00:31.677
121.0, -8947.224491503775, -8377.120897426712, -6557.86771272036, -6672.174533864801, -5511.426092556249, -8020.565869875654, -9293.788289283311, -8107.514155806799, 0.01, 0.974, 0.196, 192.0, 0.0, 0.0, 0.0, 0.0, 0.0, 0.0, 0.0, 0.0, 0.0, 1.7309196316816864E9, 0.0, 2024-11-06 16:00:31.681
122.0, -8984.082518110576, -8413.643647866684, -6586.299131667511, -6654.449600511743, -5482.257066042074, -8020.185890219915, -9286.009882212864, -8091.242085843335, 0.01, 0.974, 0.196, 192.0, 0.0, 0.0, 0.0, 0.0, 0.0, 0.0, 0.0, 0.0, 0.0, 1.7309196316855843E9, 0.0, 2024-11-06 16:00:31.685
123.0, -9002.142727630464, -8432.91085158716, -6611.802472091016, -6640.725629416183, -5480.960664863666, -8036.21209099437, -9302.952504509987, -8084.715376462385, 0.01, 0.974, 0.196, 192.0, 0.0, 0.0, 0.0, 0.0, 0.0, 0.0, 0.0, 0.0, 0.0, 1.730919631690442E9, 0.0, 2024-11-06 16:00:31.690
124.0, -8967.810448147113, -8399.539697115386, -6586.634407834341, -6656.930644146281, -5510.286153589029, -8039.16252126247, -9313.211955214972, -8100.361597581101, 0.01, 0.974, 0.196, 192.0, 0.0, 0.0, 0.0, 0.0, 0.0, 0.0, 0.0, 0.0, 0.0, 1.7309196316936011E9, 0.0, 2024-11-06 16:00:31.693
125.0, -8947.090381037044, -8377.970263716015, -6559.991128443615, -6675.03555715508, -5517.796339726012, -8025.952640289383, -9299.644446330602, -8111.313952364201, 0.01, 0.974, 0.196, 192.0, 0.0, 0.0, 0.0, 0.0, 0.0, 0.0, 0.0, 0.0, 0.0, 1.730919631697592E9, 0.0, 2024-11-06 16:00:31.697
126.0, -8980.148611086443, -8409.933258287103, -6583.34870139941, -6662.786801193572, -5491.063653357465, -8022.711637343364, -9288.870905503143, -8098.819327213684, 0.01, 0.974, 0.196, 192.0, 0.0, 0.0, 0.0, 0.0, 0.0, 0.0, 0.0, 0.0, 0.0, 1.7309196317016485E9, 0.0, 2024-11-06 16:00:31.701
127.0, -9002.790928219669, -8433.581403920818, -6611.601306390919, -6641.239719538656, -5478.3678625068505, -8033.9322130599285, -9299.26446667486, -8084.782431695752, 0.01, 0.974, 0.196, 192.0, 0.0, 0.0, 0.0, 0.0, 0.0, 0.0, 0.0, 0.0, 0.0, 1.730919631705856E9, 0.0, 2024-11-06 16:00:31.705
128.0, -8969.665642936903, -8401.529002371908, -6588.936637513237, -6647.632318452874, -5500.026702884043, -8035.385076449523, -9308.27221969035, -8092.516135277288, 0.008, 0.98, 0.188, 192.0, 0.0, 64.0, 30.0, 160.0, 5.0, 224.0, 0.0, 0.0, 0.0, 1.7309196317096884E9, 0.0, 2024-11-06 16:00:31.709
129.0, -8943.424694946372, -8374.706909025539, -6558.493561565109, -6670.788725708571, -5515.985848425133, -8025.1256257445375, -9299.912667264065, -8108.788205240751, 0.008, 0.98, 0.188, 192.0, 0.0, 0.0, 0.0, 0.0, 0.0, 0.0, 0.0, 0.0, 0.0, 1.7309196317137127E9, 0.0, 2024-11-06 16:00:31.713
130.0, -8970.291491781652, -8400.210249449045, -6573.893913494816, -6664.418478538809, -5492.650627213791, -8019.15770997497, -9286.702786290978, -8100.249838858824, 0.008, 0.98, 0.188, 192.0, 0.0, 0.0, 0.0, 0.0, 0.0, 0.0, 0.0, 0.0, 0.0, 1.7309196317184973E9, 0.0, 2024-11-06 16:00:31.718
131.0, -9003.327370086596, -8433.514348687453, -6608.44971042272, -6642.826693394983, -5475.439783983205, -8030.870024069551, -9295.822298028743, -8085.251818329313, 0.008, 0.98, 0.188, 192.0, 0.0, 0.0, 0.0, 0.0, 0.0, 0.0, 0.0, 0.0, 0.0, 1.7309196317217371E9, 0.0, 2024-11-06 16:00:31.721
132.0, -8979.67922445288, -8411.43082516561, -6596.513878883587, -6645.128923073879, -5494.997560381599, -8037.173216005947, -9309.345103424204, -8090.638588743042, 0.008, 0.98, 0.188, 192.0, 0.0, 0.0, 0.0, 0.0, 0.0, 0.0, 0.0, 0.0, 0.0, 1.730919631725757E9, 0.0, 2024-11-06 16:00:31.725
133.0, -8945.503407180717, -8377.23265614899, -6562.025137189047, -6668.777068707594, -5516.2317176141405, -8027.986649034817, -9303.556001610279, -8107.961190695905, 0.008, 0.98, 0.188, 192.0, 0.0, 0.0, 0.0, 0.0, 0.0, 0.0, 0.0, 0.0, 0.0, 1.7309196317296789E9, 0.0, 2024-11-06 16:00:31.729
134.0, -8964.05535507862, -8394.28703716839, -6569.311805881478, -6669.201751852245, -5499.2667435725625, -8019.940021030906, -9289.094422947695, -8104.362559838601, 0.008, 0.98, 0.188, 192.0, 0.0, 0.0, 0.0, 0.0, 0.0, 0.0, 0.0, 0.0, 0.0, 1.7309196317337122E9, 0.0, 2024-11-06 16:00:31.733
135.0, -9000.756919474235, -8431.212119008556, -6605.0298935210585, -6645.754771918628, -5475.953874105678, -8028.187814734914, -9293.050681716286, -8086.637626485543, 0.008, 0.98, 0.188, 192.0, 0.0, 0.0, 0.0, 0.0, 0.0, 0.0, 0.0, 0.0, 0.0, 1.730919631737537E9, 0.0, 2024-11-06 16:00:31.737
136.0, -8986.407099533928, -8418.225755480022, -6602.347684186421, -6641.686754427762, -5489.320217289951, -8036.4579601833775, -9307.288742934315, -8087.330530563657, 0.008, 0.98, 0.188, 192.0, 0.0, 0.0, 0.0, 0.0, 0.0, 0.0, 0.0, 0.0, 0.0, 1.73091963174165E9, 0.0, 2024-11-06 16:00:31.741
137.0, -8945.168131013887, -8376.740917770972, -6563.165076156268, -6661.624510481895, -5511.470796045161, -8025.997343778294, -9302.438414387514, -8102.283847604257, 0.008, 0.98, 0.188, 192.0, 0.0, 0.0, 0.0, 0.0, 0.0, 0.0, 0.0, 0.0, 0.0, 1.7309196317455444E9, 0.0, 2024-11-06 16:00:31.745
138.0, -8955.092305552043, -8385.346339386266, -6561.354584855389, -6669.313510574521, -5501.904249418289, -8017.101349485082, -9288.669739803045, -8104.65313251652, 0.008, 0.98, 0.186, 192.0, 0.0, 64.0, 30.0, 160.0, 5.0, 208.0, 0.0, 0.0, 0.0, 1.7309196317487435E9, 0.0, 2024-11-06 16:00:31.748
139.0, -8998.16411711742, -8428.19463350709, -6600.492489396631, -6650.627452209885, -5478.770193907046, -8026.332619945124, -9292.201315426984, -8090.482126531855, 0.008, 0.98, 0.186, 192.0, 0.0, 0.0, 0.0, 0.0, 0.0, 0.0, 0.0, 0.0, 0.0, 1.7309196317537303E9, 0.0, 2024-11-06 16:00:31.753
140.0, -8995.861887438523, -8427.367618962244, -6608.740283100639, -6642.513768972608, -5487.375615522339, -8038.648431139998, -9308.406330157082, -8088.2916555752345, 0.008, 0.98, 0.186, 192.0, 0.0, 0.0, 0.0, 0.0, 0.0, 0.0, 0.0, 0.0, 0.0, 1.7309196317577915E9, 0.0, 2024-11-06 16:00:31.757
141.0, -8955.069953807588, -8387.134478942691, -6572.843381505416, -6662.518580260108, -5514.309467590984, -8033.529881659732, -9309.590972613212, -8104.586077283154, 0.008, 0.98, 0.186, 192.0, 0.0, 0.0, 0.0, 0.0, 0.0, 0.0, 0.0, 0.0, 0.0, 1.730919631761774E9, 0.0, 2024-11-06 16:00:31.761
142.0, -8949.593776416037, -8380.160734672634, -6557.06304991997, -6670.900484430848, -5507.156909365286, -8018.285991941213, -9291.061376459764, -8106.329513350668, 0.008, 0.98, 0.186, 192.0, 0.0, 0.0, 0.0, 0.0, 0.0, 0.0, 0.0, 0.0, 0.0, 1.7309196317656298E9, 0.0, 2024-11-06 16:00:31.765
143.0, -8989.178715846387, -8418.896307813682, -6589.629541591352, -6651.387411521365, -5478.859600884867, -8020.96820127585, -9286.501620590881, -8089.543353264732, 0.008, 0.98, 0.186, 192.0, 0.0, 0.0, 0.0, 0.0, 0.0, 0.0, 0.0, 0.0, 0.0, 1.7309196317716625E9, 0.0, 2024-11-06 16:00:31.771
144.0, -8998.700558984347, -8429.647496896685, -6608.40500693381, -6639.071600326491, -5481.027720097032, -8035.452131682889, -9303.332484165727, -8084.290693317735, 0.008, 0.98, 0.186, 192.0, 0.0, 0.0, 0.0, 0.0, 0.0, 0.0, 0.0, 0.0, 0.0, 1.7309196317747886E9, 0.0, 2024-11-06 16:00:31.774
145.0, -8960.00968933221, -8392.163621445134, -6577.604303074397, -6656.617719723907, -5508.900345432799, -8034.558061904677, -9309.27804819084, -8099.98161792536, 0.008, 0.98, 0.186, 192.0, 0.0, 0.0, 0.0, 0.0, 0.0, 0.0, 0.0, 0.0, 0.0, 1.7309196317778444E9, 0.0, 2024-11-06 16:00:31.777
146.0, -8948.00680255971, -8378.819630005317, -6557.219512131156, -6673.672100743306, -5512.409569312283, -8022.644582109998, -9295.576428839735, -8109.726978507874, 0.008, 0.98, 0.186, 192.0, 0.0, 0.0, 0.0, 0.0, 0.0, 0.0, 0.0, 0.0, 0.0, 1.7309196317817068E9, 0.0, 2024-11-06 16:00:31.781
147.0, -8987.010596634222, -8416.616429879241, -6587.528477612553, -6660.417516281309, -5486.593304466403, -8024.388018177512, -9289.608513070169, -8097.545277779732, 0.008, 0.98, 0.186, 192.0, 0.0, 0.0, 0.0, 0.0, 0.0, 0.0, 0.0, 0.0, 0.0, 1.7309196317857301E9, 0.0, 2024-11-06 16:00:31.785
148.0, -9004.64612300946, -8435.503653943975, -6612.294210469033, -6641.910271872315, -5479.328987518428, -8036.681477627931, -9302.572524854246, -8086.436460785444, 0.004, 0.982, 0.184, 192.0, 0.0, 32.0, 30.0, 176.0, 5.0, 192.0, 0.0, 0.0, 0.0, 1.730919631789796E9, 0.0, 2024-11-06 16:00:31.789
149.0, -8969.06214583661, -8400.724339571518, -6586.768518301073, -6653.622585966896, -5505.100548875398, -8037.329678217135, -9311.289705191815, -8098.260533602302, 0.004, 0.982, 0.184, 192.0, 0.0, 0.0, 0.0, 0.0, 0.0, 0.0, 0.0, 0.0, 0.0, 1.730919631793821E9, 0.0, 2024-11-06 16:00:31.793
150.0, -8948.498540937728, -8378.909036983137, -6560.572273799453, -6675.460240299731, -5517.505767048093, -8026.4443786674, -9301.566696353757, -8112.655057031519, 0.004, 0.982, 0.184, 192.0, 0.0, 0.0, 0.0, 0.0, 0.0, 0.0, 0.0, 0.0, 0.0, 1.73091963179766E9, 0.0, 2024-11-06 16:00:31.797
151.0, -8979.9697971308, -8409.553278631363, -6581.895838009816, -6665.401955294843, -5492.382406280328, -8022.801044321185, -9290.54728633729, -8101.814460970696, 0.004, 0.982, 0.184, 192.0, 0.0, 0.0, 0.0, 0.0, 0.0, 0.0, 0.0, 0.0, 0.0, 1.7309196318017087E9, 0.0, 2024-11-06 16:00:31.801
152.0, -9005.383730576485, -8435.704819644072, -6611.780120346561, -6642.916100372804, -5477.563199706459, -8033.574585148644, -9299.59974284169, -8086.279998574258, 0.004, 0.982, 0.184, 192.0, 0.0, 0.0, 0.0, 0.0, 0.0, 0.0, 0.0, 0.0, 0.0, 1.730919631804684E9, 0.0, 2024-11-06 16:00:31.804
153.0, -8975.87942789548, -8407.541621630386, -6593.205820704201, -6648.861664397916, -5500.071406372954, -8037.2179194948585, -9310.820318558255, -8093.834888200151, 0.004, 0.982, 0.184, 192.0, 0.0, 0.0, 0.0, 0.0, 0.0, 0.0, 0.0, 0.0, 0.0, 1.7309196318087451E9, 0.0, 2024-11-06 16:00:31.808
154.0, -8946.375125214474, -8377.255007893446, -6560.862846477372, -6672.085126886979, -5517.952801937199, -8026.5337856452215, -9302.88544927662, -8110.039902930249, 0.004, 0.982, 0.184, 192.0, 0.0, 0.0, 0.0, 0.0, 0.0, 0.0, 0.0, 0.0, 0.0, 1.730919631813963E9, 0.0, 2024-11-06 16:00:31.813
155.0, -8968.883331880967, -8398.198592448067, -6571.658739049285, -6666.228969839689, -5495.064615614965, -8018.107177985571, -9287.328635135727, -8101.479184803866, 0.004, 0.982, 0.184, 192.0, 0.0, 0.0, 0.0, 0.0, 0.0, 0.0, 0.0, 0.0, 0.0, 1.730919631818763E9, 0.0, 2024-11-06 16:00:31.818
156.0, -9001.271009596707, -8431.1897672641, -6605.655742365807, -6642.379658505876, -5474.523362460538, -8027.830186823629, -9293.251847416383, -8084.290693317735, 0.004, 0.982, 0.184, 192.0, 0.0, 0.0, 0.0, 0.0, 0.0, 0.0, 0.0, 0.0, 0.0, 1.7309196318227427E9, 0.0, 2024-11-06 16:00:31.822
157.0, -8981.422660520395, -8412.704874599562, -6597.229134706156, -6643.430190495275, -5493.030606869532, -8036.077980527638, -9307.802833056789, -8089.208077097903, 0.004, 0.982, 0.184, 192.0, 0.0, 0.0, 0.0, 0.0, 0.0, 0.0, 0.0, 0.0, 0.0, 1.730919631825712E9, 0.0, 2024-11-06 16:00:31.825
158.0, -8944.944613569334, -8376.18212415959, -6560.661680777273, -6666.184266350779, -5514.890612946822, -8026.556137389677, -9302.684283576524, -8106.3071616062125, 0.002, 0.994, 0.19, 192.0, 0.0, 16.0, 31.0, 16.0, 5.0, 240.0, 0.0, 0.0, 0.0, 1.7309196318296807E9, 0.0, 2024-11-06 16:00:31.829
159.0, -8960.97081434379, -8390.844868522272, -6565.422602346254, -6669.402917552343, -5500.473737773149, -8018.2636401967575, -9288.64738805859, -8105.122519150081, 0.002, 0.994, 0.19, 192.0, 0.0, 0.0, 0.0, 0.0, 0.0, 0.0, 0.0, 0.0, 0.0, 1.7309196318328056E9, 0.0, 2024-11-06 16:00:31.832
160.0, -8997.292399083663, -8427.434674195609, -6600.11250974089, -6644.883053884871, -5474.456307227172, -8024.410369921968, -9290.03319621482, -8085.900018918517, 0.002, 0.994, 0.19, 192.0, 0.0, 0.0, 0.0, 0.0, 0.0, 0.0, 0.0, 0.0, 0.0, 1.7309196318387008E9, 0.0, 2024-11-06 16:00:31.838
161.0, -8987.7705559457, -8418.829252580315, -6601.855945808405, -6640.0774288269795, -5486.995635866599, -8034.580413649132, -9305.858231289176, -8086.324702063168, 0.002, 0.994, 0.19, 192.0, 0.0, 0.0, 0.0, 0.0, 0.0, 0.0, 0.0, 0.0, 0.0, 1.7309196318417785E9, 0.0, 2024-11-06 16:00:31.841
162.0, -8950.48784619425, -8381.099507939758, -6567.9930529586145, -6664.485533772175, -5515.0023716690985, -8030.1771199914365, -9307.378149912138, -8106.4636238174, 0.002, 0.994, 0.19, 192.0, 0.0, 0.0, 0.0, 0.0, 0.0, 0.0, 0.0, 0.0, 0.0, 1.7309196318457875E9, 0.0, 2024-11-06 16:00:31.845
163.0, -8957.171017786386, -8386.262760908934, -6563.478000578642, -6674.588522265974, -5508.118034376864, -8021.057608253671, -9293.944751494499, -8111.023379686282, 0.002, 0.994, 0.19, 192.0, 0.0, 0.0, 0.0, 0.0, 0.0, 0.0, 0.0, 0.0, 0.0, 1.730919631849974E9, 0.0, 2024-11-06 16:00:31.849
164.0, -9000.01931190721, -8428.887537585204, -6601.051283008013, -6655.9248156457925, -5483.352301520384, -8028.456035668378, -9295.308207906271, -8096.293580090235, 0.002, 0.994, 0.19, 192.0, 0.0, 0.0, 0.0, 0.0, 0.0, 0.0, 0.0, 0.0, 0.0, 1.730919631854028E9, 0.0, 2024-11-06 16:00:31.854
165.0, -9000.30988458513, -8430.42980795262, -6611.511899413097, -6644.480722484675, -5487.956760878177, -8039.5648526626655, -9309.99330401341, -8091.040920143238, 0.002, 0.994, 0.19, 192.0, 0.0, 0.0, 0.0, 0.0, 0.0, 0.0, 0.0, 0.0, 0.0, 1.7309196318569078E9, 0.0, 2024-11-06 16:00:31.856
166.0, -8958.959157342812, -8389.436708621586, -6576.084384451436, -6662.831504682482, -5514.644743757814, -8034.714524115864, -9311.669684847557, -8106.1954028839355, 0.002, 0.994, 0.19, 192.0, 0.0, 0.0, 0.0, 0.0, 0.0, 0.0, 0.0, 0.0, 0.0, 1.7309196318609107E9, 0.0, 2024-11-06 16:00:31.860
167.0, -8953.661793906904, -8382.887647496182, -6561.443991833209, -6677.091917644968, -5514.018894913065, -8023.583355377121, -9297.297513162794, -8113.616182043098, 0.002, 0.994, 0.19, 192.0, 0.0, 0.0, 0.0, 0.0, 0.0, 0.0, 0.0, 0.0, 0.0, 1.730919631864785E9, 0.0, 2024-11-06 16:00:31.864
168.0, -8992.35266355904, -8421.176185748123, -6592.535268370541, -6658.607024980429, -5485.27455154354, -8024.96916353335, -9291.106079948673, -8097.321760335179, 0.008, 0.996, 0.186, 192.0, 0.0, 64.0, 31.0, 32.0, 5.0, 208.0, 0.0, 0.0, 0.0, 1.7309196318699102E9, 0.0, 2024-11-06 16:00:31.869
169.0, -9003.662646253426, -8433.939031832104, -6612.093044768935, -6642.826693394983, -5483.173487564742, -8037.441436939412, -9305.03121674433, -8088.626931742065, 0.008, 0.996, 0.186, 192.0, 0.0, 0.0, 0.0, 0.0, 0.0, 0.0, 0.0, 0.0, 0.0, 1.7309196318739836E9, 0.0, 2024-11-06 16:00:31.873
170.0, -8967.519875469194, -8398.355054659254, -6584.0192537330695, -6660.305757559033, -5512.923659434755, -8038.78254160673, -9313.7483970819, -8104.742539494341, 0.008, 0.996, 0.186, 192.0, 0.0, 0.0, 0.0, 0.0, 0.0, 0.0, 0.0, 0.0, 0.0, 1.730919631877931E9, 0.0, 2024-11-06 16:00:31.877
171.0, -8950.778418872169, -8380.428955606098, -6559.767610999062, -6677.56130427853, -5518.198671126208, -8025.326791444635, -9299.577391097235, -8114.89023147705, 0.008, 0.996, 0.186, 192.0, 0.0, 0.0, 0.0, 0.0, 0.0, 0.0, 0.0, 0.0, 0.0, 1.7309196318808355E9, 0.0, 2024-11-06 16:00:31.880
172.0, -8985.82595417809, -8414.694179856084, -6585.650931078307, -6663.41265003832, -5490.616618468359, -8022.4881198988105, -9289.876734003632, -8101.188612125947, 0.008, 0.996, 0.186, 192.0, 0.0, 0.0, 0.0, 0.0, 0.0, 0.0, 0.0, 0.0, 0.0, 1.7309196318847964E9, 0.0, 2024-11-06 16:00:31.884
173.0, -9006.389559076972, -8436.353020233277, -6613.143576758334, -6643.653707939829, -5481.385348008317, -8034.379247949034, -9302.326655665238, -8088.783393953252, 0.008, 0.996, 0.186, 192.0, 0.0, 0.0, 0.0, 0.0, 0.0, 0.0, 0.0, 0.0, 0.0, 1.730919631888962E9, 0.0, 2024-11-06 16:00:31.888
174.0, -8974.046584850143, -8404.635894851195, -6591.305922425499, -6655.209559823223, -5507.939220421222, -8038.223747995347, -9313.904859293087, -8100.808632470207, 0.008, 0.996, 0.186, 192.0, 0.0, 0.0, 0.0, 0.0, 0.0, 0.0, 0.0, 0.0, 0.0, 1.7309196318930805E9, 0.0, 2024-11-06 16:00:31.893
175.0, -8946.285718236652, -8375.779792759395, -6558.426506331743, -6673.582693765485, -5518.019857170565, -8023.628058866032, -9300.158536453073, -8111.872745975584, 0.008, 0.996, 0.186, 192.0, 0.0, 0.0, 0.0, 0.0, 0.0, 0.0, 0.0, 0.0, 0.0, 1.7309196318989773E9, 0.0, 2024-11-06 16:00:31.898
176.0, -8977.06407035161, -8405.619371607228, -6578.476021108154, -6667.011280895625, -5495.556353992982, -8020.58822162011, -9289.630864814624, -8103.580248782665, 0.008, 0.996, 0.186, 192.0, 0.0, 0.0, 0.0, 0.0, 0.0, 0.0, 0.0, 0.0, 0.0, 1.7309196319018738E9, 0.0, 2024-11-06 16:00:31.901
177.0, -9006.25544861024, -8435.593060921796, -6611.176623246268, -6645.084219584968, -5479.641911940803, -8032.367590948056, -9298.862135274665, -8088.515173019788, 0.008, 0.996, 0.186, 192.0, 0.0, 0.0, 0.0, 0.0, 0.0, 0.0, 0.0, 0.0, 0.0, 1.730919631905759E9, 0.0, 2024-11-06 16:00:31.905
178.0, -8982.272026809696, -8413.509537399952, -6598.234963206645, -6652.013260366114, -5503.334761063428, -8039.944832318406, -9313.860155804177, -8097.835850457651, 0.008, 0.99, 0.188, 192.0, 0.0, 64.0, 30.0, 240.0, 5.0, 224.0, 0.0, 0.0, 0.0, 1.7309196319088864E9, 0.0, 2024-11-06 16:00:31.908
179.0, -8947.984450815255, -8378.529057327398, -6561.689861022218, -6673.068603643013, -5520.567956038471, -8027.15963448997, -9305.075920233241, -8112.073911675681, 0.008, 0.99, 0.188, 192.0, 0.0, 0.0, 0.0, 0.0, 0.0, 0.0, 0.0, 0.0, 0.0, 1.7309196319128876E9, 0.0, 2024-11-06 16:00:31.912
180.0, -8969.017442347698, -8398.46681338153, -6571.0999454379025, -6670.587560008474, -5500.920772662255, -8019.11300648606, -9290.234361914916, -8106.240106372847, 0.008, 0.99, 0.188, 192.0, 0.0, 0.0, 0.0, 0.0, 0.0, 0.0, 0.0, 0.0, 0.0, 1.73091963191681E9, 0.0, 2024-11-06 16:00:31.916
181.0, -9003.103852642042, -8432.95555507607, -6605.87925981036, -6646.380620763376, -5478.591379951404, -8027.673724612442, -9294.995283483897, -8088.023434641771, 0.008, 0.99, 0.188, 192.0, 0.0, 0.0, 0.0, 0.0, 0.0, 0.0, 0.0, 0.0, 0.0, 1.7309196319208307E9, 0.0, 2024-11-06 16:00:31.920
182.0, -8985.758898944725, -8416.99640953498, -6600.559544629997, -6645.0618678405135, -5494.997560381599, -8036.346201461101, -9309.7474348244, -8090.571533509677, 0.008, 0.99, 0.188, 192.0, 0.0, 0.0, 0.0, 0.0, 0.0, 0.0, 0.0, 0.0, 0.0, 1.7309196319259853E9, 0.0, 2024-11-06 16:00:31.925
183.0, -8947.269194992685, -8378.193781160568, -6563.67916627874, -6666.988929151169, -5517.796339726012, -8026.556137389677, -9304.584181855224, -8106.396568584034, 0.008, 0.99, 0.188, 192.0, 0.0, 0.0, 0.0, 0.0, 0.0, 0.0, 0.0, 0.0, 0.0, 1.730919631929938E9, 0.0, 2024-11-06 16:00:31.929
184.0, -8959.450895720827, -8388.721452799016, -6564.684994779229, -6671.191057108767, -5504.541755264015, -8016.564907618154, -9288.736795036411, -8105.524850550277, 0.008, 0.99, 0.188, 192.0, 0.0, 0.0, 0.0, 0.0, 0.0, 0.0, 0.0, 0.0, 0.0, 1.7309196319338481E9, 0.0, 2024-11-06 16:00:31.933
185.0, -8999.058186895632, -8428.462854440553, -6601.811242319494, -6649.263995798111, -5479.552504962981, -8024.276259455235, -9290.659045059569, -8088.693986975431, 0.008, 0.99, 0.188, 192.0, 0.0, 0.0, 0.0, 0.0, 0.0, 0.0, 0.0, 0.0, 0.0, 1.7309196319369385E9, 0.0, 2024-11-06 16:00:31.936
186.0, -8992.576181003593, -8423.679581127117, -6606.080425510458, -6642.178492805779, -5489.163755078764, -8034.982745049328, -9305.634713844624, -8087.21877184138, 0.008, 0.99, 0.188, 192.0, 0.0, 0.0, 0.0, 0.0, 0.0, 0.0, 0.0, 0.0, 0.0, 1.7309196319409325E9, 0.0, 2024-11-06 16:00:31.940
187.0, -8953.43827646235, -8384.966359730526, -6570.541151826519, -6664.597292494452, -5516.18701412523, -8030.4676926693555, -9307.065225489763, -8105.614257528098, 0.008, 0.99, 0.188, 192.0, 0.0, 0.0, 0.0, 0.0, 0.0, 0.0, 0.0, 0.0, 0.0, 1.7309196319449017E9, 0.0, 2024-11-06 16:00:31.944
188.0, -8955.9640235858, -8385.703967297552, -6562.047488933503, -6675.594350766462, -5510.353208822395, -8020.230593708825, -9292.670702060544, -8110.598696541631, 0.004, 0.976, 0.178, 192.0, 0.0, 32.0, 30.0, 128.0, 5.0, 144.0, 0.0, 0.0, 0.0, 1.7309196319488735E9, 0.0, 2024-11-06 16:00:31.948
189.0, -8994.945465915855, -8423.90309857167, -6594.770442816072, -6653.689641200262, -5481.005368352577, -8022.845747810095, -9288.155649680573, -8092.247914343824, 0.004, 0.976, 0.178, 192.0, 0.0, 0.0, 0.0, 0.0, 0.0, 0.0, 0.0, 0.0, 0.0, 1.730919631953922E9, 0.0, 2024-11-06 16:00:31.953
190.0, -8997.940599672866, -8428.708723629561, -6607.555640644508, -6640.233891038167, -5482.793507909001, -8034.267489226758, -9302.304303920782, -8085.631797985054, 0.004, 0.976, 0.178, 192.0, 0.0, 0.0, 0.0, 0.0, 0.0, 0.0, 0.0, 0.0, 0.0, 1.7309196319579034E9, 0.0, 2024-11-06 16:00:31.957
191.0, -8958.48977070925, -8389.794336532872, -6575.167962928768, -6659.054059869535, -5511.04611290051, -8032.121721759048, -9307.042873745308, -8101.993274926338, 0.004, 0.976, 0.178, 192.0, 0.0, 0.0, 0.0, 0.0, 0.0, 0.0, 0.0, 0.0, 0.0, 1.7309196319618113E9, 0.0, 2024-11-06 16:00:31.961
192.0, -8949.973756071777, -8379.870161994715, -6557.934767953726, -6674.923798432804, -5512.990714668121, -8020.2529454532805, -9293.341254394205, -8111.045731430738, 0.004, 0.976, 0.178, 192.0, 0.0, 0.0, 0.0, 0.0, 0.0, 0.0, 0.0, 0.0, 0.0, 1.7309196319648733E9, 0.0, 2024-11-06 16:00:31.964
193.0, -8989.73750945777, -8419.05277002487, -6589.942466013726, -6659.948129647748, -5486.727414933135, -8022.331657687624, -9288.178001425029, -8097.791146968741, 0.004, 0.976, 0.178, 192.0, 0.0, 0.0, 0.0, 0.0, 0.0, 0.0, 0.0, 0.0, 0.0, 1.7309196319690452E9, 0.0, 2024-11-06 16:00:31.969
194.0, -9003.707349742335, -8434.117845787745, -6611.914230813293, -6642.111437572413, -5481.653568941781, -8034.289840971213, -9301.320827164749, -8087.1740683524695, 0.004, 0.976, 0.178, 192.0, 0.0, 0.0, 0.0, 0.0, 0.0, 0.0, 0.0, 0.0, 0.0, 1.730919631972862E9, 0.0, 2024-11-06 16:00:31.972
195.0, -8964.815314390102, -8395.85165928026, -6582.007596732092, -6654.0472691115465, -5506.665170987269, -8032.792274092708, -9307.311094678771, -8098.305237091213, 0.004, 0.976, 0.178, 192.0, 0.0, 0.0, 0.0, 0.0, 0.0, 0.0, 0.0, 0.0, 0.0, 1.7309196319768136E9, 0.0, 2024-11-06 16:00:31.976
196.0, -8946.24101474774, -8376.249179392957, -6557.465381320165, -6674.499115288153, -5516.2317176141405, -8021.974029776339, -9296.246981173395, -8111.537469808754, 0.004, 0.976, 0.178, 192.0, 0.0, 0.0, 0.0, 0.0, 0.0, 0.0, 0.0, 0.0, 0.0, 1.7309196319809244E9, 0.0, 2024-11-06 16:00:31.980
197.0, -8978.941616885855, -8408.592153619786, -6580.599436831408, -6661.870379670904, -5489.163755078764, -8018.822433808141, -9285.808716512765, -8098.707568491408, 0.004, 0.976, 0.178, 192.0, 0.0, 0.0, 0.0, 0.0, 0.0, 0.0, 0.0, 0.0, 0.0, 1.7309196319858208E9, 0.0, 2024-11-06 16:00:31.985
198.0, -9002.478003797294, -8433.514348687453, -6609.321428456477, -6640.792684649549, -5476.914999117255, -8030.355933947079, -9296.671664318046, -8084.670672973475, 0.004, 0.984, 0.178, 192.0, 0.0, 32.0, 30.0, 192.0, 5.0, 144.0, 0.0, 0.0, 0.0, 1.7309196319900265E9, 0.0, 2024-11-06 16:00:31.990
199.0, -8971.073802837587, -8403.51830762843, -6588.646064835319, -6649.286347542567, -5501.077234873443, -8033.842806082107, -9307.8475365457, -8093.924295177972, 0.004, 0.984, 0.178, 192.0, 0.0, 0.0, 0.0, 0.0, 0.0, 0.0, 0.0, 0.0, 0.0, 1.7309196319928503E9, 0.0, 2024-11-06 16:00:31.992
200.0, -8942.396514701428, -8374.617502047719, -6556.3701458418545, -6670.475801286198, -5515.13648213583, -8021.459939653867, -9297.476327118437, -8107.581211040165, 0.004, 0.984, 0.178, 192.0, 0.0, 0.0, 0.0, 0.0, 0.0, 0.0, 0.0, 0.0, 0.0, 1.73091963199699E9, 0.0, 2024-11-06 16:00:31.996
201.0, -8968.123372569487, -8399.60675234875, -6570.854076248894, -6662.920911660303, -5490.884839401822, -8014.508547128266, -9283.104155433673, -8097.455870801911, 0.004, 0.984, 0.178, 192.0, 0.0, 0.0, 0.0, 0.0, 0.0, 0.0, 0.0, 0.0, 0.0, 1.7309196320007527E9, 0.0, 2024-11-06 16:00:32.000
202.0, -9000.466346796316, -8432.374409720233, -6605.298114454522, -6640.747981160639, -5473.472830471138, -8026.109102500571, -9291.59781832669, -8081.630835727554, 0.004, 0.984, 0.178, 192.0, 0.0, 0.0, 0.0, 0.0, 0.0, 0.0, 0.0, 0.0, 0.0, 1.7309196320049095E9, 0.0, 2024-11-06 16:00:32.004
203.0, -8978.136954085465, -8411.184955976601, -6594.591628860429, -6644.480722484675, -5494.528173748037, -8033.753399104286, -9305.925286522543, -8088.26930383078, 0.004, 0.984, 0.178, 192.0, 0.0, 0.0, 0.0, 0.0, 0.0, 0.0, 0.0, 0.0, 0.0, 1.730919632008979E9, 0.0, 2024-11-06 16:00:32.008
204.0, -8945.52575892517, -8378.216132905023, -6561.82397148895, -6669.715841974717, -5517.125787392353, -8025.751474589286, -9301.767862053855, -8107.17887963997, 0.004, 0.984, 0.178, 192.0, 0.0, 0.0, 0.0, 0.0, 0.0, 0.0, 0.0, 0.0, 0.0, 1.7309196320140665E9, 0.0, 2024-11-06 16:00:32.014
205.0, -8964.122410311988, -8395.292865668878, -6568.77536401455, -6669.715841974717, -5499.400854039294, -8017.1460529739925, -9287.350986880183, -8103.446138315933, 0.004, 0.984, 0.178, 192.0, 0.0, 0.0, 0.0, 0.0, 0.0, 0.0, 0.0, 0.0, 0.0, 1.7309196320169525E9, 0.0, 2024-11-06 16:00:32.016
206.0, -9000.175774118397, -8432.128540531223, -6604.962838287693, -6646.224158552189, -5476.043281083498, -8025.527957144733, -9291.307245648772, -8085.900018918517, 0.004, 0.984, 0.178, 192.0, 0.0, 0.0, 0.0, 0.0, 0.0, 0.0, 0.0, 0.0, 0.0, 1.7309196320209038E9, 0.0, 2024-11-06 16:00:32.020
207.0, -8984.417794277406, -8418.71749385804, -6601.297152197022, -6641.619699194396, -5489.074348100942, -8033.552233404188, -9305.098271977697, -8085.877667174062, 0.004, 0.984, 0.178, 192.0, 0.0, 0.0, 0.0, 0.0, 0.0, 0.0, 0.0, 0.0, 0.0, 1.7309196320248296E9, 0.0, 2024-11-06 16:00:32.024
208.0, -8944.117599024486, -8378.484353838487, -6563.366241856366, -6662.943263404759, -5512.655438501291, -8024.477425155334, -9301.477289375936, -8101.590943526143, 0.002, 1.004, 0.17400000000000002, 192.0, 0.0, 16.0, 31.0, 96.0, 5.0, 112.0, 0.0, 0.0, 0.0, 1.7309196320290012E9, 0.0, 2024-11-06 16:00:32.029
209.0, -8954.131180540464, -8387.335644642788, -6562.20395114469, -6670.676966986295, -5503.446519785705, -8015.648486095487, -9288.043890958297, -8103.759062738307, 0.002, 1.004, 0.17400000000000002, 192.0, 0.0, 0.0, 0.0, 0.0, 0.0, 0.0, 0.0, 0.0, 0.0, 1.7309196320329864E9, 0.0, 2024-11-06 16:00:32.032
210.0, -8994.565486260115, -8427.591136406796, -6598.100852739913, -6649.107533586924, -5477.473792728638, -8021.974029776339, -9289.094422947695, -8086.5258677632655, 0.002, 1.004, 0.17400000000000002, 192.0, 0.0, 0.0, 0.0, 0.0, 0.0, 0.0, 0.0, 0.0, 0.0, 1.7309196320367217E9, 0.0, 2024-11-06 16:00:32.036
211.0, -8989.759861202225, -8424.730113116517, -6604.0911202539355, -6638.669268926295, -5483.575818964937, -8031.898204314495, -9303.399539399094, -8082.144925850025, 0.002, 1.004, 0.17400000000000002, 192.0, 0.0, 0.0, 0.0, 0.0, 0.0, 0.0, 0.0, 0.0, 0.0, 1.7309196320420222E9, 0.0, 2024-11-06 16:00:32.042
212.0, -8949.213796760298, -8384.631083563696, -6568.9318262257375, -6659.389336036365, -5510.755540222591, -8027.584317634621, -9305.433548144525, -8099.311065591702, 0.002, 1.004, 0.17400000000000002, 192.0, 0.0, 0.0, 0.0, 0.0, 0.0, 0.0, 0.0, 0.0, 0.0, 1.730919632044841E9, 0.0, 2024-11-06 16:00:32.044
213.0, -8946.688049636847, -8380.831287006295, -6555.967814441659, -6670.699318730751, -5506.151080864797, -8015.201451206381, -9289.876734003632, -8104.384911583056, 0.002, 1.004, 0.17400000000000002, 192.0, 0.0, 0.0, 0.0, 0.0, 0.0, 0.0, 0.0, 0.0, 0.0, 1.73091963204897E9, 0.0, 2024-11-06 16:00:32.048
214.0, -8986.228285578285, -8420.170357247634, -6589.1825067022455, -6651.074487098991, -5478.010234595566, -8017.570736118643, -9285.562847323758, -8087.777565452763, 0.002, 1.004, 0.17400000000000002, 192.0, 0.0, 0.0, 0.0, 0.0, 0.0, 0.0, 0.0, 0.0, 0.0, 1.730919632052943E9, 0.0, 2024-11-06 16:00:32.052
215.0, -8992.866753681512, -8428.105226529267, -6605.543983643531, -6635.830597380472, -5477.451440984183, -8028.657201368475, -9299.17505969704, -8079.060385115193, 0.002, 1.004, 0.17400000000000002, 192.0, 0.0, 0.0, 0.0, 0.0, 0.0, 0.0, 0.0, 0.0, 0.0, 1.7309196320568025E9, 0.0, 2024-11-06 16:00:32.056
216.0, -8951.806599117113, -8387.648569065163, -6572.150477427302, -6651.0521353545355, -5503.245354085607, -8024.790349577707, -9302.661931832068, -8091.93498992145, 0.002, 1.004, 0.17400000000000002, 192.0, 0.0, 0.0, 0.0, 0.0, 0.0, 0.0, 0.0, 0.0, 0.0, 1.730919632060826E9, 0.0, 2024-11-06 16:00:32.060
217.0, -8939.893119322434, -8374.125763669701, -6551.832741717428, -6668.218275096211, -5507.223964598652, -8013.122738972037, -9289.094422947695, -8102.015626670794, 0.002, 1.004, 0.17400000000000002, 192.0, 0.0, 0.0, 0.0, 0.0, 0.0, 0.0, 0.0, 0.0, 0.0, 1.7309196320649579E9, 0.0, 2024-11-06 16:00:32.064
218.0, -8977.511105240716, -8410.827328065316, -6581.180582187246, -6653.60023422244, -5480.379519507828, -8013.6815325834195, -9282.277140888827, -8088.448117786422, 0.006, 1.014, 0.176, 192.0, 0.0, 48.0, 31.0, 176.0, 5.0, 128.0, 0.0, 0.0, 0.0, 1.7309196320709553E9, 0.0, 2024-11-06 16:00:32.070
219.0, -8995.817183949612, -8430.318049230344, -6606.773329588572, -6635.987059591658, -5474.299845015985, -8027.226689723336, -9296.582257340224, -8077.831039170152, 0.006, 1.014, 0.176, 192.0, 0.0, 0.0, 0.0, 0.0, 0.0, 0.0, 0.0, 0.0, 0.0, 1.7309196320740843E9, 0.0, 2024-11-06 16:00:32.074
220.0, -8962.177808544375, -8397.483336625497, -6583.058128721492, -6649.956899876225, -5502.0830633739315, -8030.199471735892, -9307.489908634414, -8091.756175965807, 0.006, 1.014, 0.176, 192.0, 0.0, 0.0, 0.0, 0.0, 0.0, 0.0, 0.0, 0.0, 0.0, 1.7309196320779893E9, 0.0, 2024-11-06 16:00:32.077
221.0, -8938.931994310857, -8373.388156102677, -6554.000860929592, -6669.067641385513, -5510.979057667143, -8016.58725936261, -9294.592952083702, -8103.669655760486, 0.006, 1.014, 0.176, 192.0, 0.0, 0.0, 0.0, 0.0, 0.0, 0.0, 0.0, 0.0, 0.0, 1.730919632080959E9, 0.0, 2024-11-06 16:00:32.080
222.0, -8969.665642936903, -8403.294790183878, -6574.58681757293, -6658.025879624592, -5484.313426531962, -8011.8039860491745, -9282.523010077835, -8091.756175965807, 0.006, 1.014, 0.176, 192.0, 0.0, 0.0, 0.0, 0.0, 0.0, 0.0, 0.0, 0.0, 0.0, 1.7309196320849E9, 0.0, 2024-11-06 16:00:32.084
223.0, -8995.25839033823, -8430.116883530245, -6604.78402433205, -6635.808245636016, -5470.053013569476, -8022.845747810095, -9292.536591593813, -8076.60169322511, 0.006, 1.014, 0.176, 192.0, 0.0, 0.0, 0.0, 0.0, 0.0, 0.0, 0.0, 0.0, 0.0, 1.7309196320888925E9, 0.0, 2024-11-06 16:00:32.088
224.0, -8967.117544068999, -8403.071272739324, -6587.215553190178, -6643.0725625839905, -5493.522345247548, -8028.277221712736, -9304.807699299778, -8085.631797985054, 0.006, 1.014, 0.176, 192.0, 0.0, 0.0, 0.0, 0.0, 0.0, 0.0, 0.0, 0.0, 0.0, 1.7309196320930483E9, 0.0, 2024-11-06 16:00:32.093
225.0, -8938.95434605531, -8374.438688092076, -6555.699593508196, -6667.503019273641, -5511.873127445356, -8019.068302997149, -9297.677492818535, -8103.110862149104, 0.006, 1.014, 0.176, 192.0, 0.0, 0.0, 0.0, 0.0, 0.0, 0.0, 0.0, 0.0, 0.0, 1.730919632098022E9, 0.0, 2024-11-06 16:00:32.098
226.0, -8964.636500434459, -8398.936200015092, -6569.825896003949, -6664.530237261086, -5491.80126092449, -8013.815643050152, -9285.071108945742, -8097.478222546366, 0.006, 1.014, 0.176, 192.0, 0.0, 0.0, 0.0, 0.0, 0.0, 0.0, 0.0, 0.0, 0.0, 1.7309196321013336E9, 0.0, 2024-11-06 16:00:32.101
227.0, -8999.59462876256, -8434.319011487843, -6606.259239466101, -6642.960803861714, -5473.316368259951, -8025.818529822652, -9292.894219505099, -8082.636664228042, 0.006, 1.014, 0.176, 192.0, 0.0, 0.0, 0.0, 0.0, 0.0, 0.0, 0.0, 0.0, 0.0, 1.730919632104406E9, 0.0, 2024-11-06 16:00:32.104
228.0, -8978.852209908035, -8414.940049045092, -6597.564410872986, -6643.631356195374, -5491.354226035384, -8033.306364215179, -9306.975818511943, -8087.129364863559, 0.006, 1.002, 0.176, 192.0, 0.0, 48.0, 31.0, 80.0, 5.0, 128.0, 0.0, 0.0, 0.0, 1.7309196321089723E9, 0.0, 2024-11-06 16:00:32.108
229.0, -8942.731790868258, -8378.484353838487, -6562.1815994002345, -6666.944225662259, -5513.460101301683, -8023.82922456613, -9302.393710898605, -8104.384911583056, 0.006, 1.002, 0.176, 192.0, 0.0, 0.0, 0.0, 0.0, 0.0, 0.0, 0.0, 0.0, 0.0, 1.7309196321130283E9, 0.0, 2024-11-06 16:00:32.113
230.0, -8958.10979105351, -8392.253028422956, -6565.6461197908075, -6668.777068707594, -5497.433900527228, -8014.195622705892, -9286.658082802067, -8101.4121295705, 0.006, 1.002, 0.176, 192.0, 0.0, 0.0, 0.0, 0.0, 0.0, 0.0, 0.0, 0.0, 0.0, 1.730919632117077E9, 0.0, 2024-11-06 16:00:32.117
231.0, -8995.504259527237, -8430.094531785791, -6601.297152197022, -6645.0618678405135, -5472.489353715105, -8021.281125698224, -9288.60268456968, -8082.927236905961, 0.006, 1.002, 0.176, 192.0, 0.0, 0.0, 0.0, 0.0, 0.0, 0.0, 0.0, 0.0, 0.0, 1.730919632121133E9, 0.0, 2024-11-06 16:00:32.121
232.0, -8986.25063732274, -8421.80203459287, -6603.532326642553, -6640.725629416183, -5485.542772477004, -8032.2334804813245, -9304.427719644036, -8083.55308575071, 0.006, 1.002, 0.176, 192.0, 0.0, 0.0, 0.0, 0.0, 0.0, 0.0, 0.0, 0.0, 0.0, 1.7309196321251647E9, 0.0, 2024-11-06 16:00:32.125
233.0, -8945.995145558732, -8381.077156195302, -6565.869637235361, -6661.803324437538, -5510.2414501001185, -8024.432721666422, -9302.304303920782, -8099.601638269621, 0.006, 1.002, 0.176, 192.0, 0.0, 0.0, 0.0, 0.0, 0.0, 0.0, 0.0, 0.0, 0.0, 1.7309196321280746E9, 0.0, 2024-11-06 16:00:32.128
234.0, -8953.035945062154, -8387.134478942691, -6561.600454044396, -6671.883961186882, -5503.491223274616, -8015.3802651620235, -9288.781498525323, -8103.535545293755, 0.006, 1.002, 0.176, 192.0, 0.0, 0.0, 0.0, 0.0, 0.0, 0.0, 0.0, 0.0, 0.0, 1.7309196321321716E9, 0.0, 2024-11-06 16:00:32.132
235.0, -8993.82787869309, -8427.926412573626, -6597.139727728335, -6651.186245821267, -5477.004406095077, -8021.30347744268, -9287.954483980475, -8087.017606141282, 0.006, 1.002, 0.176, 192.0, 0.0, 0.0, 0.0, 0.0, 0.0, 0.0, 0.0, 0.0, 0.0, 1.730919632137015E9, 0.0, 2024-11-06 16:00:32.137
236.0, -8994.87841068249, -8430.206290508067, -6607.935620300248, -6640.770332905095, -5482.748804420091, -8033.753399104286, -9303.332484165727, -8083.21780958388, 0.006, 1.002, 0.176, 192.0, 0.0, 0.0, 0.0, 0.0, 0.0, 0.0, 0.0, 0.0, 0.0, 1.730919632141013E9, 0.0, 2024-11-06 16:00:32.141
237.0, -8956.545168941639, -8392.297731911865, -6575.413832117776, -6662.138600604368, -5511.8284239564455, -8031.518224658755, -9307.914591779065, -8101.635647015053, 0.006, 1.002, 0.176, 192.0, 0.0, 0.0, 0.0, 0.0, 0.0, 0.0, 0.0, 0.0, 0.0, 1.730919632145105E9, 0.0, 2024-11-06 16:00:32.145
238.0, -8951.62778516147, -8386.262760908934, -6561.131067410835, -6676.488420544675, -5510.554374522492, -8019.671800097442, -9293.631827072124, -8109.235240129858, 0.004, 0.972, 0.178, 192.0, 0.0, 32.0, 30.0, 96.0, 5.0, 144.0, 0.0, 0.0, 0.0, 1.7309196321491115E9, 0.0, 2024-11-06 16:00:32.149
239.0, -8988.888143168468, -8423.23254623801, -6591.462384636687, -6656.640071468362, -5480.55833346347, -8019.560041375165, -9286.769841524345, -8091.711472476897, 0.004, 0.972, 0.178, 192.0, 0.0, 0.0, 0.0, 0.0, 0.0, 0.0, 0.0, 0.0, 0.0, 1.7309196321529715E9, 0.0, 2024-11-06 16:00:32.152
240.0, -9001.092195641064, -8436.353020233277, -6612.383617446854, -6641.977327105681, -5479.574856707437, -8033.328715959635, -9302.147841709595, -8084.536562506743, 0.004, 0.972, 0.178, 192.0, 0.0, 0.0, 0.0, 0.0, 0.0, 0.0, 0.0, 0.0, 0.0, 1.7309196321561108E9, 0.0, 2024-11-06 16:00:32.156
241.0, -8962.691898666848, -8398.46681338153, -6582.700500810207, -6657.534141246574, -5506.70987447618, -8032.389942692512, -9308.383978412627, -8099.020492913783, 0.004, 0.972, 0.178, 192.0, 0.0, 0.0, 0.0, 0.0, 0.0, 0.0, 0.0, 0.0, 0.0, 1.7309196321601093E9, 0.0, 2024-11-06 16:00:32.160
242.0, -8945.145779269431, -8379.713699783528, -6558.046526676003, -6674.096783887957, -5511.09081638942, -8018.4424541524, -9293.83299277222, -8108.452929073922, 0.004, 0.972, 0.178, 192.0, 0.0, 0.0, 0.0, 0.0, 0.0, 0.0, 0.0, 0.0, 0.0, 1.7309196321651149E9, 0.0, 2024-11-06 16:00:32.165
243.0, -8980.282721553174, -8413.911868800149, -6583.460460121687, -6659.8587226699265, -5483.151135820286, -8016.520204129244, -9284.333501378716, -8094.661902744998, 0.004, 0.972, 0.178, 192.0, 0.0, 0.0, 0.0, 0.0, 0.0, 0.0, 0.0, 0.0, 0.0, 1.7309196321691654E9, 0.0, 2024-11-06 16:00:32.169
244.0, -9001.78509971918, -8436.308316744366, -6610.707236612706, -6640.569167204996, -5474.3221967604395, -8029.215994979859, -9297.006940484875, -8082.659015972497, 0.004, 0.972, 0.178, 192.0, 0.0, 0.0, 0.0, 0.0, 0.0, 0.0, 0.0, 0.0, 0.0, 1.7309196321731203E9, 0.0, 2024-11-06 16:00:32.173
245.0, -8967.989262102756, -8403.652418095162, -6587.148497956812, -6650.850969654438, -5499.602019739392, -8031.026486280738, -9306.685245834024, -8093.36550156659, 0.004, 0.972, 0.178, 192.0, 0.0, 0.0, 0.0, 0.0, 0.0, 0.0, 0.0, 0.0, 0.0, 1.7309196321770484E9, 0.0, 2024-11-06 16:00:32.177
246.0, -8941.793017601136, -8376.60680730424, -6555.476076063643, -6670.676966986295, -5511.001409411599, -8017.526032629733, -9294.592952083702, -8106.083644161659, 0.004, 0.972, 0.178, 192.0, 0.0, 0.0, 0.0, 0.0, 0.0, 0.0, 0.0, 0.0, 0.0, 1.7309196321811533E9, 0.0, 2024-11-06 16:00:32.181
247.0, -8971.833762149068, -8405.597019862775, -6574.050375706002, -6662.853856426937, -5487.107394588876, -8013.480366883322, -9283.104155433673, -8096.718263234886, 0.004, 0.972, 0.178, 192.0, 0.0, 0.0, 0.0, 0.0, 0.0, 0.0, 0.0, 0.0, 0.0, 1.73091963218406E9, 0.0, 2024-11-06 16:00:32.184
248.0, -9001.583934019081, -8436.19655802209, -6606.885088310849, -6641.507940472119, -5471.751746148079, -8025.751474589286, -9293.11773694965, -8082.189629338936, 0.004, 0.972, 0.178, 192.0, 0.0, 0.0, 30.0, 112.0, 5.0, 144.0, 0.0, 0.0, 0.0, 1.7309196321881156E9, 0.0, 2024-11-06 16:00:32.188
249.0, -8977.39934651844, -8413.263668210944, -6594.0551869935025, -6648.302870786532, -5495.355188292884, -8033.038143281716, -9307.959295267976, -8091.152678865515, 0.004, 0.972, 0.178, 192.0, 0.0, 0.0, 0.0, 0.0, 0.0, 0.0, 0.0, 0.0, 0.0, 1.7309196321931307E9, 0.0, 2024-11-06 16:00:32.193
250.0, -8946.48688393675, -8381.591246317774, -6561.689861022218, -6672.778030965094, -5515.985848425133, -8024.052742010683, -9302.304303920782, -8108.609391285109, 0.004, 0.972, 0.178, 192.0, 0.0, 0.0, 0.0, 0.0, 0.0, 0.0, 0.0, 0.0, 0.0, 1.7309196321970751E9, 0.0, 2024-11-06 16:00:32.197
251.0, -8969.598587703536, -8403.831232050805, -6573.625692561352, -6672.532161776086, -5498.551487749993, -8019.11300648606, -9290.03319621482, -8104.764891238796, 0.004, 0.972, 0.178, 192.0, 0.0, 0.0, 0.0, 0.0, 0.0, 0.0, 0.0, 0.0, 0.0, 1.7309196322011027E9, 0.0, 2024-11-06 16:00:32.201
252.0, -9004.333198587085, -8439.079933056824, -6609.030855778558, -6649.018126609102, -5477.093813072898, -8028.657201368475, -9295.464670117459, -8087.397585797023, 0.004, 0.972, 0.178, 192.0, 0.0, 0.0, 0.0, 0.0, 0.0, 0.0, 0.0, 0.0, 0.0, 1.7309196322051828E9, 0.0, 2024-11-06 16:00:32.205
253.0, -8986.228285578285, -8422.114959015245, -6602.682960353251, -6646.894710885848, -5492.672978958247, -8035.854463083085, -9309.099234235196, -8089.409242798, 0.004, 0.972, 0.178, 192.0, 0.0, 0.0, 0.0, 0.0, 0.0, 0.0, 0.0, 0.0, 0.0, 1.7309196322091606E9, 0.0, 2024-11-06 16:00:32.209
254.0, -8948.990279315743, -8384.273455652412, -6566.428430846743, -6670.028766397091, -5516.343476336418, -8027.1819862344255, -9305.724120822444, -8106.776548239774, 0.004, 0.972, 0.178, 192.0, 0.0, 0.0, 0.0, 0.0, 0.0, 0.0, 0.0, 0.0, 0.0, 1.7309196322120893E9, 0.0, 2024-11-06 16:00:32.212
255.0, -8960.702593410326, -8394.689368568585, -6566.651948291296, -6673.8285629544935, -5502.507746518582, -8017.056645996171, -9290.413175870559, -8105.524850550277, 0.004, 0.972, 0.178, 192.0, 0.0, 0.0, 0.0, 0.0, 0.0, 0.0, 0.0, 0.0, 0.0, 1.7309196322161424E9, 0.0, 2024-11-06 16:00:32.216
0.0, -9000.198125862853, -8434.274307998932, -6603.264105709089, -6651.677984199284, -5477.496144473093, -8024.522128644244, -9292.357777638172, -8088.26930383078, 0.004, 0.972, 0.178, 192.0, 0.0, 0.0, 0.0, 0.0, 0.0, 0.0, 0.0, 0.0, 0.0, 1.7309196322210343E9, 0.0, 2024-11-06 16:00:32.221
1.0, -8993.716119970813, -8429.088703285302, -6607.712102855695, -6644.883053884871, -5487.956760878177, -8035.630945638532, -9307.959295267976, -8087.039957885738, 0.004, 0.972, 0.178, 192.0, 0.0, 0.0, 0.0, 0.0, 0.0, 0.0, 0.0, 0.0, 0.0, 1.730919632225217E9, 0.0, 2024-11-06 16:00:32.225
2.0, -8952.566558428593, -8387.961493487537, -6570.675262293251, -6665.3125483170215, -5513.482453046138, -8028.768960090752, -9306.774652811844, -8103.088510404648, 0.002, 0.984, 0.176, 192.0, 0.0, 16.0, 30.0, 192.0, 5.0, 128.0, 0.0, 0.0, 0.0, 1.73091963222918E9, 0.0, 2024-11-06 16:00:32.229
3.0, -8956.366354985996, -8390.554295844353, -6563.500352323098, -6677.5836560229845, -5509.61560125537, -8019.82826230863, -9293.542420094302, -8109.011722685304, 0.002, 0.984, 0.176, 192.0, 0.0, 0.0, 0.0, 0.0, 0.0, 0.0, 0.0, 0.0, 0.0, 1.7309196322329977E9, 0.0, 2024-11-06 16:00:32.232
4.0, -8997.180640361386, -8431.368581219744, -6598.436128906743, -6657.958824391226, -5482.860563142367, -8024.700942599887, -9291.441356115503, -8092.829059699662, 0.002, 0.984, 0.176, 192.0, 0.0, 0.0, 0.0, 0.0, 0.0, 0.0, 0.0, 0.0, 0.0, 1.7309196322371662E9, 0.0, 2024-11-06 16:00:32.237
5.0, -8998.387634561972, -8434.073142298836, -6609.410835434299, -6642.536120717064, -5483.173487564742, -8033.909861315473, -9303.645408588101, -8084.201286339914, 0.002, 0.984, 0.176, 192.0, 0.0, 0.0, 0.0, 0.0, 0.0, 0.0, 0.0, 0.0, 0.0, 1.73091963224023E9, 0.0, 2024-11-06 16:00:32.240
6.0, -8959.00386083172, -8394.979941246504, -6577.470192607665, -6661.535103504075, -5511.694313489713, -8031.5852798921205, -9308.629847601635, -8100.875687703573, 0.002, 0.984, 0.176, 192.0, 0.0, 0.0, 0.0, 0.0, 0.0, 0.0, 0.0, 0.0, 0.0, 1.7309196322441704E9, 0.0, 2024-11-06 16:00:32.244
7.0, -8950.286680494151, -8385.011063219436, -6560.035831932525, -6677.158972878334, -5513.147176879308, -8019.604744864077, -9294.592952083702, -8109.548164552232, 0.002, 0.984, 0.176, 192.0, 0.0, 0.0, 0.0, 0.0, 0.0, 0.0, 0.0, 0.0, 0.0, 1.7309196322481048E9, 0.0, 2024-11-06 16:00:32.248
8.0, -8986.45180302284, -8420.438578181098, -6588.377843901854, -6658.383507535877, -5483.03937709801, -8018.531861130222, -9286.166344424051, -8092.359673066101, 0.002, 0.984, 0.176, 192.0, 0.0, 0.0, 0.0, 0.0, 0.0, 0.0, 0.0, 0.0, 0.0, 1.7309196322531576E9, 0.0, 2024-11-06 16:00:32.253
9.0, -8999.773442718202, -8434.900156843682, -6609.701408112217, -6640.323298015988, -5477.451440984183, -8030.4453409249, -9299.085652719219, -8081.407318283001, 0.002, 0.984, 0.176, 192.0, 0.0, 0.0, 0.0, 0.0, 0.0, 0.0, 0.0, 0.0, 0.0, 1.7309196322571108E9, 0.0, 2024-11-06 16:00:32.257
10.0, -8963.29539576714, -8399.271476181922, -6582.074651965458, -6654.427248767287, -5504.1394238638195, -8030.847672325096, -9306.88641153412, -8094.773661467274, 0.002, 0.984, 0.176, 192.0, 0.0, 0.0, 0.0, 0.0, 0.0, 0.0, 0.0, 0.0, 0.0, 1.7309196322603068E9, 0.0, 2024-11-06 16:00:32.260
11.0, -8945.10107578052, -8379.758403272439, -6557.15245689779, -6674.432060054786, -5512.9460111792105, -8019.269468697246, -9295.241152672907, -8107.469452317889, 0.002, 0.984, 0.176, 192.0, 0.0, 0.0, 0.0, 0.0, 0.0, 0.0, 0.0, 0.0, 0.0, 1.7309196322641828E9, 0.0, 2024-11-06 16:00:32.264
12.0, -8978.11460234101, -8411.721397843528, -6580.152401942301, -6661.646862226351, -5485.7662899215575, -8016.117872729048, -9284.445260100993, -8094.5054405338105, 0.01, 0.988, 0.176, 192.0, 0.0, 80.0, 30.0, 224.0, 5.0, 128.0, 0.0, 0.0, 0.0, 1.730919632268124E9, 0.0, 2024-11-06 16:00:32.268
13.0, -9001.919210185912, -8437.090627800302, -6609.2543732231115, -6641.239719538656, -5474.545714204993, -8028.746608346297, -9295.956408495476, -8081.429670027455, 0.01, 0.988, 0.176, 192.0, 0.0, 0.0, 0.0, 0.0, 0.0, 0.0, 0.0, 0.0, 0.0, 1.730919632272277E9, 0.0, 2024-11-06 16:00:32.272
14.0, -8972.459610993816, -8408.90507804216, -6590.2553904361, -6651.722687688195, -5500.786662195524, -8033.9322130599285, -9308.763958068366, -8093.186687610947, 0.01, 0.988, 0.176, 192.0, 0.0, 0.0, 0.0, 0.0, 0.0, 0.0, 0.0, 0.0, 0.0, 1.7309196322763166E9, 0.0, 2024-11-06 16:00:32.276
15.0, -8944.139950768942, -8379.89251373917, -6557.755953998084, -6673.046251898558, -5515.09177864692, -8021.437587909411, -9298.54921085229, -8107.5365075512545, 0.01, 0.988, 0.176, 192.0, 0.0, 0.0, 0.0, 0.0, 0.0, 0.0, 0.0, 0.0, 0.0, 1.7309196322814193E9, 0.0, 2024-11-06 16:00:32.281
16.0, -8971.54318947115, -8406.178165218613, -6573.916265239271, -6666.988929151169, -5492.5165167470595, -8016.050817495682, -9285.898123490588, -8099.355769080612, 0.01, 0.988, 0.176, 192.0, 0.0, 0.0, 0.0, 0.0, 0.0, 0.0, 0.0, 0.0, 0.0, 1.7309196322852592E9, 0.0, 2024-11-06 16:00:32.285
17.0, -9005.763710232224, -8440.555148190875, -6610.662533123796, -6647.140580074857, -5477.406737495272, -8029.819492080152, -9296.671664318046, -8086.279998574258, 0.01, 0.988, 0.176, 192.0, 0.0, 0.0, 0.0, 0.0, 0.0, 0.0, 0.0, 0.0, 0.0, 1.730919632288234E9, 0.0, 2024-11-06 16:00:32.288
18.0, -8982.182619831876, -8418.181051991112, -6598.883163795849, -6649.867492898405, -5497.322141804951, -8036.2791462277355, -9309.7474348244, -8092.002045154816, 0.01, 0.988, 0.176, 192.0, 0.0, 0.0, 0.0, 0.0, 0.0, 0.0, 0.0, 0.0, 0.0, 1.7309196322922516E9, 0.0, 2024-11-06 16:00:32.292
19.0, -8946.442180447839, -8382.03828120688, -6562.695689522707, -6671.79455420906, -5516.790511225523, -8024.924460044439, -9302.17019345405, -8107.60356278462, 0.01, 0.988, 0.176, 192.0, 0.0, 0.0, 0.0, 0.0, 0.0, 0.0, 0.0, 0.0, 0.0, 1.7309196322963018E9, 0.0, 2024-11-06 16:00:32.296
20.0, -8965.351756257029, -8399.830269793305, -6570.272930893056, -6672.174533864801, -5499.80318543949, -8017.101349485082, -9287.954483980475, -8103.9602284384055, 0.01, 0.988, 0.176, 192.0, 0.0, 0.0, 0.0, 0.0, 0.0, 0.0, 0.0, 0.0, 0.0, 1.7309196323001864E9, 0.0, 2024-11-06 16:00:32.300
21.0, -9002.902686941945, -8438.029401067424, -6607.198012733223, -6649.800437665038, -5477.674958428736, -8026.869061812051, -9293.02832997183, -8087.397585797023, 0.01, 0.988, 0.176, 192.0, 0.0, 0.0, 0.0, 0.0, 0.0, 0.0, 0.0, 0.0, 0.0, 1.7309196323042803E9, 0.0, 2024-11-06 16:00:32.304
22.0, -8987.837611179068, -8424.126616016223, -6603.644085364829, -6645.441847496253, -5490.8177841684565, -8035.16155900497, -9307.266391189862, -8087.822268941673, 0.01, 0.986, 0.176, 192.0, 0.0, 80.0, 30.0, 208.0, 5.0, 128.0, 0.0, 0.0, 0.0, 1.7309196323092556E9, 0.0, 2024-11-06 16:00:32.309
23.0, -8945.592814158537, -8381.546542828864, -6564.01444244557, -6664.731402961183, -5511.962534423177, -8023.963335032861, -9301.879620776132, -8101.970923181882, 0.01, 0.986, 0.176, 192.0, 0.0, 0.0, 0.0, 0.0, 0.0, 0.0, 0.0, 0.0, 0.0, 1.7309196323132844E9, 0.0, 2024-11-06 16:00:32.313
24.0, -8954.220587518286, -8388.90026675466, -6561.578102299942, -6670.945187919759, -5500.697255217702, -8013.815643050152, -9286.74748977989, -8102.641475515542, 0.01, 0.986, 0.176, 192.0, 0.0, 0.0, 0.0, 0.0, 0.0, 0.0, 0.0, 0.0, 0.0, 1.7309196323164053E9, 0.0, 2024-11-06 16:00:32.316
25.0, -8994.856058938034, -8429.580441663318, -6598.056149251002, -6649.867492898405, -5475.0821560719205, -8020.811739064663, -9287.686263047011, -8085.944722407427, 0.01, 0.986, 0.176, 192.0, 0.0, 0.0, 0.0, 0.0, 0.0, 0.0, 0.0, 0.0, 0.0, 1.7309196323203762E9, 0.0, 2024-11-06 16:00:32.320
26.0, -8991.168021102909, -8427.322915473333, -6605.231059221156, -6640.636222438362, -5482.681749186725, -8031.697038614398, -9302.684283576524, -8082.860181672595, 0.01, 0.986, 0.176, 192.0, 0.0, 0.0, 0.0, 0.0, 0.0, 0.0, 0.0, 0.0, 0.0, 1.730919632324131E9, 0.0, 2024-11-06 16:00:32.324
27.0, -8950.890177594445, -8387.022720220413, -6570.071765192958, -6661.400993037342, -5510.107339633387, -8026.980820534328, -9304.762995810866, -8100.093376647637, 0.01, 0.986, 0.176, 192.0, 0.0, 0.0, 0.0, 0.0, 0.0, 0.0, 0.0, 0.0, 0.0, 1.7309196323303452E9, 0.0, 2024-11-06 16:00:32.330
28.0, -8951.784247372658, -8386.486278353486, -6560.885198221827, -6676.13079263339, -5508.945048921711, -8018.285991941213, -9292.670702060544, -8108.296466862735, 0.01, 0.986, 0.176, 192.0, 0.0, 0.0, 0.0, 0.0, 0.0, 0.0, 0.0, 0.0, 0.0, 1.7309196323332603E9, 0.0, 2024-11-06 16:00:32.333
29.0, -8991.749166458747, -8425.981810806014, -6594.2563526936, -6656.908292401826, -5481.027720097032, -8021.415236164956, -9288.803850269776, -8091.979693410361, 0.01, 0.986, 0.176, 192.0, 0.0, 0.0, 0.0, 0.0, 0.0, 0.0, 0.0, 0.0, 0.0, 1.730919632337458E9, 0.0, 2024-11-06 16:00:32.337
30.0, -8997.515916528215, -8432.732037631517, -6608.852041822915, -6640.949146860737, -5479.708967174169, -8032.367590948056, -9302.237248687417, -8082.971940394872, 0.01, 0.986, 0.176, 192.0, 0.0, 0.0, 0.0, 0.0, 0.0, 0.0, 0.0, 0.0, 0.0, 1.7309196323411543E9, 0.0, 2024-11-06 16:00:32.341
31.0, -8957.618052675492, -8393.348263901265, -6576.7996402740055, -6657.489437757664, -5506.329894820439, -8030.154768246981, -9307.51226037887, -8097.187649868447, 0.01, 0.986, 0.176, 192.0, 0.0, 0.0, 0.0, 0.0, 0.0, 0.0, 0.0, 0.0, 0.0, 1.730919632344218E9, 0.0, 2024-11-06 16:00:32.344
32.0, -8946.755104870213, -8380.98774921748, -6558.225340631645, -6675.549647277552, -5510.800243711501, -8019.068302997149, -9295.218800928451, -8107.625914529075, 0.006, 0.976, 0.17400000000000002, 192.0, 0.0, 48.0, 30.0, 128.0, 5.0, 112.0, 0.0, 0.0, 0.0, 1.7309196323483036E9, 0.0, 2024-11-06 16:00:32.348
33.0, -8985.557733244626, -8419.164528747146, -6588.534306113042, -6661.758620948627, -5484.51459223206, -8020.051779753182, -9288.736795036411, -8094.371330067079, 0.006, 0.976, 0.17400000000000002, 192.0, 0.0, 0.0, 0.0, 0.0, 0.0, 0.0, 0.0, 0.0, 0.0, 1.7309196323521147E9, 0.0, 2024-11-06 16:00:32.352
34.0, -9000.086367140577, -8434.67663939913, -6610.2602017236, -6640.144484060345, -5474.255141527074, -8029.573622891144, -9298.504507363381, -8079.462716515389, 0.006, 0.976, 0.17400000000000002, 192.0, 0.0, 0.0, 0.0, 0.0, 0.0, 0.0, 0.0, 0.0, 0.0, 1.7309196323562036E9, 0.0, 2024-11-06 16:00:32.356
35.0, -8965.15059055693, -8400.61258084924, -6584.980378744648, -6652.639109210862, -5500.540793006515, -8030.847672325096, -9308.071053990252, -8091.175030609969, 0.006, 0.976, 0.17400000000000002, 192.0, 0.0, 0.0, 0.0, 0.0, 0.0, 0.0, 0.0, 0.0, 0.0, 1.73091963236044E9, 0.0, 2024-11-06 16:00:32.360
36.0, -8945.324593225074, -8380.004272461447, -6559.3652795988655, -6675.0579088995355, -5513.527156535049, -8020.4317594089225, -9299.152707952584, -8105.636609272553, 0.006, 0.976, 0.17400000000000002, 192.0, 0.0, 0.0, 0.0, 0.0, 0.0, 0.0, 0.0, 0.0, 0.0, 1.7309196323653955E9, 0.0, 2024-11-06 16:00:32.365
37.0, -8976.639387206958, -8410.134423987201, -6579.951236242204, -6664.306719816533, -5487.889705644811, -8016.520204129244, -9287.753318280378, -8093.387853311045, 0.006, 0.976, 0.17400000000000002, 192.0, 0.0, 0.0, 0.0, 0.0, 0.0, 0.0, 0.0, 0.0, 0.0, 1.730919632369141E9, 0.0, 2024-11-06 16:00:32.369
38.0, -9001.472175296805, -8436.174206277634, -6608.762634845095, -6641.195016049745, -5472.869333370845, -8027.249041467791, -9296.246981173395, -8076.981672880849, 0.006, 0.976, 0.17400000000000002, 192.0, 0.0, 0.0, 0.0, 0.0, 0.0, 0.0, 0.0, 0.0, 0.0, 1.7309196323722513E9, 0.0, 2024-11-06 16:00:32.372
39.0, -8972.34785227154, -8408.078063497313, -6589.987169502637, -6647.565263219508, -5495.556353992982, -8031.741742103308, -9307.60166735669, -8084.916542162484, 0.006, 0.976, 0.17400000000000002, 192.0, 0.0, 0.0, 0.0, 0.0, 0.0, 0.0, 0.0, 0.0, 0.0, 1.7309196323764317E9, 0.0, 2024-11-06 16:00:32.376
40.0, -8942.642383890437, -8377.32206312681, -6557.219512131156, -6670.453449541742, -5513.102473390398, -8021.30347744268, -9299.51033586387, -8100.741577236841, 0.006, 0.976, 0.17400000000000002, 192.0, 0.0, 0.0, 0.0, 0.0, 0.0, 0.0, 0.0, 0.0, 0.0, 1.7309196323803153E9, 0.0, 2024-11-06 16:00:32.380
41.0, -8965.82114289059, -8399.047958737368, -6569.44591634821, -6665.4913622726635, -5491.3989295242945, -8014.374436661535, -9285.69695779049, -8092.806707955207, 0.006, 0.976, 0.17400000000000002, 192.0, 0.0, 0.0, 0.0, 0.0, 0.0, 0.0, 0.0, 0.0, 0.0, 1.7309196323842483E9, 0.0, 2024-11-06 16:00:32.384
42.0, -8999.348759573551, -8433.559052176362, -6604.627562120862, -6643.02785909508, -5472.623464181836, -8025.349143189091, -9293.207143927473, -8076.713451947386, 0.01, 0.98, 0.168, 192.0, 0.0, 80.0, 30.0, 160.0, 5.0, 64.0, 0.0, 0.0, 0.0, 1.7309196323884048E9, 0.0, 2024-11-06 16:00:32.388
43.0, -8980.617997720003, -8416.303505456866, -6597.475003895164, -6645.59830970744, -5492.762385936068, -8034.736875860319, -9308.94277202401, -8082.83782992814, 0.01, 0.98, 0.168, 192.0, 0.0, 0.0, 0.0, 0.0, 0.0, 0.0, 0.0, 0.0, 0.0, 1.7309196323933048E9, 0.0, 2024-11-06 16:00:32.393
44.0, -8944.542282169137, -8380.09367943927, -6561.578102299942, -6668.821772196505, -5514.778854224545, -8025.662067611464, -9303.846574288198, -8099.758100480807, 0.01, 0.98, 0.168, 192.0, 0.0, 0.0, 0.0, 0.0, 0.0, 0.0, 0.0, 0.0, 0.0, 1.730919632396446E9, 0.0, 2024-11-06 16:00:32.396
45.0, -8961.529607955172, -8395.874011024716, -6566.808410502483, -6672.2415890981665, -5500.607848239881, -8017.950715774384, -9290.256713659372, -8098.416995813489, 0.01, 0.98, 0.168, 192.0, 0.0, 0.0, 0.0, 0.0, 0.0, 0.0, 0.0, 0.0, 0.0, 1.730919632400206E9, 0.0, 2024-11-06 16:00:32.400
46.0, -8999.281704340185, -8434.162549276656, -6602.8617743088935, -6649.129885331379, -5475.953874105678, -8025.751474589286, -9292.715405549456, -8080.5356002492435, 0.01, 0.98, 0.168, 192.0, 0.0, 0.0, 0.0, 0.0, 0.0, 0.0, 0.0, 0.0, 0.0, 1.7309196324043925E9, 0.0, 2024-11-06 16:00:32.404
47.0, -8985.289512311163, -8421.556165403863, -6599.598419618419, -6640.122132315891, -5484.268723043051, -8031.898204314495, -9304.092443477208, -8076.825210669663, 0.01, 0.98, 0.168, 192.0, 0.0, 0.0, 0.0, 0.0, 0.0, 0.0, 0.0, 0.0, 0.0, 1.730919632408338E9, 0.0, 2024-11-06 16:00:32.408
48.0, -8946.218663003287, -8382.060632951336, -6562.96391045617, -6662.138600604368, -5509.9508774221995, -8024.63388736652, -9303.064263232263, -8094.17016436698, 0.01, 0.98, 0.168, 192.0, 0.0, 0.0, 0.0, 0.0, 0.0, 0.0, 0.0, 0.0, 0.0, 1.7309196324123325E9, 0.0, 2024-11-06 16:00:32.412
49.0, -8951.9630613283, -8386.285112653388, -6557.800657486994, -6670.520504775108, -5501.077234873443, -8013.905050027973, -9288.133297936118, -8096.606504512609, 0.01, 0.98, 0.168, 192.0, 0.0, 0.0, 0.0, 0.0, 0.0, 0.0, 0.0, 0.0, 0.0, 1.7309196324163008E9, 0.0, 2024-11-06 16:00:32.416
50.0, -8991.033910636177, -8425.065389283347, -6592.356454414899, -6648.213463808712, -5472.7352229041135, -8017.906012285473, -9285.674606046034, -8078.0769083591595, 0.01, 0.98, 0.168, 192.0, 0.0, 0.0, 0.0, 0.0, 0.0, 0.0, 0.0, 0.0, 0.0, 1.7309196324213593E9, 0.0, 2024-11-06 16:00:32.421
51.0, -8992.486774025772, -8427.792302106895, -6604.828727820961, -6638.98219334867, -5479.932484618722, -8031.227651980836, -9302.55017310979, -8075.104126346604, 0.01, 0.98, 0.168, 192.0, 0.0, 0.0, 0.0, 0.0, 0.0, 0.0, 0.0, 0.0, 0.0, 1.7309196324242415E9, 0.0, 2024-11-06 16:00:32.424
52.0, -8952.030116561666, -8387.80503127635, -6570.429393104243, -6658.405859280331, -5507.581592509937, -8027.561965890166, -9305.500603377892, -8091.376196310067, 0.004, 0.982, 0.176, 192.0, 0.0, 32.0, 30.0, 176.0, 5.0, 128.0, 0.0, 0.0, 0.0, 1.7309196324273677E9, 0.0, 2024-11-06 16:00:32.427
53.0, -8946.755104870213, -8381.144211428667, -6555.4313725747315, -6672.196885609256, -5506.173432609253, -8015.849651795585, -9291.284893904316, -8098.349940580123, 0.004, 0.982, 0.176, 192.0, 0.0, 0.0, 0.0, 0.0, 0.0, 0.0, 0.0, 0.0, 0.0, 1.7309196324323697E9, 0.0, 2024-11-06 16:00:32.432
54.0, -8985.423622777895, -8419.23158398051, -6586.768518301073, -6653.533178989074, -5477.518496217549, -8017.324866929635, -9285.339329879205, -8081.6531874720085, 0.004, 0.982, 0.176, 192.0, 0.0, 0.0, 0.0, 0.0, 0.0, 0.0, 0.0, 0.0, 0.0, 1.730919632436463E9, 0.0, 2024-11-06 16:00:32.436
55.0, -8994.9231141714, -8430.161587019156, -6604.895783054327, -6636.568204947496, -5474.3221967604395, -8028.657201368475, -9298.303341663282, -8071.594902467121, 0.004, 0.982, 0.176, 192.0, 0.0, 0.0, 0.0, 0.0, 0.0, 0.0, 0.0, 0.0, 0.0, 1.7309196324403057E9, 0.0, 2024-11-06 16:00:32.440
56.0, -8957.126314297475, -8393.169449945623, -6575.704404795695, -6652.817923166504, -5502.463043029671, -8028.321925201646, -9305.902934778087, -8086.5258677632655, 0.004, 0.982, 0.176, 192.0, 0.0, 0.0, 0.0, 0.0, 0.0, 0.0, 0.0, 0.0, 0.0, 1.7309196324443347E9, 0.0, 2024-11-06 16:00:32.444
57.0, -8943.402343201917, -8378.730223027495, -6554.358488840877, -6672.755679220639, -5510.532022778038, -8017.771901818741, -9294.771766039345, -8099.176955124969, 0.004, 0.982, 0.176, 192.0, 0.0, 0.0, 0.0, 0.0, 0.0, 0.0, 0.0, 0.0, 0.0, 1.7309196324493232E9, 0.0, 2024-11-06 16:00:32.449
58.0, -8979.053375608131, -8413.442482166587, -6580.711195553684, -6659.232873825178, -5484.000502109588, -8016.251983195781, -9286.03223395732, -8085.944722407427, 0.004, 0.982, 0.176, 192.0, 0.0, 0.0, 0.0, 0.0, 0.0, 0.0, 0.0, 0.0, 0.0, 1.7309196324522884E9, 0.0, 2024-11-06 16:00:32.452
59.0, -8998.857021195534, -8434.341363232299, -6606.885088310849, -6638.9598416042145, -5474.299845015985, -8027.606669379076, -9297.588085840713, -8072.779544923252, 0.004, 0.982, 0.176, 192.0, 0.0, 0.0, 0.0, 0.0, 0.0, 0.0, 0.0, 0.0, 0.0, 1.7309196324583273E9, 0.0, 2024-11-06 16:00:32.458
60.0, -8964.412982989907, -8400.903153527159, -6582.63344557684, -6648.504036486631, -5498.70794996118, -8029.3501054465905, -9306.752301067389, -8082.793126439229, 0.004, 0.982, 0.176, 192.0, 0.0, 0.0, 0.0, 0.0, 0.0, 0.0, 0.0, 0.0, 0.0, 1.7309196324613328E9, 0.0, 2024-11-06 16:00:32.461
61.0, -8938.127331510465, -8373.52226656941, -6551.564520783963, -6668.151219862845, -5509.749711722102, -8015.827300051129, -9294.771766039345, -8095.131289378559, 0.004, 0.982, 0.176, 192.0, 0.0, 0.0, 0.0, 0.0, 0.0, 0.0, 0.0, 0.0, 0.0, 1.7309196324642797E9, 0.0, 2024-11-06 16:00:32.464
62.0, -8967.899855124933, -8401.797223305372, -6570.384689615333, -6659.74696394765, -5485.498068988093, -8010.887564526506, -9282.657120544567, -8085.050652629216, 0.002, 0.988, 0.17400000000000002, 192.0, 0.0, 16.0, 30.0, 224.0, 5.0, 112.0, 0.0, 0.0, 0.0, 1.7309196324675736E9, 0.0, 2024-11-06 16:00:32.467
63.0, -8997.895896183956, -8432.441464953597, -6604.06876850948, -6638.713972415206, -5470.969435092144, -8023.181023976926, -9293.005978227375, -8070.812591411185, 0.002, 0.988, 0.17400000000000002, 192.0, 0.0, 0.0, 0.0, 0.0, 0.0, 0.0, 0.0, 0.0, 0.0, 1.7309196324722703E9, 0.0, 2024-11-06 16:00:32.472
64.0, -8971.051451093132, -8406.513441385441, -6588.556657857497, -6642.98315560617, -5491.845964413401, -8027.718428101352, -9305.567658611257, -8077.36165253659, 0.002, 0.988, 0.17400000000000002, 192.0, 0.0, 0.0, 0.0, 0.0, 0.0, 0.0, 0.0, 0.0, 0.0, 1.7309196324763272E9, 0.0, 2024-11-06 16:00:32.476
65.0, -8938.976697799766, -8374.081060180792, -6554.291433607511, -6665.93839716177, -5510.509671033582, -8017.280163440724, -9298.07982421873, -8093.566667266688, 0.002, 0.988, 0.17400000000000002, 192.0, 0.0, 0.0, 0.0, 0.0, 0.0, 0.0, 0.0, 0.0, 0.0, 1.7309196324803767E9, 0.0, 2024-11-06 16:00:32.480
66.0, -8960.792000388146, -8395.494031368975, -6564.684994779229, -6664.150257605345, -5491.242467313107, -8010.440529637401, -9283.841763000699, -8088.559876508699, 0.002, 0.988, 0.17400000000000002, 192.0, 0.0, 0.0, 0.0, 0.0, 0.0, 0.0, 0.0, 0.0, 0.0, 1.7309196324847982E9, 0.0, 2024-11-06 16:00:32.484
67.0, -8998.409986306428, -8433.782569620917, -6602.2135737196895, -6643.340783517455, -5472.13172580382, -8022.3093059431685, -9291.374300882138, -8074.232408312847, 0.002, 0.988, 0.17400000000000002, 192.0, 0.0, 0.0, 0.0, 0.0, 0.0, 0.0, 0.0, 0.0, 0.0, 1.7309196324905667E9, 0.0, 2024-11-06 16:00:32.490
68.0, -8982.96493088781, -8419.343342702789, -6597.720873084173, -6643.720763173194, -5490.035473112521, -8031.987611292317, -9307.355798167682, -8078.903922904006, 0.002, 0.988, 0.17400000000000002, 192.0, 0.0, 0.0, 0.0, 0.0, 0.0, 0.0, 0.0, 0.0, 0.0, 1.7309196324933836E9, 0.0, 2024-11-06 16:00:32.493
69.0, -8943.62586064647, -8379.713699783528, -6559.901721465793, -6664.887865172371, -5511.895479189811, -8021.526994887233, -9302.036082987319, -8094.3936818115335, 0.002, 0.988, 0.17400000000000002, 192.0, 0.0, 0.0, 0.0, 0.0, 0.0, 0.0, 0.0, 0.0, 0.0, 1.7309196324964564E9, 0.0, 2024-11-06 16:00:32.496
70.0, -8957.528645697672, -8392.834173778794, -6563.098020922902, -6671.146353619856, -5500.674903473247, -8014.240326194803, -9289.072071203242, -8095.488917289844, 0.002, 0.988, 0.17400000000000002, 192.0, 0.0, 0.0, 0.0, 0.0, 0.0, 0.0, 0.0, 0.0, 0.0, 1.7309196325005264E9, 0.0, 2024-11-06 16:00:32.500
71.0, -8998.030006650688, -8433.067313798347, -6600.82776556346, -6650.135713831868, -5476.8479438838895, -8023.181023976926, -9291.933094493521, -8079.060385115193, 0.002, 0.988, 0.17400000000000002, 192.0, 0.0, 0.0, 0.0, 0.0, 0.0, 0.0, 0.0, 0.0, 0.0, 1.730919632504551E9, 0.0, 2024-11-06 16:00:32.504
72.0, -8990.810393191623, -8426.607659650763, -6604.694617354228, -6642.402010250332, -5486.392138766306, -8032.97108804835, -9306.037045244819, -8076.60169322511, 0.002, 0.992, 0.176, 192.0, 0.0, 16.0, 31.0, 0.0, 5.0, 128.0, 0.0, 0.0, 0.0, 1.730919632508284E9, 0.0, 2024-11-06 16:00:32.508
73.0, -8950.174921771875, -8385.905132997648, -6568.216570403168, -6662.943263404759, -5512.074293145453, -8026.220861222847, -9305.299437677793, -8092.69494923293, 0.002, 0.992, 0.176, 192.0, 0.0, 0.0, 0.0, 0.0, 0.0, 0.0, 0.0, 0.0, 0.0, 1.7309196325124068E9, 0.0, 2024-11-06 16:00:32.512
74.0, -8949.571424671582, -8384.18404867459, -6556.906587708782, -6670.609911752929, -5503.357112807884, -8012.63100059402, -9287.686263047011, -8093.879591689061, 0.002, 0.992, 0.176, 192.0, 0.0, 0.0, 0.0, 0.0, 0.0, 0.0, 0.0, 0.0, 0.0, 1.7309196325164213E9, 0.0, 2024-11-06 16:00:32.516
75.0, -8989.134012357476, -8423.657229382663, -6590.456556136198, -6649.733382431672, -5475.104507816375, -8016.2072797068695, -9284.445260100993, -8076.266417058279, 0.002, 0.992, 0.176, 192.0, 0.0, 0.0, 0.0, 0.0, 0.0, 0.0, 0.0, 0.0, 0.0, 1.73091963252045E9, 0.0, 2024-11-06 16:00:32.520
76.0, -8994.319617071107, -8430.206290508067, -6605.8569080659045, -6639.071600326491, -5479.776022407535, -8029.9983060357945, -9301.432585887025, -8071.796068167218, 0.002, 0.992, 0.176, 192.0, 0.0, 0.0, 0.0, 0.0, 0.0, 0.0, 0.0, 0.0, 0.0, 1.7309196325234897E9, 0.0, 2024-11-06 16:00:32.523
77.0, -8954.242939262742, -8390.643702822174, -6572.619864060863, -6657.3329755464765, -5507.447482043205, -8027.249041467791, -9305.858231289176, -8087.442289285933, 0.002, 0.992, 0.176, 192.0, 0.0, 0.0, 0.0, 0.0, 0.0, 0.0, 0.0, 0.0, 0.0, 1.7309196325274682E9, 0.0, 2024-11-06 16:00:32.527
78.0, -8947.090381037044, -8382.641778307174, -6556.548959797497, -6674.2979495880545, -5510.1296913778415, -8017.369570418546, -9293.430661372025, -8097.455870801911, 0.002, 0.992, 0.176, 192.0, 0.0, 0.0, 0.0, 0.0, 0.0, 0.0, 0.0, 0.0, 0.0, 1.7309196325324724E9, 0.0, 2024-11-06 16:00:32.532
79.0, -8987.100003612042, -8422.137310759701, -6588.534306113042, -6659.41168778082, -5483.866391642856, -8020.118834986549, -9288.64738805859, -8084.134231106548, 0.002, 0.992, 0.176, 192.0, 0.0, 0.0, 0.0, 0.0, 0.0, 0.0, 0.0, 0.0, 0.0, 1.7309196325364747E9, 0.0, 2024-11-06 16:00:32.536
80.0, -8999.460518295828, -8435.436598710608, -6609.097911011924, -6640.45740848272, -5477.630254939825, -8030.557099647177, -9300.382053897627, -8072.243103056325, 0.002, 0.992, 0.176, 192.0, 0.0, 0.0, 0.0, 0.0, 0.0, 0.0, 0.0, 0.0, 0.0, 1.7309196325404112E9, 0.0, 2024-11-06 16:00:32.540
81.0, -8961.864884122, -8398.690330826084, -6580.934712998237, -6653.756696433627, -5503.625333741347, -8029.864195569062, -9307.17698421204, -8084.760079951297, 0.002, 0.992, 0.176, 192.0, 0.0, 0.0, 0.0, 0.0, 0.0, 0.0, 0.0, 0.0, 0.0, 1.7309196325445905E9, 0.0, 2024-11-06 16:00:32.544
82.0, -8942.24005249024, -8377.970263716015, -6554.671413263251, -6671.973368164703, -5510.621429755858, -8016.430797151423, -9293.765937538856, -8095.801841712218, 0.002, 0.986, 0.178, 192.0, 0.0, 16.0, 30.0, 208.0, 5.0, 144.0, 0.0, 0.0, 0.0, 1.730919632548365E9, 0.0, 2024-11-06 16:00:32.548
83.0, -8977.06407035161, -8411.788453076893, -6579.079518208447, -6660.752792448139, -5485.095737587898, -8014.597954106088, -9284.557018823269, -8084.380100295556, 0.002, 0.986, 0.178, 192.0, 0.0, 0.0, 0.0, 0.0, 0.0, 0.0, 0.0, 0.0, 0.0, 1.730919632551352E9, 0.0, 2024-11-06 16:00:32.551
84.0, -9002.992093919765, -8438.319973745343, -6610.059036023502, -6642.491417228153, -5476.155039805775, -8029.260698468769, -9298.280989918827, -8073.226579812358, 0.002, 0.986, 0.178, 192.0, 0.0, 0.0, 0.0, 0.0, 0.0, 0.0, 0.0, 0.0, 0.0, 1.7309196325555036E9, 0.0, 2024-11-06 16:00:32.555
85.0, -8972.169038315897, -8408.56980187533, -6589.383672402343, -6651.923853388293, -5501.256048829085, -8033.820454337651, -9309.99330401341, -8083.776603195263, 0.002, 0.986, 0.178, 192.0, 0.0, 0.0, 0.0, 0.0, 0.0, 0.0, 0.0, 0.0, 0.0, 1.73091963256053E9, 0.0, 2024-11-06 16:00:32.560
86.0, -8944.139950768942, -8379.89251373917, -6557.085401664424, -6673.135658876379, -5515.359999580383, -8021.795215820696, -9299.622094586146, -8098.305237091213, 0.002, 0.986, 0.178, 192.0, 0.0, 0.0, 0.0, 0.0, 0.0, 0.0, 0.0, 0.0, 0.0, 1.7309196325653913E9, 0.0, 2024-11-06 16:00:32.565
87.0, -8968.950387114333, -8403.942990773081, -6570.787021015528, -6664.820809939005, -5490.661321957269, -8014.374436661535, -9284.780536267823, -8088.157545108503, 0.002, 0.986, 0.178, 192.0, 0.0, 0.0, 0.0, 0.0, 0.0, 0.0, 0.0, 0.0, 0.0, 1.7309196325694294E9, 0.0, 2024-11-06 16:00:32.569
88.0, -9000.35458807404, -8435.86128185526, -6604.202878976212, -6642.31260327251, -5473.294016515496, -8024.924460044439, -9293.095385205197, -8072.444268756422, 0.002, 0.986, 0.178, 192.0, 0.0, 0.0, 0.0, 0.0, 0.0, 0.0, 0.0, 0.0, 0.0, 1.7309196325724044E9, 0.0, 2024-11-06 16:00:32.572
89.0, -8979.67922445288, -8416.147043245679, -6594.748091071617, -6647.7664289196055, -5495.846926670901, -8033.574585148644, -9308.763958068366, -8080.826172927163, 0.002, 0.986, 0.178, 192.0, 0.0, 0.0, 0.0, 0.0, 0.0, 0.0, 0.0, 0.0, 0.0, 1.7309196325755136E9, 0.0, 2024-11-06 16:00:32.575
90.0, -8946.218663003287, -8381.926522484604, -6560.505218566087, -6671.414574553321, -5516.9022699478, -8024.455073410878, -9302.88544927662, -8098.059367902204, 0.002, 0.986, 0.178, 192.0, 0.0, 0.0, 0.0, 0.0, 0.0, 0.0, 0.0, 0.0, 0.0, 1.7309196325795307E9, 0.0, 2024-11-06 16:00:32.579
91.0, -8963.429506233872, -8397.684502325596, -6566.406079102288, -6669.8946559303595, -5497.970342394155, -8015.044988995193, -9286.926303735532, -8092.672597488475, 0.002, 0.986, 0.178, 192.0, 0.0, 0.0, 0.0, 0.0, 0.0, 0.0, 0.0, 0.0, 0.0, 1.730919632583402E9, 0.0, 2024-11-06 16:00:32.583
92.0, -8999.952256673843, -8434.408418465664, -6601.990056275136, -6646.8276556524825, -5475.0821560719205, -8024.25390771078, -9290.994321226397, -8075.439402513433, 0.002, 0.986, 0.178, 192.0, 0.0, 0.0, 0.0, 0.0, 0.0, 0.0, 0.0, 0.0, 0.0, 1.730919632588551E9, 0.0, 2024-11-06 16:00:32.588
93.0, -8983.389614032461, -8419.119825258234, -6596.580934116952, -6640.971498605192, -5486.70506318868, -8030.892375814006, -9302.84074578771, -8074.277111801757, 0.006, 0.988, 0.17200000000000001, 192.0, 0.0, 48.0, 30.0, 224.0, 5.0, 96.0, 0.0, 0.0, 0.0, 1.7309196325924468E9, 0.0, 2024-11-06 16:00:32.592
94.0, -8943.134122268453, -8378.596112560763, -6558.493561565109, -6661.7362692041725, -5509.28032508854, -8021.124663487038, -9298.593914341202, -8089.699815475919, 0.006, 0.988, 0.17200000000000001, 192.0, 0.0, 0.0, 0.0, 0.0, 0.0, 0.0, 0.0, 0.0, 0.0, 1.7309196325965877E9, 0.0, 2024-11-06 16:00:32.596
95.0, -8952.879482850967, -8387.08977545378, -6557.264215620067, -6668.710013474228, -5499.154984850286, -8011.692227326897, -9284.288797889805, -8091.443251543433, 0.006, 0.988, 0.17200000000000001, 192.0, 0.0, 0.0, 0.0, 0.0, 0.0, 0.0, 0.0, 0.0, 0.0, 1.7309196325994816E9, 0.0, 2024-11-06 16:00:32.599
96.0, -8992.084442625575, -8426.540604417396, -6593.183468959745, -6646.64884169684, -5472.84698162639, -8017.794253563196, -9284.109983934162, -8073.718318190375, 0.006, 0.988, 0.17200000000000001, 192.0, 0.0, 0.0, 0.0, 0.0, 0.0, 0.0, 0.0, 0.0, 0.0, 1.7309196326036048E9, 0.0, 2024-11-06 16:00:32.603
97.0, -8991.100965869542, -8427.389970706698, -6603.621733620374, -6640.636222438362, -5483.575818964937, -8031.764093847763, -9302.416062643058, -8073.472449001366, 0.006, 0.988, 0.17200000000000001, 192.0, 0.0, 0.0, 0.0, 0.0, 0.0, 0.0, 0.0, 0.0, 0.0, 1.730919632607522E9, 0.0, 2024-11-06 16:00:32.607
98.0, -8949.191445015842, -8385.793374275372, -6566.96487271367, -6659.635205225373, -5509.101511132898, -8024.946811788895, -9302.438414387514, -8088.559876508699, 0.006, 0.988, 0.17200000000000001, 192.0, 0.0, 0.0, 0.0, 0.0, 0.0, 0.0, 0.0, 0.0, 0.0, 1.7309196326115441E9, 0.0, 2024-11-06 16:00:32.611
99.0, -8946.039849047644, -8381.144211428667, -6553.710288251673, -6669.961711163725, -5503.357112807884, -8011.848689538085, -9285.942826979497, -8092.471431788377, 0.006, 0.988, 0.17200000000000001, 192.0, 0.0, 0.0, 0.0, 0.0, 0.0, 0.0, 0.0, 0.0, 0.0, 1.730919632616619E9, 0.0, 2024-11-06 16:00:32.616
100.0, -8988.217590834807, -8422.472586926531, -6588.936637513237, -6652.862626655416, -5477.540847962004, -8017.123701229537, -9284.132335678618, -8078.479239759356, 0.006, 0.988, 0.17200000000000001, 192.0, 0.0, 0.0, 0.0, 0.0, 0.0, 0.0, 0.0, 0.0, 0.0, 1.7309196326206255E9, 0.0, 2024-11-06 16:00:32.620
101.0, -8996.711253727824, -8431.949726575582, -6606.080425510458, -6639.853911382426, -5479.351339262884, -8030.534747902721, -9299.711501563967, -8072.332510034145, 0.006, 0.988, 0.17200000000000001, 192.0, 0.0, 0.0, 0.0, 0.0, 0.0, 0.0, 0.0, 0.0, 0.0, 1.7309196326245708E9, 0.0, 2024-11-06 16:00:32.624
102.0, -8958.378011986973, -8394.354092401754, -6575.413832117776, -6657.824713924493, -5508.18508961023, -8029.841843824607, -9305.835879544722, -8088.4034142975115, 0.006, 0.988, 0.17200000000000001, 192.0, 0.0, 0.0, 0.0, 0.0, 0.0, 0.0, 0.0, 0.0, 0.0, 1.7309196326274846E9, 0.0, 2024-11-06 16:00:32.627
103.0, -8945.950442069823, -8380.652473050652, -6554.850227218893, -6674.029728654591, -5511.1802233672415, -8017.213108207358, -9291.530763093324, -8097.411167313, 0.002, 0.99, 0.17, 192.0, 0.0, 16.0, 30.0, 240.0, 5.0, 80.0, 0.0, 0.0, 0.0, 1.7309196326316135E9, 0.0, 2024-11-06 16:00:32.631
104.0, -8982.942579143355, -8417.130520001712, -6583.572218843963, -6658.674080213796, -5483.464060242661, -8016.922535529439, -9283.595893811691, -8082.860181672595, 0.002, 0.99, 0.17, 192.0, 0.0, 0.0, 0.0, 0.0, 0.0, 0.0, 0.0, 0.0, 0.0, 1.7309196326356091E9, 0.0, 2024-11-06 16:00:32.635
105.0, -8999.840497951567, -8434.900156843682, -6607.68975111124, -6639.831559637972, -5476.51266771706, -8028.947774046394, -9295.710539306467, -8070.946701877917, 0.002, 0.99, 0.17, 192.0, 0.0, 0.0, 0.0, 0.0, 0.0, 0.0, 0.0, 0.0, 0.0, 1.7309196326395946E9, 0.0, 2024-11-06 16:00:32.639
106.0, -8965.083535323565, -8400.701987827062, -6582.767556043573, -6652.952033633236, -5503.602981996892, -8031.250003725291, -9305.344141166705, -8083.798954939718, 0.002, 0.99, 0.17, 192.0, 0.0, 0.0, 0.0, 0.0, 0.0, 0.0, 0.0, 0.0, 0.0, 1.7309196326446016E9, 0.0, 2024-11-06 16:00:32.644
107.0, -8941.81536934559, -8377.031490448891, -6553.956157440682, -6671.906312931337, -5512.811900712479, -8017.883660541018, -9292.447184615992, -8095.4442138009335, 0.002, 0.99, 0.17, 192.0, 0.0, 0.0, 0.0, 0.0, 0.0, 0.0, 0.0, 0.0, 0.0, 1.7309196326485412E9, 0.0, 2024-11-06 16:00:32.648
108.0, -8974.292454039152, -8408.90507804216, -6575.525590840053, -6662.183304093279, -5487.956760878177, -8014.642657594998, -9281.852457744177, -8084.827135184662, 0.002, 0.99, 0.17, 192.0, 0.0, 0.0, 0.0, 0.0, 0.0, 0.0, 0.0, 0.0, 0.0, 1.730919632652744E9, 0.0, 2024-11-06 16:00:32.652
109.0, -9000.198125862853, -8435.48130219952, -6605.633390621351, -6640.41270499381, -5473.919865360244, -8025.818529822652, -9291.530763093324, -8070.07498384416, 0.002, 0.99, 0.17, 192.0, 0.0, 0.0, 0.0, 0.0, 0.0, 0.0, 0.0, 0.0, 0.0, 1.730919632655759E9, 0.0, 2024-11-06 16:00:32.655
110.0, -8971.520837726694, -8407.340455930287, -6587.7743468015615, -6647.274690541589, -5496.94216214921, -8030.4453409249, -9303.60070509919, -8078.814515926185, 0.002, 0.99, 0.17, 192.0, 0.0, 0.0, 0.0, 0.0, 0.0, 0.0, 0.0, 0.0, 0.0, 1.730919632659648E9, 0.0, 2024-11-06 16:00:32.659
111.0, -8939.826064089068, -8374.908074725638, -6552.6150527733635, -6667.659481484829, -5511.582554767437, -8017.4366256519115, -9293.162440438562, -8092.471431788377, 0.002, 0.99, 0.17, 192.0, 0.0, 0.0, 0.0, 0.0, 0.0, 0.0, 0.0, 0.0, 0.0, 1.730919632663725E9, 0.0, 2024-11-06 16:00:32.663
112.0, -8965.977605101778, -8400.277304682411, -6566.853113991394, -6664.932568661281, -5491.756557435579, -8012.519241871744, -9281.114850177151, -8087.129364863559, 0.002, 0.99, 0.17, 192.0, 0.0, 0.0, 0.0, 0.0, 0.0, 0.0, 0.0, 0.0, 0.0, 1.7309196326676323E9, 0.0, 2024-11-06 16:00:32.667
113.0, -8999.013483406721, -8433.648459154185, -6601.297152197022, -6641.865568383404, -5472.154077548275, -8022.577526876632, -9287.663911302556, -8070.611425711087, 0.004, 0.992, 0.176, 192.0, 0.0, 32.0, 31.0, 0.0, 5.0, 128.0, 0.0, 0.0, 0.0, 1.7309196326727304E9, 0.0, 2024-11-06 16:00:32.672
114.0, -8980.170962830898, -8415.968229290036, -6594.166945715779, -6644.41366725131, -5491.80126092449, -8031.361762447568, -9303.17602195454, -8076.825210669663, 0.004, 0.992, 0.176, 192.0, 0.0, 0.0, 0.0, 0.0, 0.0, 0.0, 0.0, 0.0, 0.0, 1.7309196326766317E9, 0.0, 2024-11-06 16:00:32.676
115.0, -8946.106904281009, -8381.725356784505, -6560.259349377078, -6669.291158830066, -5515.225889113652, -8024.008038521772, -9299.93501900852, -8096.025359156771, 0.004, 0.992, 0.176, 192.0, 0.0, 0.0, 0.0, 0.0, 0.0, 0.0, 0.0, 0.0, 0.0, 1.7309196326806304E9, 0.0, 2024-11-06 16:00:32.680
116.0, -8961.306090510618, -8395.650493580162, -6563.9473872122035, -6670.855780941937, -5499.0879296169205, -8014.821471550641, -9284.60172231218, -8093.03022539976, 0.004, 0.992, 0.176, 192.0, 0.0, 0.0, 0.0, 0.0, 0.0, 0.0, 0.0, 0.0, 0.0, 1.7309196326836603E9, 0.0, 2024-11-06 16:00:32.683
117.0, -8999.63933225147, -8433.782569620917, -6600.380730674355, -6648.146408575346, -5475.104507816375, -8022.890451299007, -9287.529800835824, -8075.5511612357095, 0.004, 0.992, 0.176, 192.0, 0.0, 0.0, 0.0, 0.0, 0.0, 0.0, 0.0, 0.0, 0.0, 1.7309196326876667E9, 0.0, 2024-11-06 16:00:32.687
118.0, -8988.39640479045, -8423.90309857167, -6600.179564974256, -6642.513768972608, -5486.794470166501, -8031.808797336674, -9302.17019345405, -8074.858257157595, 0.004, 0.992, 0.176, 192.0, 0.0, 0.0, 0.0, 0.0, 0.0, 0.0, 0.0, 0.0, 0.0, 1.73091963269164E9, 0.0, 2024-11-06 16:00:32.691
119.0, -8949.34790722703, -8385.078118452802, -6564.573236056953, -6665.0219756391025, -5512.543679779015, -8025.326791444635, -9301.65610333158, -8092.65024574402, 0.004, 0.992, 0.176, 192.0, 0.0, 0.0, 0.0, 0.0, 0.0, 0.0, 0.0, 0.0, 0.0, 1.7309196326956306E9, 0.0, 2024-11-06 16:00:32.695
120.0, -8953.77355262918, -8388.073252209813, -6558.53826505402, -6672.018071653613, -5502.373636051851, -8013.189794205403, -9285.451088601481, -8093.7454812223295, 0.004, 0.992, 0.176, 192.0, 0.0, 0.0, 0.0, 0.0, 0.0, 0.0, 0.0, 0.0, 0.0, 1.7309196327006304E9, 0.0, 2024-11-06 16:00:32.700
121.0, -8995.459556038328, -8429.491034685498, -6595.552753872008, -6652.549702233041, -5477.093813072898, -8020.029428008727, -9285.831068257221, -8078.032204870249, 0.004, 0.992, 0.176, 192.0, 0.0, 0.0, 0.0, 0.0, 0.0, 0.0, 0.0, 0.0, 0.0, 1.7309196327048273E9, 0.0, 2024-11-06 16:00:32.704
122.0, -8994.364320560016, -8429.71455213005, -6604.7393208431395, -6640.747981160639, -5481.295941030496, -8030.512396158266, -9299.711501563967, -8072.287806545235, 0.004, 0.992, 0.176, 192.0, 0.0, 0.0, 0.0, 0.0, 0.0, 0.0, 0.0, 0.0, 0.0, 1.7309196327075E9, 0.0, 2024-11-06 16:00:32.707
123.0, -8954.645270662937, -8390.37548188871, -6570.563503570975, -6660.551626748041, -5508.877993688345, -8026.891413556506, -9303.041911487808, -8088.895152675528, 0.002, 0.984, 0.176, 192.0, 0.0, 16.0, 30.0, 192.0, 5.0, 128.0, 0.0, 0.0, 0.0, 1.7309196327115617E9, 0.0, 2024-11-06 16:00:32.711
124.0, -8950.57725317207, -8385.078118452802, -6556.325442352944, -6674.856743199438, -5508.140386121319, -8015.91670702895, -9289.429699114526, -8096.405338812511, 0.002, 0.984, 0.176, 192.0, 0.0, 0.0, 0.0, 0.0, 0.0, 0.0, 0.0, 0.0, 0.0, 1.7309196327156565E9, 0.0, 2024-11-06 16:00:32.715
125.0, -8989.53634375767, -8423.433711938109, -6587.751995057106, -6656.438905768265, -5479.776022407535, -8017.660143096465, -9283.88646648961, -8080.133268849047, 0.002, 0.984, 0.176, 192.0, 0.0, 0.0, 0.0, 0.0, 0.0, 0.0, 0.0, 0.0, 0.0, 1.7309196327196536E9, 0.0, 2024-11-06 16:00:32.719
126.0, -8999.415814806916, -8434.38606672121, -6605.655742365807, -6639.78685614906, -5477.049109583987, -8029.104236257582, -9296.738719551411, -8070.410260010989, 0.002, 0.984, 0.176, 192.0, 0.0, 0.0, 0.0, 0.0, 0.0, 0.0, 0.0, 0.0, 0.0, 1.7309196327237184E9, 0.0, 2024-11-06 16:00:32.723
127.0, -8960.188503287853, -8395.80695579135, -6574.653872806296, -6654.31549004501, -5503.42416804125, -8026.690247856409, -9302.192545198506, -8083.508382261799, 0.002, 0.984, 0.176, 192.0, 0.0, 0.0, 0.0, 0.0, 0.0, 0.0, 0.0, 0.0, 0.0, 1.7309196327278156E9, 0.0, 2024-11-06 16:00:32.727
128.0, -8947.91739558189, -8382.731185284994, -6555.096096407902, -6675.594350766462, -5512.52132803456, -8017.637791352009, -9292.737757293911, -8097.6793882464635, 0.002, 0.984, 0.176, 192.0, 0.0, 0.0, 0.0, 0.0, 0.0, 0.0, 0.0, 0.0, 0.0, 1.7309196327327733E9, 0.0, 2024-11-06 16:00:32.732
129.0, -8985.11069835552, -8419.276287469422, -6583.236942677134, -6663.882036671882, -5487.532077733526, -8018.509509385766, -9285.786364768312, -8086.391757296534, 0.002, 0.984, 0.176, 192.0, 0.0, 0.0, 0.0, 0.0, 0.0, 0.0, 0.0, 0.0, 0.0, 1.730919632735508E9, 0.0, 2024-11-06 16:00:32.735
130.0, -9004.310846842629, -8439.750485390483, -6608.650876122818, -6643.296080028544, -5477.496144473093, -8029.774788591241, -9296.671664318046, -8073.092469345626, 0.002, 0.984, 0.176, 192.0, 0.0, 0.0, 0.0, 0.0, 0.0, 0.0, 0.0, 0.0, 0.0, 1.7309196327396815E9, 0.0, 2024-11-06 16:00:32.739
131.0, -8971.453782493327, -8407.832194308305, -6585.740338056128, -6654.427248767287, -5503.267705830062, -8032.613460137065, -9307.17698421204, -8084.603617740109, 0.002, 0.984, 0.176, 192.0, 0.0, 0.0, 0.0, 0.0, 0.0, 0.0, 0.0, 0.0, 0.0, 1.7309196327437084E9, 0.0, 2024-11-06 16:00:32.743
132.0, -8947.112732781497, -8382.485316095986, -6556.236035375123, -6675.437888555275, -5515.717627491668, -8020.610573364565, -9296.515202106859, -8098.528754535766, 0.002, 0.984, 0.176, 192.0, 0.0, 0.0, 0.0, 0.0, 0.0, 0.0, 0.0, 0.0, 0.0, 1.7309196327475479E9, 0.0, 2024-11-06 16:00:32.747
133.0, -8976.214704062308, -8410.782624576404, -6574.899741995304, -6666.564246006518, -5490.795432424001, -8015.849651795585, -9284.020576956342, -8088.336359064146, 0.002, 0.99, 0.178, 192.0, 0.0, 16.0, 30.0, 240.0, 5.0, 144.0, 0.0, 0.0, 0.0, 1.7309196327515686E9, 0.0, 2024-11-06 16:00:32.751
134.0, -9003.975570675799, -8439.214043523556, -6606.370998188377, -6643.765466662106, -5474.210438038163, -8026.913765300962, -9292.380129382627, -8072.466620500877, 0.002, 0.99, 0.178, 192.0, 0.0, 0.0, 0.0, 0.0, 0.0, 0.0, 0.0, 0.0, 0.0, 1.7309196327558043E9, 0.0, 2024-11-06 16:00:32.755
135.0, -8978.405175018928, -8414.582421133808, -6591.618846847874, -6649.487513242664, -5496.517479004559, -8033.753399104286, -9305.7464725669, -8080.4238415269665, 0.002, 0.99, 0.178, 192.0, 0.0, 0.0, 0.0, 0.0, 0.0, 0.0, 0.0, 0.0, 0.0, 1.730919632760718E9, 0.0, 2024-11-06 16:00:32.760
136.0, -8947.20213975932, -8382.820592262817, -6558.113581909369, -6673.001548409647, -5515.896441447311, -8023.91863154395, -9298.973893996941, -8097.3888155685445, 0.002, 0.99, 0.178, 192.0, 0.0, 0.0, 0.0, 0.0, 0.0, 0.0, 0.0, 0.0, 0.0, 1.7309196327638457E9, 0.0, 2024-11-06 16:00:32.763
137.0, -8971.34202377105, -8405.753482073962, -6570.96583497117, -6673.2250658542, -5498.909115661278, -8018.956544274873, -9287.641559558102, -8094.17016436698, 0.002, 0.99, 0.178, 192.0, 0.0, 0.0, 0.0, 0.0, 0.0, 0.0, 0.0, 0.0, 0.0, 1.730919632767648E9, 0.0, 2024-11-06 16:00:32.767
138.0, -9003.550887531148, -8438.588194678807, -6603.711140598195, -6647.319394030499, -5474.992749094099, -8025.706771100376, -9290.323768892738, -8074.366518779579, 0.002, 0.99, 0.178, 192.0, 0.0, 0.0, 0.0, 0.0, 0.0, 0.0, 0.0, 0.0, 0.0, 1.7309196327717228E9, 0.0, 2024-11-06 16:00:32.771
139.0, -8983.210800076818, -8419.700970614073, -6595.508050383098, -6643.609004450918, -5488.9402376342105, -8031.250003725291, -9302.058434731774, -8074.567684479676, 0.002, 0.99, 0.178, 192.0, 0.0, 0.0, 0.0, 0.0, 0.0, 0.0, 0.0, 0.0, 0.0, 1.730919632775826E9, 0.0, 2024-11-06 16:00:32.775
140.0, -8946.419828703383, -8382.708833540539, -6560.214645888168, -6667.167743106812, -5512.9460111792105, -8023.20337572138, -9299.152707952584, -8092.31496957719, 0.002, 0.99, 0.178, 192.0, 0.0, 0.0, 0.0, 0.0, 0.0, 0.0, 0.0, 0.0, 0.0, 1.730919632779544E9, 0.0, 2024-11-06 16:00:32.779
141.0, -8959.942634098845, -8394.845830779772, -6562.494523822609, -6672.308644331532, -5500.697255217702, -8014.799119806185, -9285.294626390294, -8092.493783532833, 0.002, 0.99, 0.178, 192.0, 0.0, 0.0, 0.0, 0.0, 0.0, 0.0, 0.0, 0.0, 0.0, 1.7309196327837234E9, 0.0, 2024-11-06 16:00:32.783
142.0, -8997.560620017126, -8432.374409720233, -6597.743224828628, -6648.816960909005, -5474.568065949448, -8021.012904764761, -9286.054585701775, -8073.852428657106, 0.002, 0.99, 0.178, 192.0, 0.0, 0.0, 0.0, 0.0, 0.0, 0.0, 0.0, 0.0, 0.0, 1.7309196327896476E9, 0.0, 2024-11-06 16:00:32.789
143.0, -8989.469288524306, -8425.601831150274, -6600.716006841184, -6641.262071283111, -5484.201667809685, -8031.071189769649, -9301.298475420293, -8071.97488212286, 0.002, 0.99, 0.176, 192.0, 0.0, 16.0, 30.0, 240.0, 5.0, 128.0, 0.0, 0.0, 0.0, 1.730919632792689E9, 0.0, 2024-11-06 16:00:32.792
144.0, -8949.794942116136, -8386.46392660903, -6565.310843623977, -6663.4350017827755, -5511.627258256347, -8026.2432129673025, -9302.863097532165, -8090.12449862057, 0.002, 0.99, 0.176, 192.0, 0.0, 0.0, 0.0, 0.0, 0.0, 0.0, 0.0, 0.0, 0.0, 1.7309196327966998E9, 0.0, 2024-11-06 16:00:32.796
145.0, -8952.454799706316, -8388.073252209813, -6557.219512131156, -6674.186190865778, -5505.860508186878, -8015.894355284496, -9288.51327759186, -8094.550144022721, 0.002, 0.99, 0.176, 192.0, 0.0, 0.0, 0.0, 0.0, 0.0, 0.0, 0.0, 0.0, 0.0, 1.730919632799636E9, 0.0, 2024-11-06 16:00:32.799
146.0, -8991.458593780828, -8427.211156751056, -6591.171811958768, -6653.197902822245, -5477.563199706459, -8018.956544274873, -9284.959350223464, -8076.847562414117, 0.002, 0.99, 0.176, 192.0, 0.0, 0.0, 0.0, 0.0, 0.0, 0.0, 0.0, 0.0, 0.0, 1.7309196328039913E9, 0.0, 2024-11-06 16:00:32.803
147.0, -8996.040701394166, -8433.33553473181, -6605.9686667881815, -6642.022030594591, -5481.675920686236, -8031.719390358853, -9301.164364953562, -8072.2654548007795, 0.002, 0.99, 0.176, 192.0, 0.0, 0.0, 0.0, 0.0, 0.0, 0.0, 0.0, 0.0, 0.0, 1.7309196328077135E9, 0.0, 2024-11-06 16:00:32.807
148.0, -8955.829913119069, -8393.549429601364, -6572.821029760961, -6659.903426158837, -5509.0121041550765, -8028.321925201646, -9304.785347555322, -8087.732861963852, 0.002, 0.99, 0.176, 192.0, 0.0, 0.0, 0.0, 0.0, 0.0, 0.0, 0.0, 0.0, 0.0, 1.730919632811824E9, 0.0, 2024-11-06 16:00:32.811
149.0, -8947.939747326345, -8384.541676585875, -6556.0795731639355, -6675.482592044186, -5510.643781500314, -8016.743721573797, -9290.927265993032, -8096.293580090235, 0.002, 0.99, 0.176, 192.0, 0.0, 0.0, 0.0, 0.0, 0.0, 0.0, 0.0, 0.0, 0.0, 1.7309196328157463E9, 0.0, 2024-11-06 16:00:32.815
150.0, -8986.027119878188, -8422.383179948709, -6586.679111323251, -6658.830542424982, -5482.458231742172, -8017.771901818741, -9284.512315334357, -8081.02733862726, 0.002, 0.99, 0.176, 192.0, 0.0, 0.0, 0.0, 0.0, 0.0, 0.0, 0.0, 0.0, 0.0, 1.7309196328187463E9, 0.0, 2024-11-06 16:00:32.818
