%OpenBCI Raw EXG Data
%Number of channels = 8
%Sample Rate = 250 Hz
%Board = OpenBCI_GUI$BoardCytonSerial
Sample Index, EXG Channel 0, EXG Channel 1, EXG Channel 2, EXG Channel 3, EXG Channel 4, EXG Channel 5, EXG Channel 6, EXG Channel 7, Accel Channel 0, Accel Channel 1, Accel Channel 2, Not Used, Digital Channel 0 (D11), Digital Channel 1 (D12), Digital Channel 2 (D13), Digital Channel 3 (D17), Not Used, Digital Channel 4 (D18), Analog Channel 0, Analog Channel 1, Analog Channel 2, Timestamp, Marker Channel, Timestamp (Formatted)
0.0, -119447.20827903847, -122025.50435370259, -174572.53331810635, -157829.66856118068, -173375.3738850801, -174482.27697399582, -149486.14233567027, -174574.63438208515, 0.148, 0.402, 0.28200000000000003, 192.0, 4.0, 160.0, 12.0, 144.0, 8.0, 208.0, 0.0, 0.0, 0.0, 1.7395369418283179E9, 0.0, 2025-02-14 09:42:21.828
1.0, -119414.21710422244, -122166.72267517123, -174570.02992272735, -157950.21151902815, -173309.1680180035, -174480.4888344394, -149532.36574320385, -174572.28744891734, 0.148, 0.402, 0.28200000000000003, 192.0, 0.0, 0.0, 0.0, 0.0, 0.0, 0.0, 0.0, 0.0, 0.0, 1.7395369418283548E9, 0.0, 2025-02-14 09:42:21.828
2.0, -119478.34425906472, -122227.74293753422, -174567.61593432617, -158045.27348819657, -173380.4700828159, -174478.5442326718, -149626.98067748317, -174569.94051574953, 0.148, 0.402, 0.28200000000000003, 192.0, 0.0, 0.0, 0.0, 0.0, 0.0, 0.0, 0.0, 0.0, 0.0, 1.7395369418283763E9, 0.0, 2025-02-14 09:42:21.828
3.0, -119596.80850467784, -122183.55353874607, -174565.67133255856, -158024.21814491967, -173524.10239268572, -174476.5325756708, -149683.91057061084, -174567.83945177073, 0.148, 0.402, 0.28200000000000003, 192.0, 0.0, 0.0, 0.0, 0.0, 0.0, 0.0, 0.0, 0.0, 0.0, 1.7395369418283904E9, 0.0, 2025-02-14 09:42:21.828
4.0, -119630.80550799436, -122200.80908546557, -174565.11253894717, -158017.51262158307, -173552.82438431078, -174476.1302442706, -149692.78421315958, -174567.30300990382, 0.148, 0.402, 0.28200000000000003, 192.0, 0.0, 0.0, 0.0, 0.0, 0.0, 0.0, 0.0, 0.0, 0.0, 1.7395369418284032E9, 0.0, 2025-02-14 09:42:21.828
5.0, -119595.1321238437, -122323.85543869203, -174565.26900115836, -158121.0682536445, -173504.18698837602, -174476.80079660425, -149729.12814964392, -174567.66063781508, 0.148, 0.402, 0.28200000000000003, 192.0, 0.0, 0.0, 0.0, 0.0, 0.0, 0.0, 0.0, 0.0, 0.0, 1.7395369418284197E9, 0.0, 2025-02-14 09:42:21.828
6.0, -119634.7394150185, -122404.74640187579, -174565.42546336955, -158226.56848747356, -173566.1236722617, -174477.35959021564, -149815.40588324142, -174567.95121049302, 0.148, 0.402, 0.28200000000000003, 192.0, 0.0, 0.0, 0.0, 0.0, 0.0, 0.0, 0.0, 0.0, 0.0, 1.7395369418284311E9, 0.0, 2025-02-14 09:42:21.828
7.0, -119758.50102406753, -122378.41604690744, -174562.51973659036, -158220.37705425944, -173718.0484793244, -174474.52091866982, -149872.6710525359, -174565.02313196936, 0.212, 0.598, 0.41600000000000004, 192.0, 6.0, 160.0, 18.0, 176.0, 13.0, 0.0, 0.0, 0.0, 0.0, 1.739536941828446E9, 0.0, 2025-02-14 09:42:21.828
8.0, -119811.1840857487, -122379.80185506366, -174559.23403015544, -158196.68420513681, -173778.48759633157, -174471.2799157238, -149871.91109322442, -174561.75977727887, 0.212, 0.598, 0.41600000000000004, 192.0, 0.0, 0.0, 0.0, 0.0, 0.0, 0.0, 0.0, 0.0, 0.0, 1.739536941828456E9, 0.0, 2025-02-14 09:42:21.828
9.0, -119775.77892253149, -122503.83168504617, -174557.7588150214, -158283.92306374587, -173723.8152293939, -174470.1399767566, -149890.55244810015, -174560.41867261156, 0.212, 0.598, 0.41600000000000004, 192.0, 0.0, 0.0, 0.0, 0.0, 0.0, 0.0, 0.0, 0.0, 0.0, 1.7395369418284657E9, 0.0, 2025-02-14 09:42:21.828
10.0, -119803.1821612337, -122610.40480260907, -174557.22237315445, -158399.9956727023, -173745.89875291573, -174470.05056977877, -149967.55420774868, -174560.08339644474, 0.212, 0.598, 0.41600000000000004, 192.0, 0.0, 0.0, 0.0, 0.0, 0.0, 0.0, 0.0, 0.0, 0.0, 1.7395369418284757E9, 0.0, 2025-02-14 09:42:21.828
11.0, -119923.74747082562, -122587.96365117595, -174554.96484696446, -158413.27260890874, -173891.43096106424, -174467.86009882213, -150041.76199934032, -174557.78116676584, 0.212, 0.598, 0.41600000000000004, 192.0, 0.0, 0.0, 0.0, 0.0, 0.0, 0.0, 0.0, 0.0, 0.0, 1.7395369418284855E9, 0.0, 2025-02-14 09:42:21.828
12.0, -119998.08937288397, -122564.58372647568, -174553.17670740804, -158383.5894922721, -173980.815587141, -174466.16136624353, -150056.9611855699, -174555.97067546495, 0.212, 0.598, 0.41600000000000004, 192.0, 0.0, 0.0, 0.0, 0.0, 0.0, 0.0, 0.0, 0.0, 0.0, 1.7395369418284953E9, 0.0, 2025-02-14 09:42:21.828
13.0, -119974.0165441056, -122665.56890792477, -174552.9084864746, -158450.13063551552, -173943.39876692282, -174466.183717988, -150066.4606769634, -174555.79186150932, 0.212, 0.598, 0.41600000000000004, 192.0, 0.0, 0.0, 0.0, 0.0, 0.0, 0.0, 0.0, 0.0, 0.0, 1.7395369418285053E9, 0.0, 2025-02-14 09:42:21.828
14.0, -119977.68223019627, -122789.1293512737, -174550.94153296252, -158571.50060790786, -173932.82639179545, -174464.4849854094, -150146.85990176917, -174553.8472597417, 0.212, 0.598, 0.41600000000000004, 192.0, 0.0, 0.0, 0.0, 0.0, 0.0, 0.0, 0.0, 0.0, 0.0, 1.7395369418285153E9, 0.0, 2025-02-14 09:42:21.828
15.0, -120083.56244368106, -122784.8825198272, -174549.33220736173, -158604.15650655705, -174053.078776965, -174462.94271504198, -150230.52248126536, -174552.08147192973, 0.212, 0.598, 0.41600000000000004, 192.0, 0.0, 0.0, 0.0, 0.0, 0.0, 0.0, 0.0, 0.0, 0.0, 1.7395369418286736E9, 0.0, 2025-02-14 09:42:21.828
16.0, -120175.13754071445, -122745.94578098605, -174548.88517247263, -158566.04678226076, -174167.96674346528, -174462.60743887513, -150244.33585933875, -174551.6567887851, 0.212, 0.598, 0.41600000000000004, 192.0, 0.0, 0.0, 0.0, 0.0, 0.0, 0.0, 0.0, 0.0, 0.0, 1.7395369418286867E9, 0.0, 2025-02-14 09:42:21.828
17.0, -120155.35624687151, -122831.91059016116, -174548.460489328, -158608.8950763816, -174149.34774033402, -174462.45097666397, -150245.90048145063, -174551.4109195961, 0.242, 0.7020000000000001, 0.492, 192.0, 7.0, 144.0, 21.0, 240.0, 15.0, 96.0, 0.0, 0.0, 0.0, 1.739536941828712E9, 0.0, 2025-02-14 09:42:21.828
18.0, -120138.77125248568, -122962.40007429125, -174546.67234977154, -158735.74122616544, -174131.42164128085, -174460.8863545521, -150310.228801993, -174549.73453876193, 0.242, 0.7020000000000001, 0.492, 192.0, 0.0, 0.0, 0.0, 0.0, 0.0, 0.0, 0.0, 0.0, 0.0, 1.739536941828727E9, 0.0, 2025-02-14 09:42:21.828
19.0, -120232.24624779777, -122978.51568204352, -174544.4595270705, -158788.93837796908, -174238.64295943297, -174458.89704929557, -150396.8418117573, -174547.7005300165, 0.242, 0.7020000000000001, 0.492, 192.0, 0.0, 0.0, 0.0, 0.0, 0.0, 0.0, 0.0, 0.0, 0.0, 1.7395369418287396E9, 0.0, 2025-02-14 09:42:21.828
20.0, -120333.92433332496, -122934.79566988895, -174543.47605031444, -158760.05992413283, -174354.402643967, -174458.24884870637, -150432.73871335253, -174546.6052945382, 0.242, 0.7020000000000001, 0.492, 192.0, 0.0, 0.0, 0.0, 0.0, 0.0, 0.0, 0.0, 0.0, 0.0, 1.7395369418287518E9, 0.0, 2025-02-14 09:42:21.828
21.0, -120334.21490600288, -122995.8829874853, -174542.47022181394, -158791.2853111369, -174353.97796082235, -174457.3771306726, -150431.62112612976, -174545.5994660377, 0.242, 0.7020000000000001, 0.492, 192.0, 0.0, 0.0, 0.0, 0.0, 0.0, 0.0, 0.0, 0.0, 0.0, 1.739536941828765E9, 0.0, 2025-02-14 09:42:21.828
22.0, -120309.22565570184, -123133.0109397186, -174540.950303191, -158917.9079434762, -174318.05870748268, -174455.9689707719, -150480.07970810888, -174544.28071311483, 0.242, 0.7020000000000001, 0.492, 192.0, 0.0, 0.0, 0.0, 0.0, 0.0, 0.0, 0.0, 0.0, 0.0, 1.73953694182878E9, 0.0, 2025-02-14 09:42:21.828
23.0, -120386.3168223282, -123175.16632976131, -174539.1398118901, -158994.10504032436, -174378.29665878974, -174455.05254924926, -150574.85110459937, -174542.3584630917, 0.242, 0.7020000000000001, 0.492, 192.0, 0.0, 0.0, 0.0, 0.0, 0.0, 0.0, 0.0, 0.0, 0.0, 1.739536941828792E9, 0.0, 2025-02-14 09:42:21.828
24.0, -120507.88796042062, -123125.56780881499, -174536.43525081102, -158956.95644103963, -174471.21286049043, -174454.15847947105, -150619.6440004878, -174539.51979154584, 0.242, 0.7020000000000001, 0.492, 192.0, 0.0, 0.0, 0.0, 0.0, 0.0, 0.0, 0.0, 0.0, 0.0, 1.7395369418288033E9, 0.0, 2025-02-14 09:42:21.828
25.0, -120528.20569613049, -123158.49192839765, -174534.9376839325, -158957.35877243982, -174487.59668917616, -174453.15265097056, -150615.57598299696, -174538.17868687853, 0.242, 0.7020000000000001, 0.492, 192.0, 0.0, 0.0, 0.0, 0.0, 0.0, 0.0, 0.0, 0.0, 0.0, 1.7395369418288255E9, 0.0, 2025-02-14 09:42:21.828
26.0, -120490.96768986795, -123293.49646490772, -174534.58005602122, -159066.01060223707, -174480.9358693285, -174453.04089224827, -150655.87617824986, -174538.0445764118, 0.242, 0.7020000000000001, 0.492, 192.0, 0.0, 0.0, 0.0, 0.0, 0.0, 0.0, 0.0, 0.0, 0.0, 1.7395369418288376E9, 0.0, 2025-02-14 09:42:21.828
27.0, -120549.01517021838, -123352.05803538061, -174534.2894833433, -159155.08230389145, -174488.42370372103, -174452.929133526, -150741.6845252138, -174537.73165198942, 0.272, 0.75, 0.528, 192.0, 8.0, 128.0, 23.0, 112.0, 16.0, 128.0, 0.0, 0.0, 0.0, 1.7395369418288498E9, 0.0, 2025-02-14 09:42:21.828
28.0, -120672.35209612276, -123307.62276740346, -174532.3448815757, -159138.0055711276, -174496.69384916947, -174450.80571780275, -150798.14503170789, -174535.71999498847, 0.272, 0.75, 0.528, 192.0, 0.0, 0.0, 0.0, 0.0, 0.0, 0.0, 0.0, 0.0, 0.0, 1.7395369418288631E9, 0.0, 2025-02-14 09:42:21.828
29.0, -120712.04879427538, -123323.98424434476, -174530.51203853037, -159126.78499541106, -174496.40327649156, -174449.0175782463, -150798.92734276384, -174533.97655892093, 0.272, 0.75, 0.528, 192.0, 0.0, 0.0, 0.0, 0.0, 0.0, 0.0, 0.0, 0.0, 0.0, 1.7395369418288753E9, 0.0, 2025-02-14 09:42:21.828
30.0, -120679.07997120381, -123457.22299304283, -174529.30504432978, -159230.1394617724, -174493.40814273455, -174448.23526719038, -150825.4588634323, -174532.92602693153, 0.272, 0.75, 0.528, 192.0, 0.0, 0.0, 0.0, 0.0, 0.0, 0.0, 0.0, 0.0, 0.0, 1.7395369418289251E9, 0.0, 2025-02-14 09:42:21.828
31.0, -120720.3412914683, -123547.03230226426, -174526.86870418416, -159335.4608816458, -174492.0893898117, -174445.93303751148, -150916.89984999894, -174530.4896867859, 0.272, 0.75, 0.528, 192.0, 0.0, 0.0, 0.0, 0.0, 0.0, 0.0, 0.0, 0.0, 0.0, 1.7395369418289368E9, 0.0, 2025-02-14 09:42:21.828
32.0, -120843.96879005061, -123510.28603437974, -174525.7511169614, -159333.73979732275, -174494.25750902385, -174444.7707467998, -150982.2339990418, -174529.32739607422, 0.272, 0.75, 0.528, 192.0, 0.0, 0.0, 0.0, 0.0, 0.0, 0.0, 0.0, 0.0, 0.0, 1.7395369418289487E9, 0.0, 2025-02-14 09:42:21.828
33.0, -120902.17273261223, -123503.33464185413, -174523.6500529826, -159314.47259360226, -174493.22932877892, -174442.78144154328, -150988.0901560891, -174527.2486838399, 0.272, 0.75, 0.528, 192.0, 0.0, 0.0, 0.0, 0.0, 0.0, 0.0, 0.0, 0.0, 0.0, 1.739536941828962E9, 0.0, 2025-02-14 09:42:21.828
34.0, -120869.2262612851, -123622.73766073439, -174524.7452884609, -159394.89417015246, -174493.5869566902, -174444.1225462106, -151006.57504875364, -174528.5003815294, 0.272, 0.75, 0.528, 192.0, 0.0, 0.0, 0.0, 0.0, 0.0, 0.0, 0.0, 0.0, 0.0, 1.7395369418289716E9, 0.0, 2025-02-14 09:42:21.828
35.0, -120889.52164525053, -123727.88026665215, -174523.62770123812, -159513.71604367686, -174492.62583167863, -174443.09436596566, -151088.53889567126, -174527.40514605108, 0.272, 0.75, 0.528, 192.0, 0.0, 0.0, 0.0, 0.0, 0.0, 0.0, 0.0, 0.0, 0.0, 1.7395369418289812E9, 0.0, 2025-02-14 09:42:21.828
36.0, -121012.18801882125, -123709.23891177643, -174521.2360645814, -159531.82095668567, -174492.04468632277, -174440.81448803123, -151165.56300706422, -174525.01350939437, 0.272, 0.75, 0.528, 192.0, 0.0, 0.0, 0.0, 0.0, 0.0, 0.0, 0.0, 0.0, 0.0, 1.7395369418289907E9, 0.0, 2025-02-14 09:42:21.828
37.0, -121094.37538318342, -123684.71904810895, -174519.85025642518, -159501.06495631515, -174491.59765143367, -174439.24986591935, -151178.41526012603, -174523.6947564715, 0.276, 0.768, 0.542, 192.0, 8.0, 160.0, 24.0, 0.0, 16.0, 240.0, 0.0, 0.0, 0.0, 1.7395369418290007E9, 0.0, 2025-02-14 09:42:21.829
38.0, -121072.26950791711, -123789.72754355999, -174518.12917210214, -159567.40493385852, -174489.51893919933, -174437.72994729638, -151189.05469048675, -174521.95132040398, 0.276, 0.768, 0.542, 192.0, 0.0, 0.0, 0.0, 0.0, 0.0, 0.0, 0.0, 0.0, 0.0, 1.7395369418290112E9, 0.0, 2025-02-14 09:42:21.829
39.0, -121073.63296432889, -123912.12569619724, -174515.87164591215, -159694.56400806477, -174487.35081998716, -174435.71829029542, -151257.58513898673, -174519.76084944737, 0.276, 0.768, 0.542, 192.0, 0.0, 0.0, 0.0, 0.0, 0.0, 0.0, 0.0, 0.0, 0.0, 1.7395369418290207E9, 0.0, 2025-02-14 09:42:21.829
40.0, -121179.3567156025, -123909.15291418468, -174513.52471274434, -159729.85741255968, -174486.25558450885, -174433.43841236096, -151342.03002953887, -174517.436268024, 0.276, 0.768, 0.542, 192.0, 0.0, 0.0, 0.0, 0.0, 0.0, 0.0, 0.0, 0.0, 0.0, 1.7395369418290305E9, 0.0, 2025-02-14 09:42:21.829
41.0, -121274.10576034854, -123868.60684974276, -174513.77058193335, -159690.40658359608, -174487.21670952043, -174433.61722631662, -151370.7296694195, -174517.65978546857, 0.276, 0.768, 0.542, 192.0, 0.0, 0.0, 0.0, 0.0, 0.0, 0.0, 0.0, 0.0, 0.0, 1.7395369418290403E9, 0.0, 2025-02-14 09:42:21.829
42.0, -121258.88422237447, -123945.04981577992, -174512.47418075494, -159732.47256666096, -174485.67443915302, -174432.45493560494, -151376.00468111096, -174516.45279126798, 0.276, 0.768, 0.542, 192.0, 0.0, 0.0, 0.0, 0.0, 0.0, 0.0, 0.0, 0.0, 0.0, 1.73953694182905E9, 0.0, 2025-02-14 09:42:21.829
43.0, -121241.98630356626, -124074.75698885406, -174509.72491618694, -159861.28566995688, -174482.72400888492, -174429.81742975922, -151436.01911497346, -174513.70352669997, 0.276, 0.768, 0.542, 192.0, 0.0, 0.0, 0.0, 0.0, 0.0, 0.0, 0.0, 0.0, 0.0, 1.739536941829061E9, 0.0, 2025-02-14 09:42:21.829
44.0, -121333.67315932193, -124098.67335542124, -174507.46738999695, -159923.33411256483, -174481.22644200642, -174427.6716622915, -151523.90617417172, -174511.4907039989, 0.276, 0.768, 0.542, 192.0, 0.0, 0.0, 0.0, 0.0, 0.0, 0.0, 0.0, 0.0, 0.0, 1.739536941829078E9, 0.0, 2025-02-14 09:42:21.829
45.0, -121441.8108989967, -124056.1826892117, -174508.87554989764, -159892.51105696097, -174483.32750598522, -174428.92335998098, -151554.03632569747, -174512.87651215514, 0.276, 0.768, 0.542, 192.0, 0.0, 0.0, 0.0, 0.0, 0.0, 0.0, 0.0, 0.0, 0.0, 1.7395369418290937E9, 0.0, 2025-02-14 09:42:21.829
46.0, -121446.79533801024, -124113.40315501728, -174507.62385220814, -159913.9016764047, -174482.187567018, -174427.91753148052, -151553.05284894144, -174511.84833191018, 0.276, 0.768, 0.542, 192.0, 0.0, 0.0, 0.0, 0.0, 0.0, 0.0, 0.0, 0.0, 0.0, 1.739536941829104E9, 0.0, 2025-02-14 09:42:21.829
47.0, -121420.01794815279, -124251.31341830653, -174506.26039579636, -160029.3260847719, -174480.7347036284, -174426.8222960022, -151600.4385471867, -174510.6413377096, 0.28, 0.78, 0.548, 192.0, 8.0, 192.0, 24.0, 96.0, 17.0, 32.0, 0.0, 0.0, 0.0, 1.7395369418291137E9, 0.0, 2025-02-14 09:42:21.829
48.0, -121493.84576008866, -124296.0839624505, -174505.92511962954, -160096.47072511562, -174480.75705537284, -174426.46466809092, -151691.70071979772, -174510.17195107604, 0.28, 0.78, 0.548, 192.0, 0.0, 0.0, 0.0, 0.0, 0.0, 0.0, 0.0, 0.0, 0.0, 1.7395369418291242E9, 0.0, 2025-02-14 09:42:21.829
49.0, -121613.58405513574, -124243.04327285806, -174504.87458764014, -160067.74873349056, -174480.3323722282, -174425.34708086814, -151737.3653337199, -174509.05436385327, 0.28, 0.78, 0.548, 192.0, 0.0, 0.0, 0.0, 0.0, 0.0, 0.0, 0.0, 0.0, 0.0, 1.739536941829134E9, 0.0, 2025-02-14 09:42:21.829
50.0, -121640.27203801538, -124276.2356133742, -174502.79587540578, -160074.56601554944, -174478.29836348278, -174423.31307212272, -151733.7219993737, -174506.93094813003, 0.28, 0.78, 0.548, 192.0, 0.0, 0.0, 0.0, 0.0, 0.0, 0.0, 0.0, 0.0, 0.0, 1.7395369418291478E9, 0.0, 2025-02-14 09:42:21.829
51.0, -121610.11953474517, -124416.73867902026, -174500.22542479343, -160185.4530197922, -174475.5267471703, -174420.921435466, -151769.75301143565, -174504.49460798438, 0.28, 0.78, 0.548, 192.0, 0.0, 0.0, 0.0, 0.0, 0.0, 0.0, 0.0, 0.0, 0.0, 1.7395369418291576E9, 0.0, 2025-02-14 09:42:21.829
52.0, -121667.0717796173, -124491.86289213454, -174497.29734626977, -160278.86095987094, -174472.7327791134, -174417.99335694234, -151866.2901957381, -174501.49947422737, 0.28, 0.78, 0.548, 192.0, 0.0, 0.0, 0.0, 0.0, 0.0, 0.0, 0.0, 0.0, 0.0, 1.7395369418291671E9, 0.0, 2025-02-14 09:42:21.829
53.0, -121789.22406306554, -124443.4713653888, -174497.43145673652, -160267.55097717655, -174473.4927384249, -174418.1274674091, -151929.7691499912, -174501.65593643856, 0.28, 0.78, 0.548, 192.0, 0.0, 0.0, 0.0, 0.0, 0.0, 0.0, 0.0, 0.0, 0.0, 1.739536941829177E9, 0.0, 2025-02-14 09:42:21.829
54.0, -121828.71959551808, -124450.48981314777, -174495.21863403544, -160255.1234072594, -174471.436377935, -174415.93699645245, -151935.6700105274, -174499.44311373748, 0.28, 0.78, 0.548, 192.0, 0.0, 0.0, 0.0, 0.0, 0.0, 0.0, 0.0, 0.0, 0.0, 1.739536941829187E9, 0.0, 2025-02-14 09:42:21.829
55.0, -121790.3416502883, -124581.76160833379, -174494.32456425723, -160354.3428008965, -174470.36349420113, -174415.33349935216, -151961.59803409554, -174498.77256140384, 0.28, 0.78, 0.548, 192.0, 0.0, 0.0, 0.0, 0.0, 0.0, 0.0, 0.0, 0.0, 0.0, 1.7395369418291962E9, 0.0, 2025-02-14 09:42:21.829
56.0, -121824.83039198285, -124673.71668502293, -174492.71523865644, -160467.5767383071, -174468.7765203448, -174413.83593247365, -152042.17607285694, -174497.18558754752, 0.28, 0.78, 0.548, 192.0, 0.0, 0.0, 0.0, 0.0, 0.0, 0.0, 0.0, 0.0, 0.0, 1.7395369418292055E9, 0.0, 2025-02-14 09:42:21.829
57.0, -121949.59782953237, -124638.17741133898, -174491.4858927114, -160467.15205516244, -174468.0836162667, -174412.58423478415, -152111.3547219461, -174495.93388985802, 0.276, 0.79, 0.554, 192.0, 8.0, 160.0, 24.0, 176.0, 17.0, 80.0, 0.0, 0.0, 0.0, 1.7395369418292153E9, 0.0, 2025-02-14 09:42:21.829
58.0, -122013.34500471891, -124623.42525999848, -174491.6870584115, -160435.613743736, -174468.46359592243, -174412.7183452509, -152120.2507162393, -174496.09035206918, 0.276, 0.79, 0.554, 192.0, 0.0, 0.0, 0.0, 0.0, 0.0, 0.0, 0.0, 0.0, 0.0, 1.7395369418292253E9, 0.0, 2025-02-14 09:42:21.829
59.0, -121981.29260317, -124737.73208114292, -174489.87656711062, -160511.5873231396, -174466.45193892147, -174411.08666790565, -152131.22542276687, -174494.41397123504, 0.276, 0.79, 0.554, 192.0, 0.0, 0.0, 0.0, 0.0, 0.0, 0.0, 0.0, 0.0, 0.0, 1.739536941829235E9, 0.0, 2025-02-14 09:42:21.829
60.0, -121999.15164698979, -124848.99906504144, -174487.55198568726, -160632.80083332074, -174464.10500575366, -174408.9632521824, -152213.16691794002, -174492.17879678952, 0.276, 0.79, 0.554, 192.0, 0.0, 0.0, 0.0, 0.0, 0.0, 0.0, 0.0, 0.0, 0.0, 1.73953694182926E9, 0.0, 2025-02-14 09:42:21.829
61.0, -122116.6771193358, -124833.68812008956, -174486.25558450885, -160654.0126388088, -174463.14388074208, -174407.53274053728, -152298.57293350375, -174490.77063688883, 0.276, 0.79, 0.554, 192.0, 0.0, 0.0, 0.0, 0.0, 0.0, 0.0, 0.0, 0.0, 0.0, 1.73953694182927E9, 0.0, 2025-02-14 09:42:21.829
62.0, -122201.43493431032, -124804.04970694182, -174484.51214844134, -160614.62886507856, -174461.668665608, -174405.7669527253, -152317.90719245758, -174489.09425605467, 0.276, 0.79, 0.554, 192.0, 0.0, 0.0, 0.0, 0.0, 0.0, 0.0, 0.0, 0.0, 0.0, 1.73953694182928E9, 0.0, 2025-02-14 09:42:21.829
63.0, -122177.63032646541, -124903.76083895694, -174485.76384613084, -160667.423685482, -174462.8309563197, -174407.175112626, -152323.58453554925, -174490.3906572331, 0.276, 0.79, 0.554, 192.0, 0.0, 0.0, 0.0, 0.0, 0.0, 0.0, 0.0, 0.0, 0.0, 1.7395369418292894E9, 0.0, 2025-02-14 09:42:21.829
64.0, -122169.27077403913, -125030.71874746309, -174484.02041006333, -160792.83932362072, -174461.1322237411, -174405.49873179183, -152385.27535024588, -174488.60251767666, 0.276, 0.79, 0.554, 192.0, 0.0, 0.0, 0.0, 0.0, 0.0, 0.0, 0.0, 0.0, 0.0, 1.7395369418293E9, 0.0, 2025-02-14 09:42:21.829
65.0, -122271.0606182886, -125035.83729694335, -174480.71235188394, -160833.51949852938, -174458.2264969619, -174402.3247840792, -152469.4296681201, -174485.36151473064, 0.276, 0.79, 0.554, 192.0, 0.0, 0.0, 0.0, 0.0, 0.0, 0.0, 0.0, 0.0, 0.0, 1.7395369418293097E9, 0.0, 2025-02-14 09:42:21.829
66.0, -122368.9836107473, -124997.6605174137, -174480.06415129473, -160801.89178012512, -174457.84651730617, -174401.7659904678, -152495.2906364549, -174484.62390716362, 0.276, 0.79, 0.554, 192.0, 0.0, 0.0, 0.0, 0.0, 0.0, 0.0, 0.0, 0.0, 0.0, 1.7395369418293195E9, 0.0, 2025-02-14 09:42:21.829
67.0, -122361.92045949942, -125074.3717043843, -174478.4771774384, -160842.72841724497, -174456.170136472, -174400.3131270782, -152496.20705797756, -174483.21574726293, 0.28, 0.794, 0.556, 192.0, 8.0, 192.0, 24.0, 208.0, 17.0, 96.0, 0.0, 0.0, 0.0, 1.7395369418293288E9, 0.0, 2025-02-14 09:42:21.829
68.0, -122347.5259360702, -125210.04679322802, -174475.2808779813, -160972.81556997486, -174452.88443003708, -174397.18388285447, -152558.52372151898, -174480.1312065281, 0.28, 0.794, 0.556, 192.0, 0.0, 0.0, 0.0, 0.0, 0.0, 0.0, 0.0, 0.0, 0.0, 1.739536941829339E9, 0.0, 2025-02-14 09:42:21.829
69.0, -122437.82698366964, -125235.50543016261, -174474.2750494808, -161032.07004452587, -174452.10211898116, -174396.13335086507, -152654.12213255433, -174479.0359710498, 0.28, 0.794, 0.556, 192.0, 0.0, 0.0, 0.0, 0.0, 0.0, 0.0, 0.0, 0.0, 0.0, 1.7395369418293486E9, 0.0, 2025-02-14 09:42:21.829
70.0, -122551.1279763136, -125185.21400513817, -174475.5267471703, -160996.06138420838, -174453.73379632639, -174397.38504855457, -152694.51173478505, -174480.31002048374, 0.28, 0.794, 0.556, 192.0, 0.0, 0.0, 0.0, 0.0, 0.0, 0.0, 0.0, 0.0, 0.0, 1.739536941829358E9, 0.0, 2025-02-14 09:42:21.829
71.0, -122561.52153748531, -125235.97481679617, -174474.20799424744, -161017.69787284112, -174452.43739514798, -174396.17805435398, -152688.7002812267, -174479.10302628315, 0.28, 0.794, 0.556, 192.0, 0.0, 0.0, 0.0, 0.0, 0.0, 0.0, 0.0, 0.0, 0.0, 1.7395369418293679E9, 0.0, 2025-02-14 09:42:21.829
72.0, -122533.47009819391, -125373.08041728502, -174470.3858459456, -161134.39633064228, -174448.3693776571, -174392.3559060521, -152735.25896492708, -174475.2808779813, 0.28, 0.794, 0.556, 192.0, 0.0, 0.0, 0.0, 0.0, 0.0, 0.0, 0.0, 0.0, 0.0, 1.7395369418293772E9, 0.0, 2025-02-14 09:42:21.829
73.0, -122606.42619209603, -125423.23773184273, -174470.60936339013, -161214.16970660328, -174448.8164125462, -174392.7135339634, -152830.0750649065, -174475.54909891478, 0.28, 0.794, 0.556, 192.0, 0.0, 0.0, 0.0, 0.0, 0.0, 0.0, 0.0, 0.0, 0.0, 1.7395369418293867E9, 0.0, 2025-02-14 09:42:21.829
74.0, -122726.20919063201, -125374.8909085859, -174467.81539533322, -161189.20280804668, -174446.29066542277, -174389.8078071842, -152881.8864085539, -174472.66572388003, 0.28, 0.794, 0.556, 192.0, 0.0, 0.0, 0.0, 0.0, 0.0, 0.0, 0.0, 0.0, 0.0, 1.7395369418293965E9, 0.0, 2025-02-14 09:42:21.829
75.0, -122750.50553685494, -125399.38842050893, -174465.5802208877, -161186.05121207848, -174444.05549097725, -174387.6173362276, -152879.49477189718, -174470.4752529234, 0.28, 0.794, 0.556, 192.0, 0.0, 0.0, 0.0, 0.0, 0.0, 0.0, 0.0, 0.0, 0.0, 1.7395369418294113E9, 0.0, 2025-02-14 09:42:21.829
76.0, -122713.93808292605, -125534.59412271908, -174463.4791569089, -161298.59224541095, -174441.86502002063, -174385.6503827155, -152909.2002402783, -174468.46359592243, 0.28, 0.794, 0.556, 192.0, 0.0, 0.0, 0.0, 0.0, 0.0, 0.0, 0.0, 0.0, 0.0, 1.7395369418294208E9, 0.0, 2025-02-14 09:42:21.829
77.0, -122766.82231030731, -125607.7513823213, -174462.49568015288, -161398.66100533737, -174440.9709502424, -174384.6669059595, -152997.04259598764, -174467.36836044412, 0.28400000000000003, 0.798, 0.554, 192.0, 8.0, 224.0, 24.0, 240.0, 17.0, 80.0, 0.0, 0.0, 0.0, 1.7395369418294303E9, 0.0, 2025-02-14 09:42:21.829
78.0, -122890.67332633416, -125565.75245448978, -174460.5287266408, -161383.77474353014, -174439.33927289717, -174382.78935942525, -153054.17365481541, -174465.3343516987, 0.28400000000000003, 0.798, 0.554, 192.0, 0.0, 0.0, 0.0, 0.0, 0.0, 0.0, 0.0, 0.0, 0.0, 1.7395369418294404E9, 0.0, 2025-02-14 09:42:21.829
79.0, -122936.98614084556, -125566.42300682343, -174460.19345047398, -161366.7874177441, -174439.13810719707, -174382.43173151396, -153050.41856174692, -174465.06613076522, 0.28400000000000003, 0.798, 0.554, 192.0, 0.0, 0.0, 0.0, 0.0, 0.0, 0.0, 0.0, 0.0, 0.0, 1.73953694182945E9, 0.0, 2025-02-14 09:42:21.829
80.0, -122900.88807355025, -125688.77645597178, -174459.85817430713, -161460.5529857341, -174438.46755486343, -174382.11880709158, -153062.77907643068, -174464.7755580873, 0.28400000000000003, 0.798, 0.554, 192.0, 0.0, 0.0, 0.0, 0.0, 0.0, 0.0, 0.0, 0.0, 0.0, 1.7395369418294592E9, 0.0, 2025-02-14 09:42:21.829
81.0, -122935.39916698924, -125781.78206465031, -174460.55107838527, -161578.10080982457, -174439.20516243044, -174382.96817338088, -153141.23369946884, -174465.51316565432, 0.28400000000000003, 0.798, 0.554, 192.0, 0.0, 0.0, 0.0, 0.0, 0.0, 0.0, 0.0, 0.0, 0.0, 1.7395369418294687E9, 0.0, 2025-02-14 09:42:21.829
82.0, -123063.27349701805, -125748.58972413419, -174458.0253312618, -161580.51479822575, -174437.12645019608, -174380.53183323526, -153210.34529332464, -174463.0321220198, 0.28400000000000003, 0.798, 0.554, 192.0, 0.0, 0.0, 0.0, 0.0, 0.0, 0.0, 0.0, 0.0, 0.0, 1.7395369418294785E9, 0.0, 2025-02-14 09:42:21.829
83.0, -123142.93511425676, -125728.07082272421, -174455.85721204965, -161547.21069898733, -174435.04773796175, -174378.29665878974, -153218.23545911736, -174460.84165106318, 0.28400000000000003, 0.798, 0.554, 192.0, 0.0, 0.0, 0.0, 0.0, 0.0, 0.0, 0.0, 0.0, 0.0, 1.739536941829488E9, 0.0, 2025-02-14 09:42:21.829
84.0, -123122.32680586897, -125834.19690539801, -174454.2702381933, -161622.647836524, -174433.34900538315, -174376.73203667786, -153222.4599388194, -174459.3217324402, 0.28400000000000003, 0.798, 0.554, 192.0, 0.0, 0.0, 0.0, 0.0, 0.0, 0.0, 0.0, 0.0, 0.0, 1.7395369418294976E9, 0.0, 2025-02-14 09:42:21.829
85.0, -123130.64165480634, -125942.84873519525, -174451.7668428143, -161740.17330887, -174430.86796174862, -174374.38510351005, -153289.76104137435, -174456.8853922946, 0.28400000000000003, 0.798, 0.554, 192.0, 0.0, 0.0, 0.0, 0.0, 0.0, 0.0, 0.0, 0.0, 0.0, 1.739536941829507E9, 0.0, 2025-02-14 09:42:21.829
86.0, -123238.60058052548, -125925.7720024314, -174451.38686315858, -161758.65820153453, -174430.82325825968, -174374.02747559876, -153362.98535620992, -174456.5277643833, 0.28400000000000003, 0.798, 0.554, 192.0, 0.0, 0.0, 0.0, 0.0, 0.0, 0.0, 0.0, 0.0, 0.0, 1.739536941829518E9, 0.0, 2025-02-14 09:42:21.829
87.0, -123320.65383442091, -125891.0150398034, -174451.7668428143, -161722.15780283904, -174431.35970012663, -174374.34040002114, -153378.07278371725, -174456.86304055012, 0.274, 0.798, 0.558, 192.0, 8.0, 144.0, 24.0, 240.0, 17.0, 112.0, 0.0, 0.0, 0.0, 1.7395369418295276E9, 0.0, 2025-02-14 09:42:21.829
88.0, -123296.67041262037, -125977.29277340088, -174449.8222410467, -161778.21597793294, -174429.28098789227, -174372.48520523135, -153379.59270234022, -174455.00784576035, 0.274, 0.798, 0.558, 192.0, 0.0, 0.0, 0.0, 0.0, 0.0, 0.0, 0.0, 0.0, 0.0, 1.7395369418295376E9, 0.0, 2025-02-14 09:42:21.829
89.0, -123289.74137183922, -126101.65787955021, -174447.65412183455, -161899.1612671806, -174426.97875821337, -174370.38414125255, -153443.49633973793, -174452.88443003708, 0.274, 0.798, 0.558, 192.0, 0.0, 0.0, 0.0, 0.0, 0.0, 0.0, 0.0, 0.0, 0.0, 1.739536941829554E9, 0.0, 2025-02-14 09:42:21.829
90.0, -123389.2736898987, -126103.37896387327, -174445.70952006694, -161933.9182298086, -174425.10121167914, -174368.35013250713, -153530.71284660255, -174450.8280695472, 0.274, 0.798, 0.558, 192.0, 0.0, 0.0, 0.0, 0.0, 0.0, 0.0, 0.0, 0.0, 0.0, 1.7395369418295639E9, 0.0, 2025-02-14 09:42:21.829
91.0, -123484.13449336702, -126060.64242847472, -174443.83197353268, -161891.6063775547, -174423.60364480063, -174366.56199295068, -153565.246291786, -174448.9281712685, 0.274, 0.798, 0.558, 192.0, 0.0, 0.0, 0.0, 0.0, 0.0, 0.0, 0.0, 0.0, 0.0, 1.7395369418295736E9, 0.0, 2025-02-14 09:42:21.829
92.0, -123477.00428688579, -126133.21854272111, -174443.58610434367, -161930.90074430715, -174423.38012735607, -174366.45023422842, -153565.78273365292, -174448.79406080177, 0.274, 0.798, 0.558, 192.0, 0.0, 0.0, 0.0, 0.0, 0.0, 0.0, 0.0, 0.0, 0.0, 1.7395369418295832E9, 0.0, 2025-02-14 09:42:21.829
93.0, -123455.7924813977, -126271.24056473262, -174440.88154326458, -162057.79159757993, -174420.58615929916, -174363.81272838268, -153619.1586994122, -174446.08949972267, 0.274, 0.798, 0.558, 192.0, 0.0, 0.0, 0.0, 0.0, 0.0, 0.0, 0.0, 0.0, 0.0, 1.739536941829597E9, 0.0, 2025-02-14 09:42:21.829
94.0, -123539.05272949372, -126300.14137031334, -174439.20516243044, -162123.66218848972, -174419.04388893174, -174362.13634754854, -153706.3305027879, -174444.39076714407, 0.274, 0.798, 0.558, 192.0, 0.0, 0.0, 0.0, 0.0, 0.0, 0.0, 0.0, 0.0, 0.0, 1.7395369418296068E9, 0.0, 2025-02-14 09:42:21.829
95.0, -123651.8843355041, -126249.40291039979, -174439.11575545263, -162088.72641190607, -174419.20035114294, -174362.13634754854, -153748.21767189715, -174444.34606365516, 0.274, 0.798, 0.558, 192.0, 0.0, 0.0, 0.0, 0.0, 0.0, 0.0, 0.0, 0.0, 0.0, 1.7395369418296163E9, 0.0, 2025-02-14 09:42:21.829
96.0, -123657.27110591783, -126295.20163478871, -174438.84753451915, -162099.92463587818, -174418.88742672055, -174361.77871963725, -153741.02041018254, -174444.03313923278, 0.274, 0.798, 0.558, 192.0, 0.0, 0.0, 0.0, 0.0, 0.0, 0.0, 0.0, 0.0, 0.0, 1.739536941829626E9, 0.0, 2025-02-14 09:42:21.829
97.0, -123626.22453286941, -126436.75523242417, -174435.71829029542, -162219.46176522516, -174415.5793685412, -174358.71653064687, -153782.23702695812, -174441.01565373133, 0.278, 0.792, 0.562, 192.0, 8.0, 176.0, 24.0, 192.0, 17.0, 144.0, 0.0, 0.0, 0.0, 1.7395369418296356E9, 0.0, 2025-02-14 09:42:21.829
98.0, -123697.50424593738, -126492.29931739562, -174434.31013039473, -162304.5101528776, -174414.23826387385, -174357.44248121293, -153870.28054836756, -174439.56279034173, 0.278, 0.792, 0.562, 192.0, 0.0, 0.0, 0.0, 0.0, 0.0, 0.0, 0.0, 0.0, 0.0, 1.7395369418296456E9, 0.0, 2025-02-14 09:42:21.829
99.0, -123818.24836948495, -126439.86212490346, -174434.04190946126, -162285.33235613495, -174414.28296736276, -174357.17426027945, -153915.05109251157, -174439.20516243044, 0.278, 0.792, 0.562, 192.0, 0.0, 0.0, 0.0, 0.0, 0.0, 0.0, 0.0, 0.0, 0.0, 1.739536941829655E9, 0.0, 2025-02-14 09:42:21.829
100.0, -123852.69240769059, -126462.88442169243, -174432.90197049404, -162284.1030101899, -174413.18773188445, -174355.96726607886, -153900.9694935047, -174438.10992695214, 0.278, 0.792, 0.562, 192.0, 0.0, 0.0, 0.0, 0.0, 0.0, 0.0, 0.0, 0.0, 0.0, 1.7395369418296645E9, 0.0, 2025-02-14 09:42:21.829
101.0, -123821.31055847534, -126596.7266674908, -174431.24794140435, -162384.81997070552, -174411.4219440725, -174354.42499571145, -153921.80131933707, -174436.59000832916, 0.278, 0.792, 0.562, 192.0, 0.0, 0.0, 0.0, 0.0, 0.0, 0.0, 0.0, 0.0, 0.0, 1.739536941829674E9, 0.0, 2025-02-14 09:42:21.829
102.0, -123863.8906316627, -126674.33192423964, -174430.64444430405, -162479.16668405136, -174410.79609522774, -174353.86620210006, -154000.9041429644, -174435.96415948443, 0.278, 0.792, 0.562, 192.0, 0.0, 0.0, 0.0, 0.0, 0.0, 0.0, 0.0, 0.0, 0.0, 1.7395369418296833E9, 0.0, 2025-02-14 09:42:21.829
103.0, -123986.15467383323, -126631.26011267425, -174431.20323791544, -162468.46019845727, -174411.64546151704, -174354.46969920036, -154058.7057541258, -174436.5229530958, 0.278, 0.792, 0.562, 192.0, 0.0, 0.0, 0.0, 0.0, 0.0, 0.0, 0.0, 0.0, 0.0, 1.7395369418296933E9, 0.0, 2025-02-14 09:42:21.829
104.0, -124036.80372676895, -126622.54293233668, -174429.10217393664, -162444.20855572328, -174409.6114527716, -174352.2568764993, -154058.1693122589, -174434.44424086146, 0.278, 0.792, 0.562, 192.0, 0.0, 0.0, 0.0, 0.0, 0.0, 0.0, 0.0, 0.0, 0.0, 1.7395369418297136E9, 0.0, 2025-02-14 09:42:21.829
105.0, -123999.3645548063, -126740.80601224971, -174427.62695880258, -162529.03342593115, -174408.0691824042, -174350.98282706534, -154068.875797853, -174432.99137747186, 0.278, 0.792, 0.562, 192.0, 0.0, 0.0, 0.0, 0.0, 0.0, 0.0, 0.0, 0.0, 0.0, 1.739536941829725E9, 0.0, 2025-02-14 09:42:21.829
106.0, -124024.8678952298, -126842.685263477, -174424.34125236765, -162636.3441510611, -174404.78347596928, -174347.8088793527, -154141.56367082163, -174429.70567103694, 0.278, 0.792, 0.562, 192.0, 0.0, 0.0, 0.0, 0.0, 0.0, 0.0, 0.0, 0.0, 0.0, 1.7395369418297365E9, 0.0, 2025-02-14 09:42:21.829
107.0, -124148.49539381212, -126810.69991716146, -174422.3742988556, -162642.91556393096, -174403.1070951351, -174345.7972223517, -154217.96193336986, -174427.71636578042, 0.298, 0.786, 0.562, 192.0, 9.0, 80.0, 24.0, 144.0, 17.0, 144.0, 0.0, 0.0, 0.0, 1.7395369418297489E9, 0.0, 2025-02-14 09:42:21.829
108.0, -124226.1677057943, -126787.96819305042, -174422.08372617766, -162613.47831648332, -174402.9729846684, -174345.4619461849, -154227.32731429665, -174427.40344135804, 0.298, 0.786, 0.562, 192.0, 0.0, 0.0, 0.0, 0.0, 0.0, 0.0, 0.0, 0.0, 0.0, 1.7395369418297608E9, 0.0, 2025-02-14 09:42:21.829
109.0, -124201.6701938713, -126898.49756938191, -174421.3684703551, -162683.61809058406, -174402.10126663462, -174344.9031525735, -154230.59066898713, -174426.79994425774, 0.298, 0.786, 0.562, 192.0, 0.0, 0.0, 0.0, 0.0, 0.0, 0.0, 0.0, 0.0, 0.0, 1.739536941829772E9, 0.0, 2025-02-14 09:42:21.829
110.0, -124214.56715042201, -127017.69942256206, -174420.18382789896, -162806.06094671023, -174400.9166241785, -174343.7632136063, -154299.67991109847, -174425.66000529053, 0.298, 0.786, 0.562, 192.0, 0.0, 0.0, 0.0, 0.0, 0.0, 0.0, 0.0, 0.0, 0.0, 1.7395369418297837E9, 0.0, 2025-02-14 09:42:21.829
111.0, -124323.80012557509, -127006.30003288985, -174419.55797905423, -162837.3310372032, -174400.53664452277, -174343.13736476153, -154379.1403626371, -174425.01180470132, 0.298, 0.786, 0.562, 192.0, 0.0, 0.0, 0.0, 0.0, 0.0, 0.0, 0.0, 0.0, 0.0, 1.739536941829795E9, 0.0, 2025-02-14 09:42:21.829
112.0, -124402.52296954668, -126967.56445974881, -174416.6746040195, -162808.47493511142, -174397.7650282103, -174340.23163798233, -154399.01106345787, -174422.08372617766, 0.298, 0.786, 0.562, 192.0, 0.0, 0.0, 0.0, 0.0, 0.0, 0.0, 0.0, 0.0, 0.0, 1.7395369418298063E9, 0.0, 2025-02-14 09:42:21.829
113.0, -124377.60077447901, -127054.6915596356, -174414.93116795196, -162860.4874444589, -174395.97688865388, -174338.66701587048, -154401.76032802588, -174420.5191040658, 0.298, 0.786, 0.562, 192.0, 0.0, 0.0, 0.0, 0.0, 0.0, 0.0, 0.0, 0.0, 0.0, 1.7395369418298182E9, 0.0, 2025-02-14 09:42:21.829
114.0, -124357.68537016933, -127190.3666484793, -174413.9253394515, -162981.63389940668, -174394.8593014311, -174337.5941321366, -154469.97785210348, -174419.44622033194, 0.298, 0.786, 0.562, 192.0, 0.0, 0.0, 0.0, 0.0, 0.0, 0.0, 0.0, 0.0, 0.0, 1.73953694182983E9, 0.0, 2025-02-14 09:42:21.829
115.0, -124447.2264584573, -127206.70577367613, -174411.93603419495, -163031.97002792003, -174393.04881013022, -174335.6048268801, -154564.32456544932, -174417.41221158652, 0.298, 0.786, 0.562, 192.0, 0.0, 0.0, 0.0, 0.0, 0.0, 0.0, 0.0, 0.0, 0.0, 1.739536941829844E9, 0.0, 2025-02-14 09:42:21.829
116.0, -124547.13875617251, -127167.99255227955, -174410.39376382754, -163000.36466126022, -174391.7524089518, -174334.1072600016, -154606.77052816993, -174415.89229296354, 0.298, 0.786, 0.562, 192.0, 0.0, 0.0, 0.0, 0.0, 0.0, 0.0, 0.0, 0.0, 0.0, 1.7395369418298554E9, 0.0, 2025-02-14 09:42:21.829
117.0, -124533.70535775488, -127241.14981188177, -174410.8631504611, -163034.80869946585, -174391.97592639638, -174334.5542948907, -154612.55962998388, -174416.38403134156, 0.304, 0.792, 0.5640000000000001, 192.0, 9.0, 128.0, 24.0, 192.0, 17.0, 160.0, 0.0, 0.0, 0.0, 1.739536941829867E9, 0.0, 2025-02-14 09:42:21.829
118.0, -124507.41970627544, -127379.93179320477, -174408.33740333765, -163158.12327362577, -174389.47253101738, -174332.18500997842, -154671.8588080238, -174413.9700429404, 0.304, 0.792, 0.5640000000000001, 192.0, 0.0, 0.0, 0.0, 0.0, 0.0, 0.0, 0.0, 0.0, 0.0, 1.7395369418298783E9, 0.0, 2025-02-14 09:42:21.829
119.0, -124590.09880901562, -127412.23006394268, -174406.6163190146, -163229.22417273812, -174387.9526123944, -174330.62038786657, -154767.97130918162, -174412.2713103618, 0.304, 0.792, 0.5640000000000001, 192.0, 0.0, 0.0, 0.0, 0.0, 0.0, 0.0, 0.0, 0.0, 0.0, 1.7395369418299584E9, 0.0, 2025-02-14 09:42:21.829
120.0, -124704.00329875987, -127359.43524353925, -174403.8223509577, -163204.30197767043, -174385.42686527097, -174327.893475043, -154815.15584172678, -174409.5220457938, 0.304, 0.792, 0.5640000000000001, 192.0, 0.0, 0.0, 0.0, 0.0, 0.0, 0.0, 0.0, 0.0, 0.0, 1.739536942308062E9, 0.0, 2025-02-14 09:42:22.308
121.0, -124721.90704606856, -127398.59549982495, -174402.99533641283, -163218.49533539955, -174384.62220247058, -174327.06646049817, -154814.17236497073, -174408.7173829934, 0.304, 0.792, 0.5640000000000001, 192.0, 0.0, 0.0, 0.0, 0.0, 0.0, 0.0, 0.0, 0.0, 0.0, 1.739536942308108E9, 0.0, 2025-02-14 09:42:22.308
122.0, -124692.5368538543, -127537.98097824825, -174402.34713582363, -163334.52324086707, -174383.81753967018, -174326.37355642006, -154852.3491445004, -174408.0691824042, 0.304, 0.792, 0.5640000000000001, 192.0, 0.0, 0.0, 0.0, 0.0, 0.0, 0.0, 0.0, 0.0, 0.0, 1.7395369423081307E9, 0.0, 2025-02-14 09:42:22.308
123.0, -124754.16061331757, -127600.05177260064, -174399.55316776672, -163425.2266198667, -174381.04592335774, -174323.6466435965, -154943.05252350005, -174405.23051085838, 0.304, 0.792, 0.5640000000000001, 192.0, 0.0, 0.0, 0.0, 0.0, 0.0, 0.0, 0.0, 0.0, 0.0, 1.7395369423081567E9, 0.0, 2025-02-14 09:42:22.308
124.0, -124879.8221206453, -127555.32593194557, -174398.34617356613, -163409.7145092147, -174380.1071500906, -174322.50670462928, -154995.40030901437, -174403.95646142442, 0.304, 0.792, 0.5640000000000001, 192.0, 0.0, 0.0, 0.0, 0.0, 0.0, 0.0, 0.0, 0.0, 0.0, 1.739536942308169E9, 0.0, 2025-02-14 09:42:22.308
125.0, -124912.99210941698, -127573.72141763227, -174397.5638625102, -163403.83600042298, -174379.32483903467, -174321.67969008442, -154989.03006184462, -174403.2635573463, 0.304, 0.792, 0.5640000000000001, 192.0, 0.0, 0.0, 0.0, 0.0, 0.0, 0.0, 0.0, 0.0, 0.0, 1.7395369423081803E9, 0.0, 2025-02-14 09:42:22.308
126.0, -124875.59764094325, -127709.396506476, -174396.17805435398, -163512.08549882003, -174377.93903087845, -174320.4503441394, -155012.85702143397, -174402.03421140127, 0.304, 0.792, 0.5640000000000001, 192.0, 0.0, 0.0, 0.0, 0.0, 0.0, 0.0, 0.0, 0.0, 0.0, 1.7395369423081925E9, 0.0, 2025-02-14 09:42:22.308
127.0, -124920.34583334278, -127792.36618189409, -174394.54637700872, -163620.5138111727, -174376.21794655538, -174318.8410185386, -155094.19501950682, -174400.3131270782, 0.302, 0.784, 0.5660000000000001, 192.0, 9.0, 112.0, 24.0, 128.0, 17.0, 176.0, 0.0, 0.0, 0.0, 1.739536942308204E9, 0.0, 2025-02-14 09:42:22.308
128.0, -125037.93836092215, -127752.44596629692, -174392.44531302992, -163619.88796232795, -174374.34040002114, -174316.82936153762, -155162.1666743954, -174398.1673596105, 0.302, 0.784, 0.5660000000000001, 192.0, 0.0, 0.0, 0.0, 0.0, 0.0, 0.0, 0.0, 0.0, 0.0, 1.7395369423082168E9, 0.0, 2025-02-14 09:42:22.308
129.0, -125091.80606505944, -127746.58980924962, -174392.2664990743, -163597.49151438376, -174374.2509930433, -174316.6952510709, -155174.79541001265, -174397.9661939104, 0.302, 0.784, 0.5660000000000001, 192.0, 0.0, 0.0, 0.0, 0.0, 0.0, 0.0, 0.0, 0.0, 0.0, 1.7395369423082285E9, 0.0, 2025-02-14 09:42:22.308
130.0, -125060.04423618845, -127867.04336011928, -174390.9700978959, -163680.4835415463, -174372.7534261648, -174315.35414640358, -155196.0295672452, -174396.7144962209, 0.302, 0.784, 0.5660000000000001, 192.0, 0.0, 0.0, 0.0, 0.0, 0.0, 0.0, 0.0, 0.0, 0.0, 1.7395369423082404E9, 0.0, 2025-02-14 09:42:22.308
131.0, -125079.28908816447, -127971.44835847002, -174389.94191765095, -163794.6115487351, -174371.74759766433, -174314.41537313646, -155284.58717877712, -174395.73101946487, 0.302, 0.784, 0.5660000000000001, 192.0, 0.0, 0.0, 0.0, 0.0, 0.0, 0.0, 0.0, 0.0, 0.0, 1.7395369423082952E9, 0.0, 2025-02-14 09:42:22.308
132.0, -125197.64157505531, -127950.3036082153, -174389.07019961718, -163807.7096709859, -174371.12174881957, -174313.56600684716, -155366.7298396504, -174394.83694968667, 0.302, 0.784, 0.5660000000000001, 192.0, 0.0, 0.0, 0.0, 0.0, 0.0, 0.0, 0.0, 0.0, 0.0, 1.7395369423083088E9, 0.0, 2025-02-14 09:42:22.308
133.0, -125273.05636084752, -127927.72834631543, -174388.6008129836, -163771.70101066842, -174370.76412090828, -174313.1413237025, -155387.2263893159, -174394.3675630531, 0.302, 0.784, 0.5660000000000001, 192.0, 0.0, 0.0, 0.0, 0.0, 0.0, 0.0, 0.0, 0.0, 0.0, 1.7395369423083296E9, 0.0, 2025-02-14 09:42:22.308
134.0, -125239.97577905367, -128030.61342604322, -174387.57263273868, -163836.90104924454, -174369.73594066335, -174312.18019869094, -155404.70545347995, -174393.33938280816, 0.302, 0.784, 0.5660000000000001, 192.0, 0.0, 0.0, 0.0, 0.0, 0.0, 0.0, 0.0, 0.0, 0.0, 1.7395369423083787E9, 0.0, 2025-02-14 09:42:22.308
135.0, -125243.79792735552, -128148.80945072288, -174385.94095539345, -163961.91435598308, -174368.05955982918, -174310.50381785678, -155476.96864330396, -174391.8194641852, 0.302, 0.784, 0.5660000000000001, 192.0, 0.0, 0.0, 0.0, 0.0, 0.0, 0.0, 0.0, 0.0, 0.0, 1.739536942308391E9, 0.0, 2025-02-14 09:42:22.308
136.0, -125351.86861179693, -128140.40519480768, -174381.53766173575, -163995.19610347704, -174363.81272838268, -174306.10052419908, -155566.88971124767, -174387.4161705275, 0.302, 0.784, 0.5660000000000001, 192.0, 0.0, 0.0, 0.0, 0.0, 0.0, 0.0, 0.0, 0.0, 0.0, 1.7395369423084035E9, 0.0, 2025-02-14 09:42:22.308
137.0, -125442.14730765192, -128103.68127866762, -174380.68829544645, -163961.69083853852, -174363.16452779347, -174305.31821314315, -155591.81190631533, -174386.52210074928, 0.298, 0.788, 0.5680000000000001, 192.0, 9.0, 80.0, 24.0, 160.0, 17.0, 192.0, 0.0, 0.0, 0.0, 1.7395369423084161E9, 0.0, 2025-02-14 09:42:22.308
138.0, -125430.12206913497, -128185.66747732968, -174380.37537102407, -164010.99878680691, -174362.78454813774, -174305.00528872077, -155592.59421737125, -174386.2538798158, 0.298, 0.788, 0.5680000000000001, 192.0, 0.0, 0.0, 0.0, 0.0, 0.0, 0.0, 0.0, 0.0, 0.0, 1.7395369423084292E9, 0.0, 2025-02-14 09:42:22.308
139.0, -125417.62744398446, -128319.17444696123, -174379.9059843905, -164137.15203251268, -174362.29280975973, -174304.58060557613, -155659.4482850371, -174385.94095539345, 0.298, 0.788, 0.5680000000000001, 192.0, 0.0, 0.0, 0.0, 0.0, 0.0, 0.0, 0.0, 0.0, 0.0, 1.7395369423084416E9, 0.0, 2025-02-14 09:42:22.308
140.0, -125515.46102946532, -128340.56506640496, -174376.59792621114, -164189.14219011573, -174358.96239983587, -174301.22784390784, -155755.13610305026, -174382.47643500287, 0.298, 0.788, 0.5680000000000001, 192.0, 0.0, 0.0, 0.0, 0.0, 0.0, 0.0, 0.0, 0.0, 0.0, 1.7395369423084538E9, 0.0, 2025-02-14 09:42:22.308
141.0, -125628.71731862037, -128291.63709779229, -174373.89336513204, -164151.56890768636, -174356.39194922353, -174298.54563457318, -155788.86488543332, -174379.79422566824, 0.298, 0.788, 0.5680000000000001, 192.0, 0.0, 0.0, 0.0, 0.0, 0.0, 0.0, 0.0, 0.0, 0.0, 1.739536942308476E9, 0.0, 2025-02-14 09:42:22.308
142.0, -125633.14296402253, -128353.1938020222, -174375.2568215438, -164179.93327140014, -174357.73305389084, -174299.97614621834, -155781.10883010732, -174381.2470890578, 0.298, 0.788, 0.5680000000000001, 192.0, 0.0, 0.0, 0.0, 0.0, 0.0, 0.0, 0.0, 0.0, 0.0, 1.7395369423084924E9, 0.0, 2025-02-14 09:42:22.308
143.0, -125610.63475735603, -128490.76878914463, -174373.8039581542, -164301.79498217048, -174356.12372829005, -174298.54563457318, -155829.36624638634, -174379.72717043487, 0.298, 0.788, 0.5680000000000001, 192.0, 0.0, 0.0, 0.0, 0.0, 0.0, 0.0, 0.0, 0.0, 0.0, 1.7395369423085048E9, 0.0, 2025-02-14 09:42:22.308
144.0, -125688.73175248287, -128532.49949604267, -174372.12757732006, -164372.8511777939, -174354.51440268927, -174296.91395722795, -155920.561363764, -174377.98373436736, 0.298, 0.788, 0.5680000000000001, 192.0, 0.0, 0.0, 0.0, 0.0, 0.0, 0.0, 0.0, 0.0, 0.0, 1.7395369423085172E9, 0.0, 2025-02-14 09:42:22.308
145.0, -125805.76548645085, -128484.10796929694, -174370.04886508573, -164348.51012808207, -174352.63685615503, -174294.83524499362, -155966.6506608308, -174375.905022133, 0.298, 0.788, 0.5680000000000001, 192.0, 0.0, 0.0, 0.0, 0.0, 0.0, 0.0, 0.0, 0.0, 0.0, 1.7395369423085303E9, 0.0, 2025-02-14 09:42:22.308
146.0, -125832.54287630832, -128520.42955403682, -174368.61835344057, -164362.301154411, -174351.2510479988, -174293.44943683737, -155961.57681483947, -174374.51921397678, 0.298, 0.788, 0.5680000000000001, 192.0, 0.0, 0.0, 0.0, 0.0, 0.0, 0.0, 0.0, 0.0, 0.0, 1.739536942308542E9, 0.0, 2025-02-14 09:42:22.308
147.0, -125805.67607947304, -128660.17266037139, -174366.94197260644, -164482.7770570251, -174349.5076119313, -174291.90716646996, -155992.95866405472, -174372.93224012046, 0.304, 0.792, 0.562, 192.0, 9.0, 128.0, 24.0, 192.0, 17.0, 144.0, 0.0, 0.0, 0.0, 1.7395369423085537E9, 0.0, 2025-02-14 09:42:22.308
148.0, -125870.18321397105, -128728.25607398225, -174366.49493771733, -164578.42017154934, -174349.17233576445, -174291.46013158085, -156079.14699067437, -174372.52990872026, 0.304, 0.792, 0.562, 192.0, 0.0, 0.0, 0.0, 0.0, 0.0, 0.0, 0.0, 0.0, 0.0, 1.7395369423085732E9, 0.0, 2025-02-14 09:42:22.308
149.0, -126000.7397533345, -128685.18426241688, -174367.72428366236, -164563.51155799767, -174350.44638519842, -174292.60007054807, -156135.0040000682, -174373.5580889652, 0.304, 0.792, 0.562, 192.0, 0.0, 0.0, 0.0, 0.0, 0.0, 0.0, 0.0, 0.0, 0.0, 1.7395369423085847E9, 0.0, 2025-02-14 09:42:22.308
150.0, -126044.63857944473, -128696.96363174483, -174364.08094931615, -164549.76523515765, -174346.87010608555, -174288.95673620186, -156131.78534886663, -174370.0041615968, 0.304, 0.792, 0.562, 192.0, 0.0, 0.0, 0.0, 0.0, 0.0, 0.0, 0.0, 0.0, 0.0, 1.7395369423085966E9, 0.0, 2025-02-14 09:42:22.308
151.0, -126011.02155578394, -128825.15088619602, -174362.42692022645, -164648.98462879474, -174345.1043182736, -174287.36976234554, -156154.11474157748, -174368.35013250713, 0.304, 0.792, 0.562, 192.0, 0.0, 0.0, 0.0, 0.0, 0.0, 0.0, 0.0, 0.0, 0.0, 1.7395369423086083E9, 0.0, 2025-02-14 09:42:22.308
152.0, -126049.73477718054, -128909.9757564039, -174361.95753359288, -164757.7929208032, -174344.67963512894, -174286.96743094534, -156240.50423389726, -174367.88074587355, 0.304, 0.792, 0.562, 192.0, 0.0, 0.0, 0.0, 0.0, 0.0, 0.0, 0.0, 0.0, 0.0, 1.7395369423086197E9, 0.0, 2025-02-14 09:42:22.308
153.0, -126168.02020883802, -128877.29750601025, -174359.09651030262, -164758.59758360358, -174342.04212928322, -174284.17346288843, -156305.95014166238, -174365.04207432774, 0.304, 0.792, 0.562, 192.0, 0.0, 0.0, 0.0, 0.0, 0.0, 0.0, 0.0, 0.0, 0.0, 1.7395369423086317E9, 0.0, 2025-02-14 09:42:22.308
154.0, -126228.3922706118, -128871.10607279613, -174358.85064111362, -164738.74923452726, -174341.8633153276, -174283.97229718833, -156308.8335166971, -174364.81855688317, 0.304, 0.792, 0.562, 192.0, 0.0, 0.0, 0.0, 0.0, 0.0, 0.0, 0.0, 0.0, 0.0, 1.739536942308643E9, 0.0, 2025-02-14 09:42:22.308
155.0, -126199.82674119792, -128987.0445712858, -174357.48718470184, -164821.98713087884, -174340.34339670461, -174282.60884077655, -156322.2445633703, -174363.43274872695, 0.304, 0.792, 0.562, 192.0, 0.0, 0.0, 0.0, 0.0, 0.0, 0.0, 0.0, 0.0, 0.0, 1.7395369423086548E9, 0.0, 2025-02-14 09:42:22.308
156.0, -126216.52349430603, -129096.45636039453, -174356.54841143472, -164943.11123408214, -174339.29286471521, -174281.62536402053, -156400.29685500823, -174362.51632720427, 0.304, 0.792, 0.562, 192.0, 0.0, 0.0, 0.0, 0.0, 0.0, 0.0, 0.0, 0.0, 0.0, 1.7395369423086665E9, 0.0, 2025-02-14 09:42:22.308
157.0, -126331.63497825086, -129075.15514792863, -174353.24035325533, -164960.32207731274, -174336.27537921374, -174278.40671281895, -156477.29861465676, -174359.32002774716, 0.312, 0.79, 0.562, 192.0, 9.0, 192.0, 24.0, 176.0, 17.0, 144.0, 0.0, 0.0, 0.0, 1.739536942308678E9, 0.0, 2025-02-14 09:42:22.308
158.0, -126413.26354900165, -129055.88794420815, -174353.84385035562, -164928.11321355263, -174336.92357980294, -174278.9431546859, -156496.94579803298, -174359.8564696141, 0.312, 0.79, 0.562, 192.0, 0.0, 0.0, 0.0, 0.0, 0.0, 0.0, 0.0, 0.0, 0.0, 1.7395369423086903E9, 0.0, 2025-02-14 09:42:22.308
159.0, -126388.0284295116, -129159.86825941423, -174353.19564976642, -164992.2403683949, -174336.27537921374, -174278.36200933004, -156509.2392574834, -174359.29767600272, 0.312, 0.79, 0.562, 192.0, 0.0, 0.0, 0.0, 0.0, 0.0, 0.0, 0.0, 0.0, 0.0, 1.7395369423087015E9, 0.0, 2025-02-14 09:42:22.308
160.0, -126391.53765339109, -129274.7115224256, -174351.98865556583, -165114.14678265416, -174335.11308850208, -174277.2891255962, -156578.7531827394, -174358.26949575776, 0.312, 0.79, 0.562, 192.0, 0.0, 0.0, 0.0, 0.0, 0.0, 0.0, 0.0, 0.0, 0.0, 1.7395369423087132E9, 0.0, 2025-02-14 09:42:22.308
161.0, -126503.58694834555, -129270.0623595789, -174349.61937065356, -165145.99801850296, -174332.87791405653, -174274.91984068393, -156671.0211838509, -174355.76610037877, 0.312, 0.79, 0.562, 192.0, 0.0, 0.0, 0.0, 0.0, 0.0, 0.0, 0.0, 0.0, 0.0, 1.7395369423087249E9, 0.0, 2025-02-14 09:42:22.308
162.0, -126602.09108616009, -129227.45993464708, -174347.98769330833, -165107.8659424622, -174331.22388496684, -174273.06464589413, -156709.95792269206, -174353.97796082235, 0.312, 0.79, 0.562, 192.0, 0.0, 0.0, 0.0, 0.0, 0.0, 0.0, 0.0, 0.0, 0.0, 1.7395369423087363E9, 0.0, 2025-02-14 09:42:22.308
163.0, -126596.63726051299, -129302.24887159454, -174346.06544328516, -165143.56167835734, -174329.23457971032, -174271.29885808218, -156718.3845303517, -174352.16746952146, 0.312, 0.79, 0.562, 192.0, 0.0, 0.0, 0.0, 0.0, 0.0, 0.0, 0.0, 0.0, 0.0, 1.7395369423087547E9, 0.0, 2025-02-14 09:42:22.308
164.0, -126583.71795221782, -129435.68878599272, -174345.41724269596, -165270.27371767448, -174328.4969721433, -174270.65065749298, -156780.29886249293, -174351.51926893226, 0.312, 0.79, 0.562, 192.0, 0.0, 0.0, 0.0, 0.0, 0.0, 0.0, 0.0, 0.0, 0.0, 1.7395369423087664E9, 0.0, 2025-02-14 09:42:22.308
165.0, -126675.80713937369, -129454.21838214618, -174344.0090827953, -165329.63995094778, -174327.155867476, -174269.2872010812, -156876.38901190629, -174349.9099433315, 0.312, 0.79, 0.562, 192.0, 0.0, 0.0, 0.0, 0.0, 0.0, 0.0, 0.0, 0.0, 0.0, 1.739536942308778E9, 0.0, 2025-02-14 09:42:22.308
166.0, -126786.76119884982, -129399.00957334157, -174343.74086186182, -165290.72556385107, -174327.0441087537, -174268.97427665882, -156918.72321590464, -174349.59701890912, 0.312, 0.79, 0.562, 192.0, 0.0, 0.0, 0.0, 0.0, 0.0, 0.0, 0.0, 0.0, 0.0, 1.7395369423087895E9, 0.0, 2025-02-14 09:42:22.308
167.0, -126786.85060582765, -129451.82674548945, -174342.98090255033, -165312.85379086185, -174326.32885293112, -174268.41548304743, -156917.09153855938, -174349.03822529773, 0.312, 0.794, 0.56, 192.0, 9.0, 192.0, 24.0, 208.0, 17.0, 128.0, 0.0, 0.0, 0.0, 1.7395369423088012E9, 0.0, 2025-02-14 09:42:22.308
168.0, -126755.62521882358, -129591.52514833513, -174341.2598182273, -165438.93998133423, -174324.51836163027, -174266.7391022133, -156964.03020191554, -174347.33949271913, 0.312, 0.794, 0.56, 192.0, 0.0, 0.0, 0.0, 0.0, 0.0, 0.0, 0.0, 0.0, 0.0, 1.739536942308813E9, 0.0, 2025-02-14 09:42:22.308
169.0, -126830.01182437084, -129637.5473901686, -174339.8516583266, -165518.17691542828, -174323.13255347402, -174265.2415353348, -157058.4216187503, -174345.81957409615, 0.312, 0.794, 0.56, 192.0, 0.0, 0.0, 0.0, 0.0, 0.0, 0.0, 0.0, 0.0, 0.0, 1.7395369423088248E9, 0.0, 2025-02-14 09:42:22.308
170.0, -126949.77247116239, -129587.56888956654, -174337.5941321366, -165487.75619122462, -174321.05384123969, -174262.89460216698, -157108.48952633017, -174343.5620479062, 0.312, 0.794, 0.56, 192.0, 0.0, 0.0, 0.0, 0.0, 0.0, 0.0, 0.0, 0.0, 0.0, 1.7395369423088365E9, 0.0, 2025-02-14 09:42:22.308
171.0, -126979.3661808212, -129620.58241612703, -174335.7612890913, -165494.93110119476, -174319.26570168327, -174261.15116609947, -157111.90934323185, -174341.7962600942, 0.312, 0.794, 0.56, 192.0, 0.0, 0.0, 0.0, 0.0, 0.0, 0.0, 0.0, 0.0, 0.0, 1.7395369423088481E9, 0.0, 2025-02-14 09:42:22.308
172.0, -126946.84439263874, -129758.40327243845, -174335.26955071324, -165611.00371015118, -174318.77396330526, -174260.81588993262, -157154.75763735268, -174341.48333567183, 0.312, 0.794, 0.56, 192.0, 0.0, 0.0, 0.0, 0.0, 0.0, 0.0, 0.0, 0.0, 0.0, 1.7395369423088596E9, 0.0, 2025-02-14 09:42:22.308
173.0, -126993.3807245947, -129828.11836339455, -174333.88374255702, -165707.94322585384, -174317.41050689347, -174259.49713700978, -157250.35604838803, -174340.07517577114, 0.312, 0.794, 0.56, 192.0, 0.0, 0.0, 0.0, 0.0, 0.0, 0.0, 0.0, 0.0, 0.0, 1.7395369423088713E9, 0.0, 2025-02-14 09:42:22.308
174.0, -127113.6554615087, -129779.70448490436, -174331.8050303227, -165695.53800768114, -174315.46590512586, -174257.39607303098, -157312.73976716277, -174337.907056559, 0.312, 0.794, 0.56, 192.0, 0.0, 0.0, 0.0, 0.0, 0.0, 0.0, 0.0, 0.0, 0.0, 1.7395369423088827E9, 0.0, 2025-02-14 09:42:22.308
175.0, -127156.05672074041, -129785.67240067392, -174328.92165528797, -165685.7032401208, -174312.67193706895, -174254.6244567185, -157305.5872089371, -174335.0460332687, 0.312, 0.794, 0.56, 192.0, 0.0, 0.0, 0.0, 0.0, 0.0, 0.0, 0.0, 0.0, 0.0, 1.7395369423088944E9, 0.0, 2025-02-14 09:42:22.308
176.0, -127118.61754877778, -129919.78286740577, -174327.71466108738, -165783.08979071258, -174311.33083240164, -174253.46216600682, -157324.11680509054, -174333.83903906812, 0.312, 0.794, 0.56, 192.0, 0.0, 0.0, 0.0, 0.0, 0.0, 0.0, 0.0, 0.0, 0.0, 1.739536942308906E9, 0.0, 2025-02-14 09:42:22.308
177.0, -127155.3638166623, -130012.29673770627, -174327.8040680652, -165899.72119328036, -174311.397887635, -174253.50686949576, -157404.404271174, -174333.9060943015, 0.298, 0.79, 0.5640000000000001, 192.0, 9.0, 80.0, 24.0, 176.0, 17.0, 160.0, 0.0, 0.0, 0.0, 1.7395369423089173E9, 0.0, 2025-02-14 09:42:22.308
178.0, -127276.95730649917, -129982.90419374756, -174326.48531514232, -165902.69397529293, -174310.28030041224, -174252.16576482842, -157471.14658011755, -174332.63204486753, 0.298, 0.79, 0.5640000000000001, 192.0, 0.0, 0.0, 0.0, 0.0, 0.0, 0.0, 0.0, 0.0, 0.0, 1.7395369423089352E9, 0.0, 2025-02-14 09:42:22.308
179.0, -127344.03489160954, -129973.3823506096, -174324.51836163027, -165875.3577918241, -174308.2462916668, -174250.04234910518, -157473.38175456307, -174330.53098088873, 0.298, 0.79, 0.5640000000000001, 192.0, 0.0, 0.0, 0.0, 0.0, 0.0, 0.0, 0.0, 0.0, 0.0, 1.7395369423089468E9, 0.0, 2025-02-14 09:42:22.308
180.0, -127316.4975424406, -130090.7066572555, -174323.0878499851, -165955.1311677851, -174306.65931781047, -174248.58948571558, -157488.89386521507, -174329.1451727325, 0.298, 0.79, 0.5640000000000001, 192.0, 0.0, 0.0, 0.0, 0.0, 0.0, 0.0, 0.0, 0.0, 0.0, 1.7395369423089583E9, 0.0, 2025-02-14 09:42:22.308
181.0, -127330.93676935874, -130208.25448134595, -174321.03148949522, -166073.26013723138, -174304.6923642984, -174246.68958743688, -157563.3922294846, -174327.155867476, 0.298, 0.79, 0.5640000000000001, 192.0, 0.0, 0.0, 0.0, 0.0, 0.0, 0.0, 0.0, 0.0, 0.0, 1.73953694230897E9, 0.0, 2025-02-14 09:42:22.308
182.0, -127448.37283472692, -130193.03294337189, -174319.17629470545, -166090.0015938284, -174303.01598346425, -174244.879096136, -157636.3036198978, -174325.36772791957, 0.298, 0.79, 0.5640000000000001, 192.0, 0.0, 0.0, 0.0, 0.0, 0.0, 0.0, 0.0, 0.0, 0.0, 1.7395369423089817E9, 0.0, 2025-02-14 09:42:22.308
183.0, -127534.87408576896, -130167.55195469284, -174319.10923947208, -166047.86855553015, -174303.06068695316, -174244.74498566927, -157648.39591364813, -174325.2559691973, 0.298, 0.79, 0.5640000000000001, 192.0, 0.0, 0.0, 0.0, 0.0, 0.0, 0.0, 0.0, 0.0, 0.0, 1.739536942308993E9, 0.0, 2025-02-14 09:42:22.308
184.0, -127513.03643143612, -130262.32335118335, -174318.0363557382, -166101.57979745624, -174301.9430997304, -174243.9179711244, -157659.16945447557, -174324.22778895232, 0.298, 0.79, 0.5640000000000001, 192.0, 0.0, 0.0, 0.0, 0.0, 0.0, 0.0, 0.0, 0.0, 0.0, 1.7395369423090048E9, 0.0, 2025-02-14 09:42:22.309
185.0, -127509.92953895683, -130385.79438755446, -174315.35414640358, -166222.90506635967, -174299.12677992904, -174241.1687065564, -157734.74070247897, -174321.5008761288, 0.298, 0.79, 0.5640000000000001, 192.0, 0.0, 0.0, 0.0, 0.0, 0.0, 0.0, 0.0, 0.0, 0.0, 1.7395369423090165E9, 0.0, 2025-02-14 09:42:22.309
186.0, -127609.79713318315, -130392.45520740215, -174313.3424894026, -166260.7912732114, -174297.18217816143, -174239.13469781098, -157821.8007471324, -174319.39981215, 0.298, 0.79, 0.5640000000000001, 192.0, 0.0, 0.0, 0.0, 0.0, 0.0, 0.0, 0.0, 0.0, 0.0, 1.739536942309029E9, 0.0, 2025-02-14 09:42:22.309
187.0, -127707.76482913076, -130354.1219656613, -174314.4377248809, -166222.6815489151, -174298.47857933983, -174240.25228503376, -157845.38183753274, -174320.56210286167, 0.3, 0.786, 0.562, 192.0, 9.0, 96.0, 24.0, 144.0, 17.0, 144.0, 0.0, 0.0, 0.0, 1.7395369423090413E9, 0.0, 2025-02-14 09:42:22.309
188.0, -127700.96989881634, -130429.7379171536, -174313.56600684716, -166258.51139527696, -174297.58450956162, -174239.31351176664, -157849.38279979024, -174319.6009778501, 0.3, 0.786, 0.562, 192.0, 0.0, 0.0, 0.0, 0.0, 0.0, 0.0, 0.0, 0.0, 0.0, 1.7395369423090532E9, 0.0, 2025-02-14 09:42:22.309
189.0, -127678.90872703896, -130565.86004088641, -174312.2472539243, -166385.04462063845, -174296.17634966093, -174238.01711058823, -157908.90549527472, -174318.2822249272, 0.3, 0.786, 0.562, 192.0, 0.0, 0.0, 0.0, 0.0, 0.0, 0.0, 0.0, 0.0, 0.0, 1.7395369423090649E9, 0.0, 2025-02-14 09:42:22.309
190.0, -127764.44885306942, -130595.4761022897, -174310.61557657906, -166451.02697027053, -174294.65643103796, -174236.4748402208, -158003.16280164276, -174316.650547582, 0.3, 0.786, 0.562, 192.0, 0.0, 0.0, 0.0, 0.0, 0.0, 0.0, 0.0, 0.0, 0.0, 1.739536942309076E9, 0.0, 2025-02-14 09:42:22.309
191.0, -127877.0345898908, -130545.87758134337, -174309.60974807857, -166420.60624606686, -174293.62825079303, -174235.33490125358, -158041.8983747838, -174315.62236733706, 0.3, 0.786, 0.562, 192.0, 0.0, 0.0, 0.0, 0.0, 0.0, 0.0, 0.0, 0.0, 0.0, 1.7395369423090875E9, 0.0, 2025-02-14 09:42:22.309
192.0, -127881.39318005959, -130594.53732902257, -174309.8332655231, -166430.50806886054, -174293.78471300422, -174235.55841869814, -158036.802177048, -174315.80118129269, 0.3, 0.786, 0.562, 192.0, 0.0, 0.0, 0.0, 0.0, 0.0, 0.0, 0.0, 0.0, 0.0, 1.739536942309099E9, 0.0, 2025-02-14 09:42:22.309
193.0, -127852.47002273441, -130734.63806326844, -174308.26864341125, -166540.99274170314, -174292.17538740343, -174234.23966577527, -158084.813724138, -174314.41537313646, 0.3, 0.786, 0.562, 192.0, 0.0, 0.0, 0.0, 0.0, 0.0, 0.0, 0.0, 0.0, 0.0, 1.7395369423091164E9, 0.0, 2025-02-14 09:42:22.309
194.0, -127921.76043054587, -130780.88382254647, -174304.55825383167, -166621.66018744235, -174288.59910829057, -174230.50692445124, -158179.67452760632, -174310.61557657906, 0.3, 0.786, 0.562, 192.0, 0.0, 0.0, 0.0, 0.0, 0.0, 0.0, 0.0, 0.0, 0.0, 1.7395369423091278E9, 0.0, 2025-02-14 09:42:22.309
195.0, -128039.19649591405, -130730.19006612184, -174302.8371695086, -166598.90611158684, -174287.10154141206, -174228.78584012817, -158237.20791783428, -174308.84978876708, 0.3, 0.786, 0.562, 192.0, 0.0, 0.0, 0.0, 0.0, 0.0, 0.0, 0.0, 0.0, 0.0, 1.7395369423091393E9, 0.0, 2025-02-14 09:42:22.309
196.0, -128066.08564449378, -130758.57678158008, -174302.34543113058, -166598.88375984237, -174286.56509954514, -174228.22704651678, -158240.42656903586, -174308.38040213354, 0.3, 0.786, 0.562, 192.0, 0.0, 0.0, 0.0, 0.0, 0.0, 0.0, 0.0, 0.0, 0.0, 1.7395369423091507E9, 0.0, 2025-02-14 09:42:22.309
197.0, -128029.36172835372, -130896.28587916923, -174298.88091074003, -166705.03219426062, -174282.89941345446, -174224.80722961514, -158269.3050228721, -174304.91588174296, 0.304, 0.78, 0.562, 192.0, 9.0, 128.0, 24.0, 96.0, 17.0, 144.0, 0.0, 0.0, 0.0, 1.7395369423091621E9, 0.0, 2025-02-14 09:42:22.309
198.0, -128077.7756068439, -130974.49463301834, -174297.47275083934, -166801.61408205202, -174281.51360529824, -174223.37671796998, -158359.40490477145, -174303.53007358673, 0.304, 0.78, 0.562, 192.0, 0.0, 0.0, 0.0, 0.0, 0.0, 0.0, 0.0, 0.0, 0.0, 1.7395369423091743E9, 0.0, 2025-02-14 09:42:22.309
199.0, -128199.68202110316, -130929.12059177407, -174294.18704440442, -166790.5723202911, -174278.3843610745, -174220.04630804615, -158428.31533292716, -174300.15496017397, 0.304, 0.78, 0.562, 192.0, 0.0, 0.0, 0.0, 0.0, 0.0, 0.0, 0.0, 0.0, 0.0, 1.7395369423091857E9, 0.0, 2025-02-14 09:42:22.309
200.0, -128247.8723821488, -130928.74061211833, -174292.28714612572, -166770.14282585893, -174276.4844627958, -174218.23581674526, -158432.42805390694, -174298.25506189527, 0.304, 0.78, 0.562, 192.0, 0.0, 0.0, 0.0, 0.0, 0.0, 0.0, 0.0, 0.0, 0.0, 1.7395369423091972E9, 0.0, 2025-02-14 09:42:22.309
201.0, -128209.98617529705, -131054.62563689062, -174289.0908466686, -166860.17565252492, -174274.3386953281, -174216.24651148875, -158449.4377314374, -174296.22105314984, 0.304, 0.78, 0.562, 192.0, 0.0, 0.0, 0.0, 0.0, 0.0, 0.0, 0.0, 0.0, 0.0, 1.7395369423092086E9, 0.0, 2025-02-14 09:42:22.309
202.0, -128234.70720466462, -131151.36398689318, -174288.77792224623, -166973.1190172576, -174275.45628255085, -174217.5205609227, -158525.70188351892, -174297.36099211706, 0.304, 0.78, 0.562, 192.0, 0.0, 0.0, 0.0, 0.0, 0.0, 0.0, 0.0, 0.0, 0.0, 1.73953694230922E9, 0.0, 2025-02-14 09:42:22.309
203.0, -128352.03151131053, -131126.37473659214, -174289.29201236868, -166977.92464231548, -174276.52916628472, -174218.34757546755, -158597.00394833137, -174298.14330317298, 0.304, 0.78, 0.562, 192.0, 0.0, 0.0, 0.0, 0.0, 0.0, 0.0, 0.0, 0.0, 0.0, 1.7395369423092313E9, 0.0, 2025-02-14 09:42:22.309
204.0, -128421.97011971119, -131113.0530968968, -174283.88289021052, -166950.901383269, -174271.880003438, -174213.4748951763, -158612.18078281652, -174293.24827113727, 0.304, 0.78, 0.562, 192.0, 0.0, 0.0, 0.0, 0.0, 0.0, 0.0, 0.0, 0.0, 0.0, 1.7395369423092425E9, 0.0, 2025-02-14 09:42:22.309
205.0, -128390.11888386238, -131225.46001976254, -174284.17346288843, -167030.0265586408, -174270.896526682, -174212.75963935372, -158628.36344580216, -174292.55536705916, 0.304, 0.78, 0.562, 192.0, 0.0, 0.0, 0.0, 0.0, 0.0, 0.0, 0.0, 0.0, 0.0, 1.739536942309254E9, 0.0, 2025-02-14 09:42:22.309
206.0, -128396.01974439857, -131342.0020153525, -174283.41350357694, -167157.34209505824, -174269.5777737591, -174211.46323817532, -158698.14559199163, -174291.30366936966, 0.304, 0.78, 0.562, 192.0, 0.0, 0.0, 0.0, 0.0, 0.0, 0.0, 0.0, 0.0, 0.0, 1.7395369423092651E9, 0.0, 2025-02-14 09:42:22.309
207.0, -128508.73959168668, -131332.9495588481, -174281.40184657596, -167182.3536971037, -174267.81198594713, -174209.54098815215, -158775.95201444055, -174289.33671585761, 0.314, 0.786, 0.5640000000000001, 192.0, 9.0, 208.0, 24.0, 144.0, 17.0, 160.0, 0.0, 0.0, 0.0, 1.7395369423092823E9, 0.0, 2025-02-14 09:42:22.309
208.0, -128599.64413638641, -131300.67363985465, -174282.29591635417, -167144.69100769653, -174268.75075921428, -174210.41270618592, -158794.30279663837, -174290.141378658, 0.314, 0.786, 0.5640000000000001, 192.0, 0.0, 0.0, 0.0, 0.0, 0.0, 0.0, 0.0, 0.0, 0.0, 1.7395369423092945E9, 0.0, 2025-02-14 09:42:22.309
209.0, -128581.22629895524, -131390.773521754, -174280.66423900894, -167215.21076145303, -174267.25319233575, -174209.0268980297, -158798.95195948507, -174288.71086701285, 0.314, 0.786, 0.5640000000000001, 192.0, 0.0, 0.0, 0.0, 0.0, 0.0, 0.0, 0.0, 0.0, 0.0, 1.739536942309306E9, 0.0, 2025-02-14 09:42:22.309
210.0, -128574.14079596291, -131509.81891272296, -174281.11127389804, -167456.69900854817, -174266.60499174654, -174208.4234009294, -158868.22001555207, -174288.17442514593, 0.314, 0.786, 0.5640000000000001, 192.0, 0.0, 0.0, 0.0, 0.0, 0.0, 0.0, 0.0, 0.0, 0.0, 1.7395369423093174E9, 0.0, 2025-02-14 09:42:22.309
211.0, -128673.44959657785, -131497.54780501698, -174281.31243959814, -167545.2566200801, -174265.7779772017, -174207.4175724289, -158957.023496273, -174287.25800362325, 0.314, 0.786, 0.5640000000000001, 192.0, 0.0, 0.0, 0.0, 0.0, 0.0, 0.0, 0.0, 0.0, 0.0, 1.7395369423093288E9, 0.0, 2025-02-14 09:42:22.309
212.0, -128777.02758038374, -131433.9123885527, -174282.29591635417, -167487.34325019637, -174266.87321268002, -174208.4681044183, -158974.16728427022, -174288.28618386821, 0.314, 0.786, 0.5640000000000001, 192.0, 0.0, 0.0, 0.0, 0.0, 0.0, 0.0, 0.0, 0.0, 0.0, 1.7395369423093405E9, 0.0, 2025-02-14 09:42:22.309
213.0, -128771.68551345891, -131487.24365082307, -174281.40184657596, -167498.1838462572, -174265.889735924, -174207.64108987345, -158956.10707475033, -174287.34741060107, 0.314, 0.786, 0.5640000000000001, 192.0, 0.0, 0.0, 0.0, 0.0, 0.0, 0.0, 0.0, 0.0, 0.0, 1.7395369423093522E9, 0.0, 2025-02-14 09:42:22.309
214.0, -128743.65642591196, -131608.90419589332, -174280.10544539755, -167607.99796676612, -174264.5262795122, -174206.34468869504, -158987.3771652433, -174286.09571291157, 0.314, 0.786, 0.5640000000000001, 192.0, 0.0, 0.0, 0.0, 0.0, 0.0, 0.0, 0.0, 0.0, 0.0, 1.739536942309364E9, 0.0, 2025-02-14 09:42:22.309
215.0, -128821.48520010534, -131628.10434438044, -174281.2900878537, -167658.24468830167, -174265.80032894618, -174207.46227591782, -159058.27689865555, -174287.32505885663, 0.314, 0.786, 0.5640000000000001, 192.0, 0.0, 0.0, 0.0, 0.0, 0.0, 0.0, 0.0, 0.0, 0.0, 1.7395369423093755E9, 0.0, 2025-02-14 09:42:22.309
216.0, -128927.99126243488, -131561.33968369244, -174281.84888146506, -167605.2039987092, -174266.44852953538, -174207.95401429583, -159080.11455298838, -174287.77209374573, 0.314, 0.786, 0.5640000000000001, 192.0, 0.0, 0.0, 0.0, 0.0, 0.0, 0.0, 0.0, 0.0, 0.0, 1.7395369423093872E9, 0.0, 2025-02-14 09:42:22.309
217.0, -128930.02527118032, -131584.1161112924, -174281.44655006487, -167593.06700147, -174265.86738417952, -174207.5740346401, -159062.97076499116, -174287.36976234554, 0.318, 0.786, 0.562, 192.0, 9.0, 240.0, 24.0, 144.0, 17.0, 144.0, 0.0, 0.0, 0.0, 1.7395369423093984E9, 0.0, 2025-02-14 09:42:22.309
218.0, -128886.10409332563, -131705.39667670688, -174280.06074190864, -167687.01138341564, -174264.4368725344, -174206.23292997276, -159086.37304143584, -174285.98395418932, 0.318, 0.786, 0.562, 192.0, 0.0, 0.0, 0.0, 0.0, 0.0, 0.0, 0.0, 0.0, 0.0, 1.7395369423094103E9, 0.0, 2025-02-14 09:42:22.309
219.0, -128938.31776837324, -131740.91359864635, -174279.74781748626, -167752.39023594742, -174264.21335508983, -174205.89765380594, -159163.64302201784, -174285.6933815114, 0.318, 0.786, 0.562, 192.0, 0.0, 0.0, 0.0, 0.0, 0.0, 0.0, 0.0, 0.0, 0.0, 1.739536942309422E9, 0.0, 2025-02-14 09:42:22.309
220.0, -129050.23295286096, -131677.34523741546, -174280.70894249785, -167707.30676738106, -174265.26388707923, -174206.94818579534, -159207.6759585948, -174286.63215477852, 0.318, 0.786, 0.562, 192.0, 0.0, 0.0, 0.0, 0.0, 0.0, 0.0, 0.0, 0.0, 0.0, 1.7395369423094332E9, 0.0, 2025-02-14 09:42:22.309
221.0, -129072.18236591607, -131677.077016482, -174281.26773610924, -167676.327249566, -174265.7779772017, -174207.46227591782, -159192.63323457638, -174287.10154141206, 0.318, 0.786, 0.562, 192.0, 0.0, 0.0, 0.0, 0.0, 0.0, 0.0, 0.0, 0.0, 0.0, 1.7395369423094444E9, 0.0, 2025-02-14 09:42:22.309
222.0, -129024.61785371517, -131788.32164863608, -174280.46307330884, -167767.47766345475, -174264.81685219012, -174206.61290962851, -159201.48452538069, -174286.3862855895, 0.318, 0.786, 0.562, 192.0, 0.0, 0.0, 0.0, 0.0, 0.0, 0.0, 0.0, 0.0, 0.0, 1.7395369423094757E9, 0.0, 2025-02-14 09:42:22.309
223.0, -129057.92195295358, -131852.78407964518, -174281.44655006487, -167853.8671557745, -174265.80032894618, -174207.5740346401, -159259.6884679423, -174287.36976234554, 0.318, 0.786, 0.562, 192.0, 0.0, 0.0, 0.0, 0.0, 0.0, 0.0, 0.0, 0.0, 0.0, 1.7395369423094873E9, 0.0, 2025-02-14 09:42:22.309
224.0, -129166.48437577301, -131787.82991025806, -174283.01117217675, -167826.88860021695, -174267.52141326922, -174209.13865675195, -159300.18982889532, -174288.84497747957, 0.318, 0.786, 0.562, 192.0, 0.0, 0.0, 0.0, 0.0, 0.0, 0.0, 0.0, 0.0, 0.0, 1.7395369423095038E9, 0.0, 2025-02-14 09:42:22.309
225.0, -129203.74473378, -131758.52677327715, -174282.65354426546, -167789.4047247654, -174267.25319233575, -174208.89278756295, -159285.28121534362, -174288.57675654613, 0.318, 0.786, 0.562, 192.0, 0.0, 0.0, 0.0, 0.0, 0.0, 0.0, 0.0, 0.0, 0.0, 1.739536942309516E9, 0.0, 2025-02-14 09:42:22.309
226.0, -129153.87799190021, -131870.15138508694, -174282.40767507645, -167854.7612255527, -174266.91791616892, -174208.73632535175, -159287.33757583352, -174288.30853561265, 0.318, 0.786, 0.562, 192.0, 0.0, 0.0, 0.0, 0.0, 0.0, 0.0, 0.0, 0.0, 0.0, 1.739536942309528E9, 0.0, 2025-02-14 09:42:22.309
227.0, -129163.51159376046, -131960.74300536432, -174282.67589600993, -167951.27605811073, -174267.05202663568, -174208.8704358185, -159346.97203004028, -174288.53205305722, 0.318, 0.788, 0.5680000000000001, 192.0, 9.0, 240.0, 24.0, 160.0, 17.0, 192.0, 0.0, 0.0, 0.0, 1.7395369423095405E9, 0.0, 2025-02-14 09:42:22.309
228.0, -129272.11872006879, -131923.30383340167, -174283.16763438794, -167950.6949127549, -174267.65552373594, -174209.3174707076, -159397.12934459798, -174288.97908794633, 0.318, 0.788, 0.5680000000000001, 192.0, 0.0, 0.0, 0.0, 0.0, 0.0, 0.0, 0.0, 0.0, 0.0, 1.7395369423095536E9, 0.0, 2025-02-14 09:42:22.309
229.0, -129332.87076149831, -131887.47398703982, -174285.0898844111, -167899.82234237462, -174269.7342359703, -174211.3738311975, -159389.4179927609, -174290.90133796947, 0.318, 0.788, 0.5680000000000001, 192.0, 0.0, 0.0, 0.0, 0.0, 0.0, 0.0, 0.0, 0.0, 0.0, 1.7395369423095655E9, 0.0, 2025-02-14 09:42:22.309
230.0, -129290.8718336668, -131978.8032148842, -174286.74391350077, -167951.4548720664, -174271.29885808218, -174213.05021203164, -159378.97972810027, -174292.6894775259, 0.318, 0.788, 0.5680000000000001, 192.0, 0.0, 0.0, 0.0, 0.0, 0.0, 0.0, 0.0, 0.0, 0.0, 1.739536942309578E9, 0.0, 2025-02-14 09:42:22.309
231.0, -129284.7698074305, -132082.425902179, -174285.31340185564, -168054.98815238336, -174269.75658771474, -174211.59734864204, -159433.87561248252, -174291.30366936966, 0.318, 0.788, 0.5680000000000001, 192.0, 0.0, 0.0, 0.0, 0.0, 0.0, 0.0, 0.0, 0.0, 0.0, 1.73953694230959E9, 0.0, 2025-02-14 09:42:22.309
232.0, -129382.35752372236, -132057.95074200045, -174287.10154141206, -168069.7626554683, -174271.634134249, -174213.38548819846, -159496.393441724, -174293.13651241502, 0.318, 0.788, 0.5680000000000001, 192.0, 0.0, 0.0, 0.0, 0.0, 0.0, 0.0, 0.0, 0.0, 0.0, 1.7395369423096156E9, 0.0, 2025-02-14 09:42:22.309
233.0, -129460.6556845493, -132003.18896808493, -174287.48152106782, -168015.02323329728, -174272.14822437149, -174213.7207643653, -159497.8910086025, -174293.51649207075, 0.318, 0.788, 0.5680000000000001, 192.0, 0.0, 0.0, 0.0, 0.0, 0.0, 0.0, 0.0, 0.0, 0.0, 1.7395369423096282E9, 0.0, 2025-02-14 09:42:22.309
234.0, -129434.19121911422, -132075.54156488678, -174286.3415821006, -168039.67720743146, -174270.896526682, -174212.60317714253, -159482.71417411737, -174292.28714612572, 0.318, 0.788, 0.5680000000000001, 192.0, 0.0, 0.0, 0.0, 0.0, 0.0, 0.0, 0.0, 0.0, 0.0, 1.7395369423096404E9, 0.0, 2025-02-14 09:42:22.309
235.0, -129409.60430021338, -132192.9552785105, -174284.53109079972, -168146.3844354611, -174268.99662840329, -174210.85974107502, -159527.39531128353, -174290.54371005818, 0.318, 0.788, 0.5680000000000001, 192.0, 0.0, 0.0, 0.0, 0.0, 0.0, 0.0, 0.0, 0.0, 0.0, 1.739536942309652E9, 0.0, 2025-02-14 09:42:22.309
236.0, -129492.52927214256, -132187.61321158567, -174283.1899861324, -168182.72837194544, -174267.7449307138, -174209.45158117433, -159599.63614936307, -174289.15790190196, 0.318, 0.788, 0.5680000000000001, 192.0, 0.0, 0.0, 0.0, 0.0, 0.0, 0.0, 0.0, 0.0, 0.0, 1.7395369423096652E9, 0.0, 2025-02-14 09:42:22.309
237.0, -129585.60193605447, -132121.16147532006, -174284.8440152221, -168129.46416490845, -174269.51071852574, -174211.03855503065, -159609.24739947886, -174290.76722750274, 0.314, 0.784, 0.5660000000000001, 192.0, 9.0, 208.0, 24.0, 128.0, 17.0, 176.0, 0.0, 0.0, 0.0, 1.7395369423097234E9, 0.0, 2025-02-14 09:42:22.309
238.0, -129569.50868004665, -132167.63075204263, -174285.62632627803, -168138.5389731573, -174270.22597434832, -174211.79851434214, -159592.12596322608, -174291.54953855867, 0.314, 0.784, 0.5660000000000001, 192.0, 0.0, 0.0, 0.0, 0.0, 0.0, 0.0, 0.0, 0.0, 0.0, 1.7395369423097358E9, 0.0, 2025-02-14 09:42:22.309
239.0, -129524.49226671366, -132293.49342507045, -174285.42516057793, -168243.8603930307, -174269.86834643703, -174211.5749968976, -159631.84501312318, -174291.34837285857, 0.314, 0.784, 0.5660000000000001, 192.0, 0.0, 0.0, 0.0, 0.0, 0.0, 0.0, 0.0, 0.0, 0.0, 1.7395369423097472E9, 0.0, 2025-02-14 09:42:22.309
240.0, -129582.85267148647, -132311.88891075717, -174284.75460824426, -168294.86707387771, -174269.2424975923, -174210.9267963084, -159708.22092392694, -174290.67782052493, 0.314, 0.784, 0.5660000000000001, 192.0, 0.0, 0.0, 0.0, 0.0, 0.0, 0.0, 0.0, 0.0, 0.0, 1.7395369427886467E9, 0.0, 2025-02-14 09:42:22.788
241.0, -129682.40734129041, -132235.28948250884, -174284.0393524217, -168239.23358192845, -174268.66135223644, -174210.30094746363, -159738.17226149706, -174289.9402129579, 0.314, 0.784, 0.5660000000000001, 192.0, 0.0, 0.0, 0.0, 0.0, 0.0, 0.0, 0.0, 0.0, 0.0, 1.7395369427887027E9, 0.0, 2025-02-14 09:42:22.788
242.0, -129682.92143141288, -132248.14173557065, -174283.1899861324, -168228.1024131897, -174267.85668943604, -174209.4739329188, -159720.49203163292, -174289.13555015752, 0.314, 0.784, 0.5660000000000001, 192.0, 0.0, 0.0, 0.0, 0.0, 0.0, 0.0, 0.0, 0.0, 0.0, 1.7395369427887175E9, 0.0, 2025-02-14 09:42:22.788
243.0, -129631.0430325321, -132368.03649282892, -174284.75460824426, -168326.6736062376, -174269.2424975923, -174210.94914805284, -159741.41326444308, -174290.74487575828, 0.314, 0.784, 0.5660000000000001, 192.0, 0.0, 0.0, 0.0, 0.0, 0.0, 0.0, 0.0, 0.0, 0.0, 1.7395369427887313E9, 0.0, 2025-02-14 09:42:22.788
244.0, -129673.17607083036, -132412.33765033932, -174284.46403556634, -168402.87070308576, -174268.95192491438, -174210.7256306083, -159816.80569849085, -174290.49900656927, 0.314, 0.784, 0.5660000000000001, 192.0, 0.0, 0.0, 0.0, 0.0, 0.0, 0.0, 0.0, 0.0, 0.0, 1.7395369427887444E9, 0.0, 2025-02-14 09:42:22.788
245.0, -129782.63256342801, -132346.95879780757, -174285.35810534455, -168366.5491183459, -174270.00245690375, -174211.6197003865, -159853.44020765307, -174291.32602111413, 0.314, 0.784, 0.5660000000000001, 192.0, 0.0, 0.0, 0.0, 0.0, 0.0, 0.0, 0.0, 0.0, 0.0, 1.7395369427887568E9, 0.0, 2025-02-14 09:42:22.788
246.0, -129807.19713058439, -132343.65073962818, -174285.35810534455, -168336.84364996478, -174270.00245690375, -174211.53029340866, -159829.970875975, -174291.23661413632, 0.314, 0.784, 0.5660000000000001, 192.0, 0.0, 0.0, 0.0, 0.0, 0.0, 0.0, 0.0, 0.0, 0.0, 1.7395369427887692E9, 0.0, 2025-02-14 09:42:22.788
247.0, -129754.29055145867, -132460.6174183628, -174285.71573325584, -168422.67434867317, -174270.22597434832, -174211.93262480886, -159829.45678585253, -174291.61659379205, 0.314, 0.794, 0.562, 192.0, 9.0, 208.0, 24.0, 208.0, 17.0, 144.0, 0.0, 0.0, 0.0, 1.7395369427887821E9, 0.0, 2025-02-14 09:42:22.788
248.0, -129773.31188599014, -132528.34320406237, -174284.4416838219, -168513.44478290615, -174268.9295731699, -174210.81503758612, -159888.19717028108, -174290.29784086917, 0.314, 0.794, 0.562, 192.0, 0.0, 0.0, 0.0, 0.0, 0.0, 0.0, 0.0, 0.0, 0.0, 1.7395369427887957E9, 0.0, 2025-02-14 09:42:22.788
249.0, -129874.8558610506, -132471.525069657, -174284.4416838219, -168492.0765152069, -174269.15309061445, -174210.81503758612, -159938.17567088315, -174290.29784086917, 0.314, 0.794, 0.562, 192.0, 0.0, 0.0, 0.0, 0.0, 0.0, 0.0, 0.0, 0.0, 0.0, 1.7395369427888162E9, 0.0, 2025-02-14 09:42:22.788
250.0, -129914.12787605857, -132442.57956058736, -174285.02282917773, -168444.1096716058, -174269.82364294812, -174211.3291277086, -159933.57121152536, -174290.87898622503, 0.314, 0.794, 0.562, 192.0, 0.0, 0.0, 0.0, 0.0, 0.0, 0.0, 0.0, 0.0, 0.0, 1.7395369427888286E9, 0.0, 2025-02-14 09:42:22.788
251.0, -129861.10953821059, -132544.21294262566, -174285.87219546703, -168507.25334969204, -174270.44949179288, -174212.11143876452, -159933.99589467002, -174291.68364902542, 0.314, 0.794, 0.562, 192.0, 0.0, 0.0, 0.0, 0.0, 0.0, 0.0, 0.0, 0.0, 0.0, 1.739536942788841E9, 0.0, 2025-02-14 09:42:22.788
252.0, -129863.56823010067, -132631.809429146, -174286.81096873415, -168605.8915979733, -174271.2318028488, -174213.117267265, -159999.30769196842, -174292.6894775259, 0.314, 0.794, 0.562, 192.0, 0.0, 0.0, 0.0, 0.0, 0.0, 0.0, 0.0, 0.0, 0.0, 1.7395369427889435E9, 0.0, 2025-02-14 09:42:22.788
253.0, -129966.65447552854, -132589.40816991427, -174287.48152106782, -168597.53204554704, -174272.10352088255, -174213.81017134312, -160064.17245437772, -174293.29297462618, 0.314, 0.794, 0.562, 192.0, 0.0, 0.0, 0.0, 0.0, 0.0, 0.0, 0.0, 0.0, 0.0, 1.7395369427889564E9, 0.0, 2025-02-14 09:42:22.788
254.0, -130028.36764196964, -132541.75425073557, -174286.18511988941, -168538.277570996, -174270.896526682, -174212.44671493134, -160060.35030607585, -174291.95186995887, 0.314, 0.794, 0.562, 192.0, 0.0, 0.0, 0.0, 0.0, 0.0, 0.0, 0.0, 0.0, 0.0, 1.7395369427889693E9, 0.0, 2025-02-14 09:42:22.788
255.0, -129985.16171993753, -132626.9591005992, -174287.10154141206, -168582.80224595097, -174271.70118948235, -174213.2737294762, -160041.66424771122, -174292.91299497045, 0.314, 0.794, 0.562, 192.0, 0.0, 0.0, 0.0, 0.0, 0.0, 0.0, 0.0, 0.0, 0.0, 1.7395369427889812E9, 0.0, 2025-02-14 09:42:22.788
0.0, -129964.15108014955, -132731.90054081686, -174288.0403146792, -168693.55513972702, -174272.5952592606, -174214.23485448776, -160088.8264285119, -174293.80706474866, 0.314, 0.794, 0.562, 192.0, 0.0, 0.0, 0.0, 0.0, 0.0, 0.0, 0.0, 0.0, 0.0, 1.7395369427889934E9, 0.0, 2025-02-14 09:42:22.788
1.0, -130045.31026426677, -132711.51574987362, -174287.23565187881, -168713.582302759, -174271.90235518245, -174213.4748951763, -160158.7426851681, -174293.00240194827, 0.316, 0.786, 0.56, 192.0, 9.0, 224.0, 24.0, 144.0, 17.0, 128.0, 0.0, 0.0, 0.0, 1.7395369427890055E9, 0.0, 2025-02-14 09:42:22.789
2.0, -130122.22261693748, -132648.48383050965, -174286.3862855895, -168658.82052884347, -174271.05298889315, -174212.55847365363, -160164.5988422154, -174292.13068391453, 0.316, 0.786, 0.56, 192.0, 0.0, 0.0, 0.0, 0.0, 0.0, 0.0, 0.0, 0.0, 0.0, 1.7395369427890189E9, 0.0, 2025-02-14 09:42:22.789
3.0, -130089.74553224392, -132702.99973523614, -174286.81096873415, -168673.63973541735, -174271.45532029335, -174212.91610156492, -160138.76022562507, -174292.53301531472, 0.316, 0.786, 0.56, 192.0, 0.0, 0.0, 0.0, 0.0, 0.0, 0.0, 0.0, 0.0, 0.0, 1.7395369427890313E9, 0.0, 2025-02-14 09:42:22.789
4.0, -130051.7475666699, -132822.1568849274, -174288.15207340146, -168776.1895389783, -174272.77407321622, -174214.3242614656, -160179.060420878, -174293.91882347094, 0.316, 0.786, 0.56, 192.0, 0.0, 0.0, 0.0, 0.0, 0.0, 0.0, 0.0, 0.0, 0.0, 1.7395369427890432E9, 0.0, 2025-02-14 09:42:22.789
5.0, -130126.46944838398, -132829.01887047518, -174288.73321875732, -168819.17194356586, -174273.39992206095, -174214.9724620548, -160250.0272095236, -174294.61172754905, 0.316, 0.786, 0.56, 192.0, 0.0, 0.0, 0.0, 0.0, 0.0, 0.0, 0.0, 0.0, 0.0, 1.7395369427890556E9, 0.0, 2025-02-14 09:42:22.789
6.0, -130221.50906580796, -132766.72455867822, -174290.16373040245, -168770.46749239773, -174274.91984068393, -174216.33591846656, -160266.00870680914, -174295.90812872746, 0.316, 0.786, 0.56, 192.0, 0.0, 0.0, 0.0, 0.0, 0.0, 0.0, 0.0, 0.0, 0.0, 1.7395369427890675E9, 0.0, 2025-02-14 09:42:22.789
7.0, -130207.87450169022, -132810.3998673439, -174289.64964027997, -168778.2906029571, -174274.40575056145, -174215.95593881083, -160244.90866004332, -174295.50579732726, 0.316, 0.786, 0.56, 192.0, 0.0, 0.0, 0.0, 0.0, 0.0, 0.0, 0.0, 0.0, 0.0, 1.73953694278908E9, 0.0, 2025-02-14 09:42:22.789
8.0, -130158.94653307756, -132933.46857231483, -174289.47082632434, -168880.32631639557, -174274.07047439463, -174215.75477311073, -160273.56359643504, -174295.25992813826, 0.316, 0.786, 0.56, 192.0, 0.0, 0.0, 0.0, 0.0, 0.0, 0.0, 0.0, 0.0, 0.0, 1.7395369427890918E9, 0.0, 2025-02-14 09:42:22.789
9.0, -130214.24474885999, -132962.34702615108, -174288.86732922404, -168941.45833748084, -174273.51168078324, -174215.12892426597, -160346.83261475954, -174294.61172754905, 0.316, 0.786, 0.56, 192.0, 0.0, 0.0, 0.0, 0.0, 0.0, 0.0, 0.0, 0.0, 0.0, 1.7395369427891037E9, 0.0, 2025-02-14 09:42:22.789
10.0, -130319.47676175556, -132898.80101666463, -174289.60493679106, -168900.2193689608, -174274.3386953281, -174215.84418008855, -160381.9025018099, -174295.28227988273, 0.316, 0.786, 0.56, 192.0, 0.0, 0.0, 0.0, 0.0, 0.0, 0.0, 0.0, 0.0, 0.0, 1.7395369427891238E9, 0.0, 2025-02-14 09:42:22.789
11.0, -130330.27265432748, -132918.31408957412, -174288.84497747957, -168889.4681798778, -174273.55638427215, -174215.12892426597, -160374.32526043957, -174294.52232057124, 0.312, 0.788, 0.556, 192.0, 9.0, 192.0, 24.0, 160.0, 17.0, 96.0, 0.0, 0.0, 0.0, 1.7395369427891364E9, 0.0, 2025-02-14 09:42:22.789
12.0, -130280.8529473368, -133038.36530904358, -174291.32602111413, -168984.17252113493, -174275.97037267333, -174217.58761615606, -160398.17457177336, -174296.95866071686, 0.312, 0.788, 0.556, 192.0, 0.0, 0.0, 0.0, 0.0, 0.0, 0.0, 0.0, 0.0, 0.0, 1.7395369427891493E9, 0.0, 2025-02-14 09:42:22.789
13.0, -130320.43788676715, -133080.69951304194, -174291.12485541403, -169055.2063650139, -174275.6797999954, -174217.29704347815, -160471.24242439776, -174296.64573629448, 0.312, 0.788, 0.556, 192.0, 0.0, 0.0, 0.0, 0.0, 0.0, 0.0, 0.0, 0.0, 0.0, 1.7395369427891617E9, 0.0, 2025-02-14 09:42:22.789
14.0, -130427.99448108608, -133008.07869530664, -174290.00726819126, -169007.28422490173, -174274.6963232394, -174216.13475276646, -160513.82249758512, -174295.55050081617, 0.312, 0.788, 0.556, 192.0, 0.0, 0.0, 0.0, 0.0, 0.0, 0.0, 0.0, 0.0, 0.0, 1.739536942789174E9, 0.0, 2025-02-14 09:42:22.789
15.0, -130452.78256568701, -132997.86394809055, -174289.85080598007, -168974.80714020814, -174274.5845645171, -174216.06769753312, -160498.51155263325, -174295.57285256064, 0.312, 0.788, 0.556, 192.0, 0.0, 0.0, 0.0, 0.0, 0.0, 0.0, 0.0, 0.0, 0.0, 1.7395369427891865E9, 0.0, 2025-02-14 09:42:22.789
16.0, -130395.47269290361, -133111.38845817905, -174289.29201236868, -169058.53677493773, -174273.86930869453, -174215.50890392173, -160499.33856717809, -174295.03641069372, 0.312, 0.788, 0.556, 192.0, 0.0, 0.0, 0.0, 0.0, 0.0, 0.0, 0.0, 0.0, 0.0, 1.7395369427891986E9, 0.0, 2025-02-14 09:42:22.789
17.0, -130413.3764402123, -133185.66330500404, -174289.62728853553, -169151.09534872716, -174274.11517788353, -174215.84418008855, -160562.57165224216, -174295.25992813826, 0.312, 0.788, 0.556, 192.0, 0.0, 0.0, 0.0, 0.0, 0.0, 0.0, 0.0, 0.0, 0.0, 1.7395369427892106E9, 0.0, 2025-02-14 09:42:22.789
18.0, -130522.69882234321, -133133.65079565655, -174289.60493679106, -169126.39667110404, -174274.2939918392, -174215.84418008855, -160620.17209770347, -174295.14816941597, 0.312, 0.788, 0.556, 192.0, 0.0, 0.0, 0.0, 0.0, 0.0, 0.0, 0.0, 0.0, 0.0, 1.7395369427892227E9, 0.0, 2025-02-14 09:42:22.789
19.0, -130569.88335488837, -133103.05125749722, -174289.40377109096, -169080.24031880384, -174274.07047439463, -174215.50890392173, -160612.34898714413, -174294.85759673806, 0.312, 0.788, 0.556, 192.0, 0.0, 0.0, 0.0, 0.0, 0.0, 0.0, 0.0, 0.0, 0.0, 1.7395369427892349E9, 0.0, 2025-02-14 09:42:22.789
20.0, -130518.54139787453, -133197.53208130982, -174289.31436411315, -169145.30624691324, -174273.8469569501, -174215.39714519944, -160611.18669643244, -174294.76818976025, 0.312, 0.788, 0.556, 192.0, 0.0, 0.0, 0.0, 0.0, 0.0, 0.0, 0.0, 0.0, 0.0, 1.739536942789247E9, 0.0, 2025-02-14 09:42:22.789
21.0, -130509.77951404804, -133288.0119428649, -174287.32505885663, -169247.47607081843, -174271.96941041583, -174213.40783994293, -160672.74340066235, -174292.82358799264, 0.304, 0.79, 0.556, 192.0, 9.0, 128.0, 24.0, 176.0, 17.0, 96.0, 0.0, 0.0, 0.0, 1.7395369427892592E9, 0.0, 2025-02-14 09:42:22.789
22.0, -130603.83565471598, -133254.43962269303, -174287.50387281226, -169246.0455591733, -174272.2823348382, -174213.65370913193, -160736.691741549, -174292.98005020383, 0.304, 0.79, 0.556, 192.0, 0.0, 0.0, 0.0, 0.0, 0.0, 0.0, 0.0, 0.0, 0.0, 1.739536942789272E9, 0.0, 2025-02-14 09:42:22.789
23.0, -130667.87340258044, -133209.82554076024, -174288.21912863484, -169184.6453171546, -174272.95288717185, -174214.3689649545, -160738.36812238314, -174293.71765777085, 0.304, 0.79, 0.556, 192.0, 0.0, 0.0, 0.0, 0.0, 0.0, 0.0, 0.0, 0.0, 0.0, 1.739536942789284E9, 0.0, 2025-02-14 09:42:22.789
24.0, -130625.56155032654, -133292.2587743114, -174288.2414803793, -169228.3876810536, -174272.9305354274, -174214.43602018786, -160721.9842936974, -174293.76236125975, 0.304, 0.79, 0.556, 192.0, 0.0, 0.0, 0.0, 0.0, 0.0, 0.0, 0.0, 0.0, 0.0, 1.7395369427892964E9, 0.0, 2025-02-14 09:42:22.789
25.0, -130602.13692213738, -133403.34694425427, -174288.71086701285, -169338.470022496, -174273.39992206095, -174214.95011031034, -160764.67612560705, -174294.25409963776, 0.304, 0.79, 0.556, 192.0, 0.0, 0.0, 0.0, 0.0, 0.0, 0.0, 0.0, 0.0, 0.0, 1.7395369427893155E9, 0.0, 2025-02-14 09:42:22.789
26.0, -130690.42631273584, -133388.0359993024, -174288.21912863484, -169367.1696623766, -174272.9975906608, -174214.45837193233, -160837.58751602026, -174293.69530602638, 0.304, 0.79, 0.556, 192.0, 0.0, 0.0, 0.0, 0.0, 0.0, 0.0, 0.0, 0.0, 0.0, 1.7395369427893276E9, 0.0, 2025-02-14 09:42:22.789
27.0, -130776.61463935551, -133323.8641409712, -174289.47082632434, -169310.4185832046, -174274.22693660582, -174215.73242136627, -160842.4154928226, -174294.92465197144, 0.304, 0.79, 0.556, 192.0, 0.0, 0.0, 0.0, 0.0, 0.0, 0.0, 0.0, 0.0, 0.0, 1.73953694278934E9, 0.0, 2025-02-14 09:42:22.789
28.0, -130756.18514492335, -133383.2303742445, -174293.36002985956, -169333.32912127126, -174277.84791920756, -174219.50986617923, -160822.03070187935, -174298.67974503993, 0.304, 0.79, 0.556, 192.0, 0.0, 0.0, 0.0, 0.0, 0.0, 0.0, 0.0, 0.0, 0.0, 1.739536942789352E9, 0.0, 2025-02-14 09:42:22.789
29.0, -130720.31059507259, -133504.62269838128, -174292.82358799264, -169442.27152374646, -174277.3338290851, -174218.9734243123, -160863.89551924414, -174298.16565491745, 0.304, 0.79, 0.556, 192.0, 0.0, 0.0, 0.0, 0.0, 0.0, 0.0, 0.0, 0.0, 0.0, 1.739536942789364E9, 0.0, 2025-02-14 09:42:22.789
30.0, -130793.15493025244, -133512.24464324053, -174291.16955890294, -169488.94196616914, -174275.76920697323, -174217.2746917337, -160935.7340259235, -174296.55632931666, 0.304, 0.79, 0.556, 192.0, 0.0, 0.0, 0.0, 0.0, 0.0, 0.0, 0.0, 0.0, 0.0, 1.7395369427893827E9, 0.0, 2025-02-14 09:42:22.789
31.0, -130891.3461436446, -133444.5412092854, -174290.00726819126, -169439.20933475607, -174274.91984068393, -174216.2241597443, -160951.31319180885, -174295.41639034945, 0.304, 0.792, 0.552, 192.0, 9.0, 128.0, 24.0, 192.0, 17.0, 64.0, 0.0, 0.0, 0.0, 1.739536942789395E9, 0.0, 2025-02-14 09:42:22.789
32.0, -130881.46667259536, -133482.76269230398, -174289.60493679106, -169435.00720679847, -174274.36104707254, -174215.8218283441, -160924.66991241812, -174294.99170720478, 0.304, 0.792, 0.552, 192.0, 0.0, 0.0, 0.0, 0.0, 0.0, 0.0, 0.0, 0.0, 0.0, 1.739536942789408E9, 0.0, 2025-02-14 09:42:22.789
33.0, -130832.02461386021, -133610.48056012162, -174291.72835251433, -169537.6240655928, -174276.30564884015, -174217.9228923229, -160951.67081972014, -174297.22688165033, 0.304, 0.792, 0.552, 192.0, 0.0, 0.0, 0.0, 0.0, 0.0, 0.0, 0.0, 0.0, 0.0, 1.7395369427894201E9, 0.0, 2025-02-14 09:42:22.789
34.0, -130884.88648949702, -133641.46007793667, -174293.78471300422, -169598.1302378333, -174278.31730584113, -174220.00160455724, -161028.96315204658, -174299.17148341794, 0.304, 0.792, 0.552, 192.0, 0.0, 0.0, 0.0, 0.0, 0.0, 0.0, 0.0, 0.0, 0.0, 1.7395369427894323E9, 0.0, 2025-02-14 09:42:22.789
35.0, -130991.41490357101, -133572.03555965848, -174291.61659379205, -169553.33734194486, -174276.26094535124, -174217.83348534507, -161058.4227512387, -174296.98101246133, 0.304, 0.792, 0.552, 192.0, 0.0, 0.0, 0.0, 0.0, 0.0, 0.0, 0.0, 0.0, 0.0, 1.7395369427894444E9, 0.0, 2025-02-14 09:42:22.789
36.0, -131000.93674670896, -133586.36302785433, -174289.78375074672, -169534.78539404695, -174274.51750928373, -174216.00064229974, -161035.82513759437, -174295.23757639382, 0.304, 0.792, 0.552, 192.0, 0.0, 0.0, 0.0, 0.0, 0.0, 0.0, 0.0, 0.0, 0.0, 1.7395369427894564E9, 0.0, 2025-02-14 09:42:22.789
37.0, -130945.79499313772, -133705.72134324568, -174288.53205305722, -169631.65785451626, -174273.06464589413, -174214.70424112133, -161052.1195593023, -174293.89647172648, 0.304, 0.792, 0.552, 192.0, 0.0, 0.0, 0.0, 0.0, 0.0, 0.0, 0.0, 0.0, 0.0, 1.7395369427894685E9, 0.0, 2025-02-14 09:42:22.789
38.0, -130975.18753709646, -133760.97485553919, -174289.5378815577, -169712.63822467785, -174274.0481226502, -174215.66536613292, -161129.4789468621, -174294.70113452687, 0.304, 0.792, 0.552, 192.0, 0.0, 0.0, 0.0, 0.0, 0.0, 0.0, 0.0, 0.0, 0.0, 1.7395369427894807E9, 0.0, 2025-02-14 09:42:22.789
39.0, -131079.01139009136, -133693.29377332854, -174291.46013158085, -169679.26707020606, -174276.26094535124, -174217.65467138943, -161174.07067705045, -174296.77984676123, 0.304, 0.792, 0.552, 192.0, 0.0, 0.0, 0.0, 0.0, 0.0, 0.0, 0.0, 0.0, 0.0, 1.7395369427894926E9, 0.0, 2025-02-14 09:42:22.789
40.0, -131107.86749218317, -133679.65920921077, -174292.80123624817, -169637.44695633018, -174277.6914569964, -174219.01812780122, -161157.12805475332, -174298.1880066619, 0.304, 0.792, 0.552, 192.0, 0.0, 0.0, 0.0, 0.0, 0.0, 0.0, 0.0, 0.0, 0.0, 1.739536942789513E9, 0.0, 2025-02-14 09:42:22.789
41.0, -131049.95412229946, -133790.322696009, -174292.93534671492, -169717.84618113592, -174277.57969827412, -174219.10753477903, -161157.61979313134, -174298.32211712864, 0.306, 0.792, 0.554, 192.0, 9.0, 144.0, 24.0, 192.0, 17.0, 80.0, 0.0, 0.0, 0.0, 1.7395369427895248E9, 0.0, 2025-02-14 09:42:22.789
42.0, -131058.7830613593, -133869.2467056807, -174293.06945718164, -169816.39502243936, -174277.5349947852, -174219.08518303456, -161222.7080729852, -174298.389172362, 0.306, 0.792, 0.554, 192.0, 0.0, 0.0, 0.0, 0.0, 0.0, 0.0, 0.0, 0.0, 0.0, 1.7395369427895367E9, 0.0, 2025-02-14 09:42:22.789
43.0, -131166.5631731228, -133816.83186493302, -174294.36585836005, -169803.52041763312, -174279.01020991924, -174220.4709911908, -161277.00046026713, -174299.61851830705, 0.306, 0.792, 0.554, 192.0, 0.0, 0.0, 0.0, 0.0, 0.0, 0.0, 0.0, 0.0, 0.0, 1.7395369427895482E9, 0.0, 2025-02-14 09:42:22.789
44.0, -131225.39296452916, -133779.45974820372, -174293.47178858184, -169751.4185013078, -174278.31730584113, -174219.66632839042, -161270.38434390837, -174298.90326248447, 0.306, 0.792, 0.554, 192.0, 0.0, 0.0, 0.0, 0.0, 0.0, 0.0, 0.0, 0.0, 0.0, 1.7395369427895596E9, 0.0, 2025-02-14 09:42:22.789
45.0, -131174.6545046156, -133871.61599059295, -174292.75653275926, -169812.4834671597, -174277.35618082955, -174218.99577605675, -161268.64090784086, -174298.12095142854, 0.306, 0.792, 0.554, 192.0, 0.0, 0.0, 0.0, 0.0, 0.0, 0.0, 0.0, 0.0, 0.0, 1.7395369427895713E9, 0.0, 2025-02-14 09:42:22.789
46.0, -131162.62926609867, -133965.40391032744, -174293.69530602638, -169923.63869233592, -174278.25025060776, -174219.95690106833, -161326.822498658, -174299.12677992904, 0.306, 0.792, 0.554, 192.0, 0.0, 0.0, 0.0, 0.0, 0.0, 0.0, 0.0, 0.0, 0.0, 1.7395369427895825E9, 0.0, 2025-02-14 09:42:22.789
47.0, -131256.0372061774, -133935.49727624623, -174291.77305600324, -169926.4550121373, -174276.46211105134, -174218.01229930072, -161388.2450924212, -174297.13747467252, 0.306, 0.792, 0.554, 192.0, 0.0, 0.0, 0.0, 0.0, 0.0, 0.0, 0.0, 0.0, 0.0, 1.739536942789594E9, 0.0, 2025-02-14 09:42:22.789
48.0, -131321.9077970872, -133885.16114773287, -174292.46596008135, -169861.45613926128, -174277.22207036283, -174218.74990686774, -161388.64742382139, -174297.87508223954, 0.306, 0.792, 0.554, 192.0, 0.0, 0.0, 0.0, 0.0, 0.0, 0.0, 0.0, 0.0, 0.0, 1.7395369427896056E9, 0.0, 2025-02-14 09:42:22.789
49.0, -131280.40060763367, -133957.26787534571, -174293.00240194827, -169902.4492385923, -174277.71380874084, -174219.15223826794, -161371.95067071327, -174298.41152410646, 0.306, 0.792, 0.554, 192.0, 0.0, 0.0, 0.0, 0.0, 0.0, 0.0, 0.0, 0.0, 0.0, 1.7395369427896173E9, 0.0, 2025-02-14 09:42:22.789
50.0, -131252.9303136981, -134065.87500165403, -174292.80123624817, -170014.69969924685, -174277.37853257402, -174218.90636907893, -161414.77661308963, -174298.07624793964, 0.306, 0.792, 0.554, 192.0, 0.0, 0.0, 0.0, 0.0, 0.0, 0.0, 0.0, 0.0, 0.0, 1.7395369427896287E9, 0.0, 2025-02-14 09:42:22.789
51.0, -131335.31884376035, -134054.90029512648, -174295.66225953845, -170037.65494080246, -174280.2842593532, -174221.81209585813, -161481.7200877333, -174300.87021599655, 0.312, 0.79, 0.554, 192.0, 9.0, 192.0, 24.0, 176.0, 17.0, 80.0, 0.0, 0.0, 0.0, 1.7395369427896402E9, 0.0, 2025-02-14 09:42:22.789
52.0, -131420.03195524597, -133993.20948042982, -174296.91395722795, -169984.63660295447, -174281.67006750943, -174223.04144180316, -161485.85516045752, -174302.1889689194, 0.312, 0.79, 0.554, 192.0, 0.0, 0.0, 0.0, 0.0, 0.0, 0.0, 0.0, 0.0, 0.0, 1.739536942789652E9, 0.0, 2025-02-14 09:42:22.789
53.0, -131393.67924853318, -134046.76426014476, -174294.87994848253, -170002.96503340782, -174279.50194829726, -174221.05213654664, -161472.19824459532, -174300.24436715178, 0.312, 0.79, 0.554, 192.0, 0.0, 0.0, 0.0, 0.0, 0.0, 0.0, 0.0, 0.0, 0.0, 1.7395369427896636E9, 0.0, 2025-02-14 09:42:22.789
54.0, -131350.22745731205, -134159.37234871057, -174294.90230022697, -170112.24271204983, -174279.4348930639, -174221.02978480217, -161514.97948348278, -174300.11025668506, 0.312, 0.79, 0.554, 192.0, 0.0, 0.0, 0.0, 0.0, 0.0, 0.0, 0.0, 0.0, 0.0, 1.739536942789675E9, 0.0, 2025-02-14 09:42:22.789
55.0, -131412.1194377088, -134169.3188749932, -174296.01988744974, -170153.8616602256, -174280.46307330884, -174222.03561330267, -161588.91905414095, -174301.11608518555, 0.312, 0.79, 0.554, 192.0, 0.0, 0.0, 0.0, 0.0, 0.0, 0.0, 0.0, 0.0, 0.0, 1.739536942789693E9, 0.0, 2025-02-14 09:42:22.789
56.0, -131511.20472087918, -134100.94488870443, -174294.43291359342, -170089.3992292165, -174279.16667213044, -174220.53804642416, -161610.2426183513, -174299.66322179596, 0.312, 0.79, 0.554, 192.0, 0.0, 0.0, 0.0, 0.0, 0.0, 0.0, 0.0, 0.0, 0.0, 1.739536942789705E9, 0.0, 2025-02-14 09:42:22.789
57.0, -131505.90735744327, -134130.22567394088, -174295.97518396084, -170083.8559965916, -174280.70894249785, -174222.03561330267, -161585.14160932798, -174301.20549216337, 0.312, 0.79, 0.554, 192.0, 0.0, 0.0, 0.0, 0.0, 0.0, 0.0, 0.0, 0.0, 0.0, 1.7395369427897167E9, 0.0, 2025-02-14 09:42:22.789
58.0, -131454.00660681803, -134249.80750677676, -174294.52232057124, -170186.3610966636, -174279.25607910825, -174220.58274991307, -161608.3874235615, -174299.79733226268, 0.312, 0.79, 0.554, 192.0, 0.0, 0.0, 0.0, 0.0, 0.0, 0.0, 0.0, 0.0, 0.0, 1.7395369427897284E9, 0.0, 2025-02-14 09:42:22.789
59.0, -131501.21349110766, -134285.83851883872, -174293.47178858184, -170251.02469337283, -174278.1384918855, -174219.57692141258, -161684.8080378542, -174298.67974503993, 0.312, 0.79, 0.554, 192.0, 0.0, 0.0, 0.0, 0.0, 0.0, 0.0, 0.0, 0.0, 0.0, 1.739536942789738E9, 0.0, 2025-02-14 09:42:22.789
60.0, -131608.07718134846, -134217.62099476112, -174295.75166651627, -170213.1384865211, -174280.32896284212, -174221.65563364694, -161721.19667782745, -174300.78080901873, 0.312, 0.79, 0.554, 192.0, 0.0, 0.0, 0.0, 0.0, 0.0, 0.0, 0.0, 0.0, 0.0, 1.7395369427897477E9, 0.0, 2025-02-14 09:42:22.789
61.0, -131626.56207401303, -134224.39357333106, -174296.35516361656, -170192.99956476685, -174281.02186692023, -174222.37088946952, -161698.6214159276, -174301.47371309684, 0.308, 0.788, 0.556, 192.0, 9.0, 160.0, 24.0, 160.0, 17.0, 96.0, 0.0, 0.0, 0.0, 1.7395369427897573E9, 0.0, 2025-02-14 09:42:22.789
62.0, -131573.543736165, -134341.6061212547, -174295.66225953845, -170282.7865222438, -174280.17250063093, -174221.7226888803, -161711.65248294504, -174300.892567741, 0.308, 0.788, 0.556, 192.0, 0.0, 0.0, 0.0, 0.0, 0.0, 0.0, 0.0, 0.0, 0.0, 1.7395369427897673E9, 0.0, 2025-02-14 09:42:22.789
63.0, -131602.64570744583, -134398.24544170446, -174295.34933511607, -170364.63861043914, -174279.70311399736, -174221.36506096902, -161783.69215532448, -174300.40082936297, 0.308, 0.788, 0.556, 192.0, 0.0, 0.0, 0.0, 0.0, 0.0, 0.0, 0.0, 0.0, 0.0, 1.7395369427897768E9, 0.0, 2025-02-14 09:42:22.789
64.0, -131711.45399945427, -134334.02887988437, -174292.82358799264, -170333.18970599052, -174277.46793955183, -174218.86166559003, -161831.7484059034, -174297.83037875063, 0.308, 0.788, 0.556, 192.0, 0.0, 0.0, 0.0, 0.0, 0.0, 0.0, 0.0, 0.0, 0.0, 1.7395369427897863E9, 0.0, 2025-02-14 09:42:22.789
65.0, -131748.08850861652, -134314.4040482526, -174294.07528568213, -170296.91282473956, -174278.8313959636, -174220.04630804615, -161812.72707137192, -174299.17148341794, 0.308, 0.788, 0.556, 192.0, 0.0, 0.0, 0.0, 0.0, 0.0, 0.0, 0.0, 0.0, 0.0, 1.739536942789796E9, 0.0, 2025-02-14 09:42:22.789
66.0, -131691.73976084468, -134422.31827048282, -174296.35516361656, -170369.9136221306, -174280.9324599424, -174222.32618598058, -161807.6979288695, -174301.42900960793, 0.308, 0.788, 0.556, 192.0, 0.0, 0.0, 0.0, 0.0, 0.0, 0.0, 0.0, 0.0, 0.0, 1.739536942789806E9, 0.0, 2025-02-14 09:42:22.789
67.0, -131696.38892369138, -134505.46675985656, -174297.40569560596, -170471.36819021325, -174281.82652972062, -174223.35436622554, -161873.2555953569, -174302.43483810843, 0.308, 0.788, 0.556, 192.0, 0.0, 0.0, 0.0, 0.0, 0.0, 0.0, 0.0, 0.0, 0.0, 1.7395369427898152E9, 0.0, 2025-02-14 09:42:22.789
68.0, -131803.07379997658, -134461.74674770198, -174296.35516361656, -170469.02125704542, -174280.82070122013, -174222.28148249167, -161932.19714548555, -174301.27254739674, 0.308, 0.788, 0.556, 192.0, 0.0, 0.0, 0.0, 0.0, 0.0, 0.0, 0.0, 0.0, 0.0, 1.7395369427898247E9, 0.0, 2025-02-14 09:42:22.789
69.0, -131863.93760012838, -134424.44168620606, -174296.91395722795, -170417.00874769792, -174281.51360529824, -174222.79557261415, -161925.75984308243, -174301.9430997304, 0.308, 0.788, 0.556, 192.0, 0.0, 0.0, 0.0, 0.0, 0.0, 0.0, 0.0, 0.0, 0.0, 1.7395369427898345E9, 0.0, 2025-02-14 09:42:22.789
70.0, -131822.1174862525, -134519.70482107459, -174297.22688165033, -170470.89880357968, -174281.75947448725, -174223.10849703653, -161918.09319473425, -174302.30072764168, 0.308, 0.788, 0.556, 192.0, 0.0, 0.0, 0.0, 0.0, 0.0, 0.0, 0.0, 0.0, 0.0, 1.7395369427898495E9, 0.0, 2025-02-14 09:42:22.789
71.0, -131813.48971289274, -134619.84063623438, -174297.07041943914, -170575.75083681953, -174281.40184657596, -174222.92968308087, -161974.91132913964, -174302.03250670823, 0.31, 0.78, 0.558, 192.0, 9.0, 176.0, 24.0, 96.0, 17.0, 112.0, 0.0, 0.0, 0.0, 1.7395369427898593E9, 0.0, 2025-02-14 09:42:22.789
72.0, -131907.07646692713, -134584.50252825054, -174297.00336420577, -170577.78484556495, -174281.37949483152, -174222.81792435862, -162033.87523101273, -174301.92074798595, 0.31, 0.78, 0.558, 192.0, 0.0, 0.0, 0.0, 0.0, 0.0, 0.0, 0.0, 0.0, 0.0, 1.7395369427898693E9, 0.0, 2025-02-14 09:42:22.789
73.0, -131979.2502497733, -134524.4433908991, -174295.52814907173, -170515.91521691266, -174280.0383901642, -174221.40976445793, -162029.82956526632, -174300.51258808526, 0.31, 0.78, 0.558, 192.0, 0.0, 0.0, 0.0, 0.0, 0.0, 0.0, 0.0, 0.0, 0.0, 1.739536942789879E9, 0.0, 2025-02-14 09:42:22.789
74.0, -131939.6876620874, -134598.62883074628, -174296.62338455004, -170548.36994986178, -174281.15597738695, -174222.5720551696, -162013.95982670307, -174301.71958228585, 0.31, 0.78, 0.558, 192.0, 0.0, 0.0, 0.0, 0.0, 0.0, 0.0, 0.0, 0.0, 0.0, 1.739536942789889E9, 0.0, 2025-02-14 09:42:22.789
75.0, -131909.28928962818, -134714.54497749152, -174299.61851830705, -170658.13936688178, -174283.90524195496, -174225.45543020434, -162065.14532150573, -174304.58060557613, 0.31, 0.78, 0.558, 192.0, 0.0, 0.0, 0.0, 0.0, 0.0, 0.0, 0.0, 0.0, 0.0, 1.7395369427898986E9, 0.0, 2025-02-14 09:42:22.789
76.0, -131993.26479354678, -134710.72282918965, -174298.1880066619, -170692.5834050874, -174282.45237856536, -174223.93551158137, -162137.74378749655, -174303.06068695316, 0.31, 0.78, 0.558, 192.0, 0.0, 0.0, 0.0, 0.0, 0.0, 0.0, 0.0, 0.0, 0.0, 1.7395369427899084E9, 0.0, 2025-02-14 09:42:22.789
77.0, -132084.59402139115, -134648.94260751517, -174298.83620725112, -170642.06846261842, -174283.2346896213, -174224.60606391504, -162152.04890394796, -174303.75359103127, 0.31, 0.78, 0.558, 192.0, 0.0, 0.0, 0.0, 0.0, 0.0, 0.0, 0.0, 0.0, 0.0, 1.7395369427899227E9, 0.0, 2025-02-14 09:42:22.789
78.0, -132066.15383221552, -134698.92110811724, -174298.50093108427, -170656.530041281, -174282.9441169434, -174224.40489821494, -162133.07227290538, -174303.39596311998, 0.31, 0.78, 0.558, 192.0, 0.0, 0.0, 0.0, 0.0, 0.0, 0.0, 0.0, 0.0, 0.0, 1.7395369427899332E9, 0.0, 2025-02-14 09:42:22.789
79.0, -132023.08202065015, -134817.13948454137, -174298.83620725112, -170767.4617490127, -174283.0335239212, -174224.62841565948, -162165.95168899916, -174303.61948056455, 0.31, 0.78, 0.558, 192.0, 0.0, 0.0, 0.0, 0.0, 0.0, 0.0, 0.0, 0.0, 0.0, 1.739536942789947E9, 0.0, 2025-02-14 09:42:22.789
80.0, -132084.86224232463, -134831.1763800593, -174296.75749501676, -170816.14384843636, -174280.99951517576, -174222.52735168068, -162239.6006869794, -174301.51841658575, 0.31, 0.78, 0.558, 192.0, 0.0, 0.0, 0.0, 0.0, 0.0, 0.0, 0.0, 0.0, 0.0, 1.7395369427899575E9, 0.0, 2025-02-14 09:42:22.789
81.0, -132182.38290338314, -134759.3155216355, -174297.04806769468, -170759.4151210088, -174281.40184657596, -174222.7732208697, -162261.3489343344, -174301.87604449704, 0.316, 0.786, 0.5640000000000001, 192.0, 9.0, 224.0, 24.0, 144.0, 17.0, 160.0, 0.0, 0.0, 0.0, 1.7395369427899675E9, 0.0, 2025-02-14 09:42:22.789
82.0, -132175.18564166853, -134779.61090560092, -174299.10442818457, -170757.98460936363, -174283.48055881032, -174224.82958135958, -162237.36551253387, -174303.91005324246, 0.316, 0.786, 0.5640000000000001, 192.0, 0.0, 0.0, 0.0, 0.0, 0.0, 0.0, 0.0, 0.0, 0.0, 1.7395369427899787E9, 0.0, 2025-02-14 09:42:22.789
83.0, -132119.5745014637, -134901.0032297377, -174300.73610552982, -170861.09320653597, -174284.95577394436, -174226.39420347146, -162260.54427153402, -174305.36291663206, 0.316, 0.786, 0.5640000000000001, 192.0, 0.0, 0.0, 0.0, 0.0, 0.0, 0.0, 0.0, 0.0, 0.0, 1.7395369427899907E9, 0.0, 2025-02-14 09:42:22.789
84.0, -132160.83582172822, -134950.601750684, -174301.87604449704, -170935.1445359164, -174285.9392507004, -174227.46708720532, -162342.39635972935, -174306.41344862146, 0.316, 0.786, 0.5640000000000001, 192.0, 0.0, 0.0, 0.0, 0.0, 0.0, 0.0, 0.0, 0.0, 0.0, 1.7395369427900083E9, 0.0, 2025-02-14 09:42:22.790
85.0, -132263.67619796708, -134889.42502610982, -174303.12774218654, -170900.8346081775, -174287.32505885663, -174228.76348838373, -162390.72083124172, -174307.70984979987, 0.316, 0.786, 0.5640000000000001, 192.0, 0.0, 0.0, 0.0, 0.0, 0.0, 0.0, 0.0, 0.0, 0.0, 1.73953694279002E9, 0.0, 2025-02-14 09:42:22.790
86.0, -132280.88704119768, -134893.0013052227, -174302.07721019714, -170876.15828229886, -174286.3415821006, -174227.80236337215, -162371.00659263213, -174306.74872478828, 0.316, 0.786, 0.5640000000000001, 192.0, 0.0, 0.0, 0.0, 0.0, 0.0, 0.0, 0.0, 0.0, 0.0, 1.7395369427900314E9, 0.0, 2025-02-14 09:42:22.790
87.0, -132225.34295622623, -135015.08653343757, -174303.08303869763, -170958.07742572756, -174287.1909483899, -174228.6740814059, -162381.2213398482, -174307.66514631096, 0.316, 0.786, 0.5640000000000001, 192.0, 0.0, 0.0, 0.0, 0.0, 0.0, 0.0, 0.0, 0.0, 0.0, 1.7395369427900429E9, 0.0, 2025-02-14 09:42:22.790
88.0, -132248.8122879043, -135074.40806322196, -174301.9878032193, -171046.54563028165, -174286.05100942266, -174227.60119767205, -162447.62837262492, -174306.48050385484, 0.316, 0.786, 0.5640000000000001, 192.0, 0.0, 0.0, 0.0, 0.0, 0.0, 0.0, 0.0, 0.0, 0.0, 1.7395369427900543E9, 0.0, 2025-02-14 09:42:22.790
89.0, -132356.48064094552, -135006.68227752237, -174302.01015496376, -171020.9081793914, -174286.29687861167, -174227.71295639433, -162496.86926565997, -174306.50285559928, 0.316, 0.786, 0.5640000000000001, 192.0, 0.0, 0.0, 0.0, 0.0, 0.0, 0.0, 0.0, 0.0, 0.0, 1.7395369427900662E9, 0.0, 2025-02-14 09:42:22.790
90.0, -132396.4008565427, -134981.98359989925, -174301.22784390784, -170969.3650566775, -174285.67102976693, -174226.97534882728, -162480.17251255186, -174305.85465501007, 0.316, 0.786, 0.5640000000000001, 192.0, 0.0, 0.0, 0.0, 0.0, 0.0, 0.0, 0.0, 0.0, 0.0, 1.7395369427900777E9, 0.0, 2025-02-14 09:42:22.790
91.0, -132343.02489078342, -135089.40608375147, -174300.33377412963, -171031.7264237078, -174284.57579428863, -174226.08127904907, -162479.36784975146, -174304.91588174296, 0.318, 0.788, 0.56, 192.0, 9.0, 240.0, 24.0, 160.0, 17.0, 128.0, 0.0, 0.0, 0.0, 1.7395369427900891E9, 0.0, 2025-02-14 09:42:22.790
92.0, -132346.735280363, -135181.2046982294, -174299.59616656258, -171139.10420407107, -174283.6370210215, -174225.23191275977, -162548.12181569598, -174304.13357068703, 0.318, 0.788, 0.56, 192.0, 0.0, 0.0, 0.0, 0.0, 0.0, 0.0, 0.0, 0.0, 0.0, 1.7395369427901015E9, 0.0, 2025-02-14 09:42:22.790
93.0, -132450.24620893554, -135142.75969776628, -174300.91491948545, -171140.84764013859, -174285.0898844111, -174226.64007266046, -162603.86706636753, -174305.42997186544, 0.318, 0.788, 0.56, 192.0, 0.0, 0.0, 0.0, 0.0, 0.0, 0.0, 0.0, 0.0, 0.0, 1.739536942790114E9, 0.0, 2025-02-14 09:42:22.790
94.0, -132509.45597999764, -135101.1854530794, -174302.07721019714, -171097.39584891748, -174286.40863733395, -174227.84706686105, -162599.01673782073, -174306.65931781047, 0.318, 0.788, 0.56, 192.0, 0.0, 0.0, 0.0, 0.0, 0.0, 0.0, 0.0, 0.0, 0.0, 1.7395369427901256E9, 0.0, 2025-02-14 09:42:22.790
95.0, -132462.45026140814, -135190.03363728925, -174302.3901346195, -171153.43167226695, -174286.52039605624, -174228.07058430562, -162589.56194991613, -174306.88283525503, 0.318, 0.788, 0.56, 192.0, 0.0, 0.0, 0.0, 0.0, 0.0, 0.0, 0.0, 0.0, 0.0, 1.7395369427901385E9, 0.0, 2025-02-14 09:42:22.790
96.0, -132443.18305768765, -135293.4328071395, -174301.38430611903, -171265.19039454346, -174285.3357536001, -174226.95299708284, -162638.0428836397, -174305.85465501007, 0.318, 0.788, 0.56, 192.0, 0.0, 0.0, 0.0, 0.0, 0.0, 0.0, 0.0, 0.0, 0.0, 1.7395369427901497E9, 0.0, 2025-02-14 09:42:22.790
97.0, -132534.3334715764, -135271.14811791756, -174298.99266946228, -171275.29338303726, -174283.01117217675, -174224.51665693722, -162705.5004484058, -174303.41831486445, 0.318, 0.788, 0.56, 192.0, 0.0, 0.0, 0.0, 0.0, 0.0, 0.0, 0.0, 0.0, 0.0, 1.7395369427901611E9, 0.0, 2025-02-14 09:42:22.790
98.0, -132611.044658547, -135216.09577132415, -174299.52911132923, -171216.97768175337, -174283.70407625486, -174225.09780229305, -162712.94357930942, -174303.97710847584, 0.318, 0.788, 0.56, 192.0, 0.0, 0.0, 0.0, 0.0, 0.0, 0.0, 0.0, 0.0, 0.0, 1.7395369427901723E9, 0.0, 2025-02-14 09:42:22.790
99.0, -132577.87466977534, -135287.01785648082, -174302.12191368605, -171248.69480713544, -174286.18511988941, -174227.73530813877, -162702.12533499306, -174306.50285559928, 0.318, 0.788, 0.56, 192.0, 0.0, 0.0, 0.0, 0.0, 0.0, 0.0, 0.0, 0.0, 0.0, 1.7395369427901907E9, 0.0, 2025-02-14 09:42:22.790
100.0, -132547.1857246382, -135407.58316607276, -174302.52424508624, -171365.05798876978, -174286.45334082286, -174228.07058430562, -162754.42841701847, -174306.77107653275, 0.318, 0.788, 0.56, 192.0, 0.0, 0.0, 0.0, 0.0, 0.0, 0.0, 0.0, 0.0, 0.0, 1.7395369427902024E9, 0.0, 2025-02-14 09:42:22.790
101.0, -132624.7462778981, -135404.94566022704, -174303.17244567545, -171408.21920731297, -174287.14624490097, -174228.65172966145, -162825.81988880874, -174307.35222188858, 0.32, 0.784, 0.554, 192.0, 10.0, 0.0, 24.0, 128.0, 17.0, 80.0, 0.0, 0.0, 0.0, 1.7395369427902138E9, 0.0, 2025-02-14 09:42:22.790
102.0, -132716.41078190933, -135342.45018272998, -174304.02181196475, -171358.46422415547, -174288.19677689037, -174229.56815118412, -162836.34756044718, -174308.38040213354, 0.32, 0.784, 0.554, 192.0, 0.0, 0.0, 0.0, 0.0, 0.0, 0.0, 0.0, 0.0, 0.0, 1.7395369427902255E9, 0.0, 2025-02-14 09:42:22.790
103.0, -132699.3787526344, -135382.3033430938, -174304.2900328982, -171370.91414581708, -174288.39794259047, -174229.81402037313, -162814.88988577007, -174308.64862306698, 0.32, 0.784, 0.554, 192.0, 0.0, 0.0, 0.0, 0.0, 0.0, 0.0, 0.0, 0.0, 0.0, 1.739536942790237E9, 0.0, 2025-02-14 09:42:22.790
104.0, -132648.79675493203, -135498.86769042822, -174304.0888671981, -171476.79435930186, -174287.97325944583, -174229.54579943966, -162847.52343267482, -174308.3356986446, 0.32, 0.784, 0.554, 192.0, 0.0, 0.0, 0.0, 0.0, 0.0, 0.0, 0.0, 0.0, 0.0, 1.7395369432684124E9, 0.0, 2025-02-14 09:42:23.268
105.0, -132706.30779341553, -135520.25830987195, -174303.06068695316, -171526.9963773485, -174287.01213443425, -174228.51761919472, -162922.3570731112, -174307.32987014414, 0.32, 0.784, 0.554, 192.0, 0.0, 0.0, 0.0, 0.0, 0.0, 0.0, 0.0, 0.0, 0.0, 1.739536943268458E9, 0.0, 2025-02-14 09:42:23.268
106.0, -132812.03154468915, -135449.93972181555, -174304.3347363871, -171472.34636215525, -174288.37559084603, -174229.81402037313, -162952.17430021457, -174308.71567830036, 0.32, 0.784, 0.554, 192.0, 0.0, 0.0, 0.0, 0.0, 0.0, 0.0, 0.0, 0.0, 0.0, 1.7395369432684898E9, 0.0, 2025-02-14 09:42:23.268
107.0, -132817.37361161396, -135467.5752481908, -174304.17827417594, -171460.2317166605, -174288.28618386821, -174229.67990990638, -162933.84586976122, -174308.55921608917, 0.32, 0.784, 0.554, 192.0, 0.0, 0.0, 0.0, 0.0, 0.0, 0.0, 0.0, 0.0, 0.0, 1.7395369432685125E9, 0.0, 2025-02-14 09:42:23.268
108.0, -132767.1492418229, -135596.16483404217, -174305.11704744305, -171566.1342818897, -174288.97908794633, -174230.48457270677, -162955.32589618277, -174309.43093412294, 0.32, 0.784, 0.554, 192.0, 0.0, 0.0, 0.0, 0.0, 0.0, 0.0, 0.0, 0.0, 0.0, 1.7395369432685423E9, 0.0, 2025-02-14 09:42:23.268
109.0, -132809.77401849916, -135646.277445111, -174304.80412302067, -171646.3099892509, -174288.55440480166, -174230.10459305104, -163034.09344364327, -174308.9391957449, 0.32, 0.784, 0.554, 192.0, 0.0, 0.0, 0.0, 0.0, 0.0, 0.0, 0.0, 0.0, 0.0, 1.7395369432685552E9, 0.0, 2025-02-14 09:42:23.268
110.0, -132917.71059247383, -135581.97147631305, -174305.47467535434, -171607.48500913204, -174289.40377109096, -174230.90925585144, -163077.67934533113, -174309.67680331194, 0.32, 0.784, 0.554, 192.0, 0.0, 0.0, 0.0, 0.0, 0.0, 0.0, 0.0, 0.0, 0.0, 1.739536943268568E9, 0.0, 2025-02-14 09:42:23.268
111.0, -132938.65417702845, -135577.1434995107, -174306.03346896573, -171578.8524244848, -174289.98491644682, -174231.44569771836, -163050.23140314, -174310.28030041224, 0.314, 0.778, 0.552, 192.0, 9.0, 208.0, 24.0, 80.0, 17.0, 64.0, 0.0, 0.0, 0.0, 1.7395369432685807E9, 0.0, 2025-02-14 09:42:23.268
112.0, -132878.9526675883, -135694.3336956899, -174306.92753874394, -171665.3760272713, -174290.5884135471, -174232.22800877428, -163050.25375488447, -174310.9955562348, 0.314, 0.778, 0.552, 192.0, 0.0, 0.0, 0.0, 0.0, 0.0, 0.0, 0.0, 0.0, 0.0, 1.7395369432685978E9, 0.0, 2025-02-14 09:42:23.268
113.0, -132897.5716707196, -135766.8874581918, -174305.85465501007, -171762.7402261186, -174289.49317806878, -174231.08806980707, -163119.83473537382, -174309.8332655231, 0.314, 0.778, 0.552, 192.0, 0.0, 0.0, 0.0, 0.0, 0.0, 0.0, 0.0, 0.0, 0.0, 1.7395369432686105E9, 0.0, 2025-02-14 09:42:23.268
114.0, -133005.53059643874, -135712.46096044313, -174305.3852683765, -171739.04737699596, -174289.11319841305, -174230.64103491796, -163178.0610296799, -174309.27447191175, 0.314, 0.778, 0.552, 192.0, 0.0, 0.0, 0.0, 0.0, 0.0, 0.0, 0.0, 0.0, 0.0, 1.739536943268674E9, 0.0, 2025-02-14 09:42:23.268
115.0, -133047.84244869262, -135693.55138463396, -174305.72054454335, -171689.4712077941, -174289.5378815577, -174230.99866282925, -163174.52945405597, -174309.60974807857, 0.314, 0.778, 0.552, 192.0, 0.0, 0.0, 0.0, 0.0, 0.0, 0.0, 0.0, 0.0, 0.0, 1.7395369432686868E9, 0.0, 2025-02-14 09:42:23.268
116.0, -132995.98640155632, -135800.12450219685, -174305.87700675454, -171764.8412900974, -174289.56023330215, -174231.15512504044, -163176.6081662903, -174309.87796901204, 0.314, 0.778, 0.552, 192.0, 0.0, 0.0, 0.0, 0.0, 0.0, 0.0, 0.0, 0.0, 0.0, 1.7395369432686996E9, 0.0, 2025-02-14 09:42:23.268
117.0, -132995.27114573374, -135893.26422134213, -174306.03346896573, -171879.50573915313, -174289.67199202444, -174231.2221802738, -163234.02979779599, -174309.9450242454, 0.314, 0.778, 0.552, 192.0, 0.0, 0.0, 0.0, 0.0, 0.0, 0.0, 0.0, 0.0, 0.0, 1.739536943268716E9, 0.0, 2025-02-14 09:42:23.268
118.0, -133098.424446395, -135858.30609301402, -174307.21811142185, -171881.00330603163, -174290.94604145837, -174232.38447098547, -163290.40089731227, -174311.01790797926, 0.314, 0.778, 0.552, 192.0, 0.0, 0.0, 0.0, 0.0, 0.0, 0.0, 0.0, 0.0, 0.0, 1.7395369432687285E9, 0.0, 2025-02-14 09:42:23.268
119.0, -133165.34556929418, -135814.09434248143, -174306.54755908818, -171825.83920071594, -174290.47665482483, -174231.870380863, -163288.7915717115, -174310.48146611234, 0.314, 0.778, 0.552, 192.0, 0.0, 0.0, 0.0, 0.0, 0.0, 0.0, 0.0, 0.0, 0.0, 1.7395369432687552E9, 0.0, 2025-02-14 09:42:23.268
120.0, -133120.46326642792, -135899.4780063007, -174305.92171024345, -171872.48729139415, -174289.62728853553, -174231.08806980707, -163278.80034194, -174309.8332655231, 0.314, 0.778, 0.552, 192.0, 0.0, 0.0, 0.0, 0.0, 0.0, 0.0, 0.0, 0.0, 0.0, 1.739536943268767E9, 0.0, 2025-02-14 09:42:23.268
121.0, -133099.87730978458, -136004.84412966302, -174307.53103584424, -171988.96223175077, -174290.94604145837, -174232.4738779633, -163337.42896764624, -174311.21907367936, 0.316, 0.79, 0.55, 192.0, 9.0, 224.0, 24.0, 176.0, 17.0, 48.0, 0.0, 0.0, 0.0, 1.7395369432687802E9, 0.0, 2025-02-14 09:42:23.268
122.0, -133189.95483993946, -135981.82183287406, -174307.21811142185, -172006.48599940373, -174290.7895792472, -174232.22800877428, -163407.88166616939, -174310.92850100144, 0.316, 0.79, 0.55, 192.0, 0.0, 0.0, 0.0, 0.0, 0.0, 0.0, 0.0, 0.0, 0.0, 1.7395369432687936E9, 0.0, 2025-02-14 09:42:23.268
123.0, -133277.21605029298, -135926.52361709162, -174307.50868409977, -171946.0915858855, -174291.30366936966, -174232.69739540786, -163411.25677958212, -174311.37553589055, 0.316, 0.79, 0.55, 192.0, 0.0, 0.0, 0.0, 0.0, 0.0, 0.0, 0.0, 0.0, 0.0, 1.7395369432688053E9, 0.0, 2025-02-14 09:42:23.268
124.0, -133253.56790465926, -135999.72558018274, -174308.22393992235, -171979.21687116826, -174291.92951821443, -174233.3232442526, -163385.4181629918, -174312.0907917131, 0.316, 0.79, 0.55, 192.0, 0.0, 0.0, 0.0, 0.0, 0.0, 0.0, 0.0, 0.0, 0.0, 1.7395369432688167E9, 0.0, 2025-02-14 09:42:23.268
125.0, -133221.11317171017, -136120.60381419706, -174308.0451259667, -172101.95029997235, -174291.61659379205, -174233.07737506359, -163426.0312826671, -174311.80021903518, 0.316, 0.79, 0.55, 192.0, 0.0, 0.0, 0.0, 0.0, 0.0, 0.0, 0.0, 0.0, 0.0, 1.7395369432688384E9, 0.0, 2025-02-14 09:42:23.268
126.0, -133304.5075302729, -136124.06833458762, -174306.56991083265, -172141.66934986942, -174290.00726819126, -174231.51275295173, -163501.71428939275, -174310.12383820105, 0.316, 0.79, 0.55, 192.0, 0.0, 0.0, 0.0, 0.0, 0.0, 0.0, 0.0, 0.0, 0.0, 1.7395369432688594E9, 0.0, 2025-02-14 09:42:23.268
127.0, -133408.86782513474, -136055.1579064319, -174306.5922625771, -172080.76084622872, -174290.18608214692, -174231.55745644064, -163517.18169655584, -174310.2355969233, 0.316, 0.79, 0.55, 192.0, 0.0, 0.0, 0.0, 0.0, 0.0, 0.0, 0.0, 0.0, 0.0, 1.7395369432688723E9, 0.0, 2025-02-14 09:42:23.268
128.0, -133396.59671742877, -136093.60290689504, -174306.97224223285, -172084.89591895294, -174290.61076529155, -174232.00449132975, -163493.086516033, -174310.72733530134, 0.316, 0.79, 0.55, 192.0, 0.0, 0.0, 0.0, 0.0, 0.0, 0.0, 0.0, 0.0, 0.0, 1.7395369432688854E9, 0.0, 2025-02-14 09:42:23.268
129.0, -133347.91461800513, -136214.07880950914, -174306.145227688, -172194.7994464397, -174289.56023330215, -174231.08806980707, -163526.5470774826, -174309.72150680085, 0.316, 0.79, 0.55, 192.0, 0.0, 0.0, 0.0, 0.0, 0.0, 0.0, 0.0, 0.0, 0.0, 1.7395369432689047E9, 0.0, 2025-02-14 09:42:23.268
130.0, -133404.28571752142, -136239.24687376583, -174305.07234395415, -172257.51844138128, -174288.53205305722, -174229.97048258432, -163601.73834583026, -174308.64862306698, 0.316, 0.79, 0.55, 192.0, 0.0, 0.0, 0.0, 0.0, 0.0, 0.0, 0.0, 0.0, 0.0, 1.7395369432689164E9, 0.0, 2025-02-14 09:42:23.268
131.0, -133511.75290486251, -136173.39863460048, -174306.48050385484, -172206.3552983231, -174289.96256470235, -174231.17747678488, -163631.622628167, -174310.01207947877, 0.318, 0.788, 0.55, 192.0, 9.0, 240.0, 24.0, 160.0, 17.0, 48.0, 0.0, 0.0, 0.0, 1.7395369432689323E9, 0.0, 2025-02-14 09:42:23.268
132.0, -133519.64307065523, -136194.5880883441, -174309.05095446718, -172191.06670511566, -174292.51066357025, -174233.7702791417, -163616.80342159313, -174312.6942888134, 0.318, 0.788, 0.55, 192.0, 0.0, 0.0, 0.0, 0.0, 0.0, 0.0, 0.0, 0.0, 0.0, 1.7395369432689507E9, 0.0, 2025-02-14 09:42:23.268
133.0, -133465.28362813994, -136320.9648514944, -174309.5873963341, -172292.70008715393, -174292.91299497045, -174234.32907275308, -163634.95303809084, -174313.11897195806, 0.318, 0.788, 0.55, 192.0, 0.0, 0.0, 0.0, 0.0, 0.0, 0.0, 0.0, 0.0, 0.0, 1.739536943268963E9, 0.0, 2025-02-14 09:42:23.268
134.0, -133502.00754428, -136374.51963120935, -174309.47563761185, -172376.74264630588, -174292.6894775259, -174234.12790705299, -163707.79737327067, -174312.7836957912, 0.318, 0.788, 0.55, 192.0, 0.0, 0.0, 0.0, 0.0, 0.0, 0.0, 0.0, 0.0, 0.0, 1.7395369432689755E9, 0.0, 2025-02-14 09:42:23.268
135.0, -133613.83332178992, -136309.99014496687, -174310.16854168996, -172338.1188318871, -174293.56119555965, -174234.84316287556, -163752.88084183703, -174313.45424812488, 0.318, 0.788, 0.55, 192.0, 0.0, 0.0, 0.0, 0.0, 0.0, 0.0, 0.0, 0.0, 0.0, 1.7395369432689908E9, 0.0, 2025-02-14 09:42:23.268
136.0, -133642.91294132627, -136299.52952856178, -174309.76621028976, -172304.72532567088, -174293.15886415946, -174234.55259019765, -163739.26862946377, -174313.27543416925, 0.318, 0.788, 0.55, 192.0, 0.0, 0.0, 0.0, 0.0, 0.0, 0.0, 0.0, 0.0, 0.0, 1.7395369432690027E9, 0.0, 2025-02-14 09:42:23.269
137.0, -133590.4310453452, -136413.52342528384, -174311.35318414608, -172388.25379470037, -174294.54467231568, -174236.0278053317, -163747.8069958457, -174314.72829755885, 0.318, 0.788, 0.55, 192.0, 0.0, 0.0, 0.0, 0.0, 0.0, 0.0, 0.0, 0.0, 0.0, 1.7395369432690237E9, 0.0, 2025-02-14 09:42:23.269
138.0, -133608.42419963173, -136487.95473432002, -174309.69915505638, -172482.57815630178, -174292.84593973708, -174234.28436926418, -163823.914685716, -174312.9848614913, 0.318, 0.788, 0.55, 192.0, 0.0, 0.0, 0.0, 0.0, 0.0, 0.0, 0.0, 0.0, 0.0, 1.7395369432690356E9, 0.0, 2025-02-14 09:42:23.269
139.0, -133719.3559073634, -136432.90238772662, -174310.05678296767, -172458.1029961232, -174293.24827113727, -174234.68670066437, -163882.25273874437, -174313.32013765816, 0.318, 0.788, 0.55, 192.0, 0.0, 0.0, 0.0, 0.0, 0.0, 0.0, 0.0, 0.0, 0.0, 1.739536943269048E9, 0.0, 2025-02-14 09:42:23.269
140.0, -133773.49183243417, -136400.87233792213, -174311.2861289127, -172410.38202171112, -174294.56702406015, -174235.96075009834, -163875.1225322631, -174314.52713185875, 0.318, 0.788, 0.55, 192.0, 0.0, 0.0, 0.0, 0.0, 0.0, 0.0, 0.0, 0.0, 0.0, 1.7395369432690625E9, 0.0, 2025-02-14 09:42:23.269
141.0, -133723.7144975322, -136499.0188478254, -174310.7943905347, -172477.52666205488, -174294.00823044876, -174235.4690117203, -163872.0156397838, -174314.0800969696, 0.318, 0.786, 0.556, 192.0, 9.0, 240.0, 24.0, 144.0, 17.0, 96.0, 0.0, 0.0, 0.0, 1.7395369432690742E9, 0.0, 2025-02-14 09:42:23.269
