%OpenBCI Raw EXG Data
%Number of channels = 8
%Sample Rate = 250 Hz
%Board = OpenBCI_GUI$BoardCytonSerial
Sample Index, EXG Channel 0, EXG Channel 1, EXG Channel 2, EXG Channel 3, EXG Channel 4, EXG Channel 5, EXG Channel 6, EXG Channel 7, Accel Channel 0, Accel Channel 1, Accel Channel 2, Not Used, Digital Channel 0 (D11), Digital Channel 1 (D12), Digital Channel 2 (D13), Digital Channel 3 (D17), Not Used, Digital Channel 4 (D18), Analog Channel 0, Analog Channel 1, Analog Channel 2, Timestamp, Marker Channel, Timestamp (Formatted)
82.0, -31921.129753724308, 134718.68005021574, -181940.11532546466, 134859.71955772873, -187500.02235174447, 134832.11515332642, 134832.69629868225, -187500.02235174447, 0.0, 0.0, 0.0, 192.0, 0.0, 0.0, 0.0, 0.0, 0.0, 0.0, 0.0, 0.0, 0.0, 1.7401439056631963E9, 0.0, 2025-02-21 10:18:25.663
83.0, -36515.44141953486, 134709.0464483555, -182142.77859244094, 134850.93532215778, -187500.02235174447, 134823.3309177555, 134823.8226561335, -187500.02235174447, 0.0, 0.0, 0.0, 192.0, 0.0, 0.0, 0.0, 0.0, 0.0, 0.0, 0.0, 0.0, 0.0, 1.74014390566323E9, 0.0, 2025-02-21 10:18:25.663
84.0, -36406.78958973761, 134701.62566919634, -182158.11188913728, 134843.44748776525, -187500.02235174447, 134815.91013859631, 134816.29011825207, -187500.02235174447, 0.0, 0.0, 0.0, 192.0, 0.0, 0.0, 0.0, 0.0, 0.0, 0.0, 0.0, 0.0, 0.0, 1.7401439056632493E9, 0.0, 2025-02-21 10:18:25.663
85.0, -32903.73479172406, 134693.53433770352, -181961.08126176373, 134834.61854870542, -187500.02235174447, 134807.058847792, 134807.52823442558, -187500.02235174447, 0.0, 0.0, 0.0, 192.0, 0.0, 0.0, 0.0, 0.0, 0.0, 0.0, 0.0, 0.0, 0.0, 1.7401439056632683E9, 0.0, 2025-02-21 10:18:25.663
86.0, -33316.68327053586, 134680.0338840525, -181902.87731920212, 134821.18515028778, -187500.02235174447, 134793.62544937438, 134794.13953949686, -187500.02235174447, 0.0, 0.0, 0.0, 192.0, 0.0, 0.0, 0.0, 0.0, 0.0, 0.0, 0.0, 0.0, 0.0, 1.7401439056632864E9, 0.0, 2025-02-21 10:18:25.663
87.0, -38048.793440913374, 134669.95324730317, -182098.9244698196, 134812.2221007612, -187500.02235174447, 134784.70710333672, 134785.06473124799, -187500.02235174447, 0.0, 0.0, 0.0, 192.0, 0.0, 0.0, 0.0, 0.0, 0.0, 0.0, 0.0, 0.0, 0.0, 1.740143905663335E9, 0.0, 2025-02-21 10:18:25.663
88.0, -39031.68905159105, 134665.0805670119, -182168.97483694254, 134807.48353093668, -187500.02235174447, 134780.0132370011, 134780.30380967903, -187500.02235174447, 0.046, 0.9420000000000001, 0.354, 192.0, 1.0, 112.0, 29.0, 112.0, 11.0, 16.0, 0.0, 0.0, 0.0, 1.7401439056633537E9, 0.0, 2025-02-21 10:18:25.663
89.0, -35534.33394841361, 134656.92218028574, -181984.79646263082, 134798.58753664346, -187500.02235174447, 134771.20664968572, 134771.47487061916, -187500.02235174447, 0.046, 0.9420000000000001, 0.354, 192.0, 0.0, 0.0, 0.0, 0.0, 0.0, 0.0, 0.0, 0.0, 0.0, 1.7401439056633756E9, 0.0, 2025-02-21 10:18:25.663
90.0, -34874.018713714926, 134644.65107257976, -181878.93860089048, 134786.13761498185, -187500.02235174447, 134758.7567280241, 134759.0696524465, -187500.02235174447, 0.046, 0.9420000000000001, 0.354, 192.0, 0.0, 0.0, 0.0, 0.0, 0.0, 0.0, 0.0, 0.0, 0.0, 1.7401439056633947E9, 0.0, 2025-02-21 10:18:25.663
91.0, -39420.96703302467, 134633.00581371854, -182052.14226867465, 134775.40877764332, -187500.02235174447, 134747.98318719663, 134748.296111619, -187500.02235174447, 0.046, 0.9420000000000001, 0.354, 192.0, 0.0, 0.0, 0.0, 0.0, 0.0, 0.0, 0.0, 0.0, 0.0, 1.7401439056634135E9, 0.0, 2025-02-21 10:18:25.663
92.0, -41480.34500841439, 134626.81438050442, -182169.53363055392, 134769.79848978503, -187500.02235174447, 134742.2611406161, 134742.57406503847, -187500.02235174447, 0.046, 0.9420000000000001, 0.354, 192.0, 0.0, 0.0, 0.0, 0.0, 0.0, 0.0, 0.0, 0.0, 0.0, 1.7401439056634326E9, 0.0, 2025-02-21 10:18:25.663
93.0, -38272.1320715108, 134615.19147338768, -182007.1035035972, 134757.5050303346, -187500.02235174447, 134730.01238465458, 134730.25825384358, -187500.02235174447, 0.046, 0.9420000000000001, 0.354, 192.0, 0.0, 0.0, 0.0, 0.0, 0.0, 0.0, 0.0, 0.0, 0.0, 1.740143905663452E9, 0.0, 2025-02-21 10:18:25.663
94.0, -36626.86486564456, 134600.95341216962, -181857.14565004656, 134742.86463771638, -187500.02235174447, 134715.32728854744, 134715.70726820317, -187500.02235174447, 0.046, 0.9420000000000001, 0.354, 192.0, 0.0, 0.0, 0.0, 0.0, 0.0, 0.0, 0.0, 0.0, 0.0, 1.7401439056634705E9, 0.0, 2025-02-21 10:18:25.663
95.0, -40681.27014413716, 134588.70465620814, -181995.07826508026, 134731.50995153308, -187500.02235174447, 134703.92789887523, 134704.28552678652, -187500.02235174447, 0.046, 0.9420000000000001, 0.354, 192.0, 0.0, 0.0, 0.0, 0.0, 0.0, 0.0, 0.0, 0.0, 0.0, 1.740143905663489E9, 0.0, 2025-02-21 10:18:25.663
96.0, -43729.39988725184, 134582.64733346074, -182153.73094722402, 134726.1455328638, -187500.02235174447, 134698.60818369486, 134698.9434598617, -187500.02235174447, 0.046, 0.9420000000000001, 0.354, 192.0, 0.0, 0.0, 0.0, 0.0, 0.0, 0.0, 0.0, 0.0, 0.0, 1.7401439056635077E9, 0.0, 2025-02-21 10:18:25.663
97.0, -41064.13317491212, 134575.13714732375, -182031.48925679794, 134718.05420137098, -187500.02235174447, 134690.56155569095, 134690.80742487998, -187500.02235174447, 0.046, 0.9420000000000001, 0.354, 192.0, 0.0, 0.0, 0.0, 0.0, 0.0, 0.0, 0.0, 0.0, 0.0, 1.7401439056635263E9, 0.0, 2025-02-21 10:18:25.663
98.0, -38600.032162670155, 134562.17313553966, -181851.82593486618, 134704.50904423106, -187500.02235174447, 134677.0387502955, 134677.3293229734, -187500.02235174447, 0.038, 0.9420000000000001, 0.356, 192.0, 1.0, 48.0, 29.0, 112.0, 11.0, 32.0, 0.0, 0.0, 0.0, 1.7401439056636484E9, 0.0, 2025-02-21 10:18:25.663
99.0, -41893.5393564152, 134553.1206790353, -181947.5361046238, 134696.28360227152, -187500.02235174447, 134668.7909565915, 134669.0815292694, -187500.02235174447, 0.038, 0.9420000000000001, 0.356, 192.0, 0.0, 0.0, 0.0, 0.0, 0.0, 0.0, 0.0, 0.0, 0.0, 1.740143905663669E9, 0.0, 2025-02-21 10:18:25.663
100.0, -45766.850801330904, 134549.83497260034, -182139.87286566175, 134693.802558637, -187500.02235174447, 134666.30991295696, 134666.60048563487, -187500.02235174447, 0.038, 0.9420000000000001, 0.356, 192.0, 0.0, 0.0, 0.0, 0.0, 0.0, 0.0, 0.0, 0.0, 0.0, 1.7401439056636884E9, 0.0, 2025-02-21 10:18:25.663
101.0, -43870.26058080919, 134542.25773123, -182062.26760891292, 134685.86768935533, -187500.02235174447, 134658.37504367533, 134658.66561635325, -187500.02235174447, 0.038, 0.9420000000000001, 0.356, 192.0, 0.0, 0.0, 0.0, 0.0, 0.0, 0.0, 0.0, 0.0, 0.0, 1.7401439056637073E9, 0.0, 2025-02-21 10:18:25.663
102.0, -40756.41670899591, 134531.21596946908, -181863.35943500514, 134674.1330235163, -187500.02235174447, 134646.68508132518, 134647.02035749203, -187500.02235174447, 0.038, 0.9420000000000001, 0.356, 192.0, 0.0, 0.0, 0.0, 0.0, 0.0, 0.0, 0.0, 0.0, 0.0, 1.7401439056637359E9, 0.0, 2025-02-21 10:18:25.663
103.0, -43087.48013823988, 134521.4482571421, -181905.2913076033, 134664.8794013118, -187500.02235174447, 134637.29734865396, 134637.78908703197, -187500.02235174447, 0.038, 0.9420000000000001, 0.356, 192.0, 0.0, 0.0, 0.0, 0.0, 0.0, 0.0, 0.0, 0.0, 0.0, 1.7401439056637547E9, 0.0, 2025-02-21 10:18:25.663
104.0, -47583.95821856955, 134515.12271346126, -182113.20723452655, 134659.60438962036, -187500.02235174447, 134631.99998521805, 134632.3352613849, -187500.02235174447, 0.038, 0.9420000000000001, 0.356, 192.0, 0.0, 0.0, 0.0, 0.0, 0.0, 0.0, 0.0, 0.0, 0.0, 1.740143905663777E9, 0.0, 2025-02-21 10:18:25.663
105.0, -46633.874968752265, 134509.42301862515, -182088.03917026988, 134653.65882559525, -187500.02235174447, 134626.0767729374, 134626.3226421264, -187500.02235174447, 0.038, 0.9420000000000001, 0.356, 192.0, 0.0, 0.0, 0.0, 0.0, 0.0, 0.0, 0.0, 0.0, 0.0, 1.740143905663796E9, 0.0, 2025-02-21 10:18:25.663
106.0, -43140.18555166549, 134496.25784114096, -181880.21265032442, 134639.7336887996, -187500.02235174447, 134612.10693265282, 134612.4645605641, -187500.02235174447, 0.038, 0.9420000000000001, 0.356, 192.0, 0.0, 0.0, 0.0, 0.0, 0.0, 0.0, 0.0, 0.0, 0.0, 1.7401439056638148E9, 0.0, 2025-02-21 10:18:25.663
107.0, -44347.53738016336, 134482.37740783422, -181861.19131579297, 134626.14382817075, -187500.02235174447, 134598.5617755129, 134598.9194034242, -187500.02235174447, 0.038, 0.9420000000000001, 0.356, 192.0, 0.0, 0.0, 0.0, 0.0, 0.0, 0.0, 0.0, 0.0, 0.0, 1.7401439056638336E9, 0.0, 2025-02-21 10:18:25.663
108.0, -49155.44231598882, 134476.1412711312, -182072.05767298435, 134621.00292694604, -187500.02235174447, 134593.44322603266, 134593.59968824385, -187500.02235174447, 0.048, 0.934, 0.354, 192.0, 1.0, 128.0, 29.0, 48.0, 11.0, 16.0, 0.0, 0.0, 0.0, 1.7401439056638525E9, 0.0, 2025-02-21 10:18:25.663
109.0, -49347.823780515646, 134469.45809953907, -182102.5901559103, 134614.3644588428, -187500.02235174447, 134586.80475792944, 134586.9165166517, -187500.02235174447, 0.048, 0.934, 0.354, 192.0, 0.0, 0.0, 0.0, 0.0, 0.0, 0.0, 0.0, 0.0, 0.0, 1.7401439056638722E9, 0.0, 2025-02-21 10:18:25.663
110.0, -45680.12603284431, 134458.14811684468, -181900.3962755676, 134602.1604063702, -187500.02235174447, 134574.66776069018, 134574.80187115693, -187500.02235174447, 0.048, 0.934, 0.354, 192.0, 0.0, 0.0, 0.0, 0.0, 0.0, 0.0, 0.0, 0.0, 0.0, 1.7401439056638908E9, 0.0, 2025-02-21 10:18:25.663
111.0, -45744.45435338669, 134445.4299742496, -181827.84251306564, 134589.37520854178, -187500.02235174447, 134561.88256286175, 134562.10608030632, -187500.02235174447, 0.048, 0.934, 0.354, 192.0, 0.0, 0.0, 0.0, 0.0, 0.0, 0.0, 0.0, 0.0, 0.0, 1.7401439056639102E9, 0.0, 2025-02-21 10:18:25.663
112.0, -50543.23977747438, 134437.3833462457, -182024.470809039, 134582.55792648293, -187500.02235174447, 134555.04292905843, 134555.28879824743, -187500.02235174447, 0.048, 0.934, 0.354, 192.0, 0.0, 0.0, 0.0, 0.0, 0.0, 0.0, 0.0, 0.0, 0.0, 1.7401439056639292E9, 0.0, 2025-02-21 10:18:25.663
113.0, -51888.90420066169, 134430.4319537201, -182108.75923737994, 134575.98651361305, -187500.02235174447, 134548.4044609552, 134548.53857142193, -187500.02235174447, 0.048, 0.934, 0.354, 192.0, 0.0, 0.0, 0.0, 0.0, 0.0, 0.0, 0.0, 0.0, 0.0, 1.7401439056639757E9, 0.0, 2025-02-21 10:18:25.663
114.0, -48340.296547448226, 134420.7312966265, -181925.45258110197, 134565.34708325233, -187500.02235174447, 134537.83208582786, 134538.0108997835, -187500.02235174447, 0.048, 0.934, 0.354, 192.0, 0.0, 0.0, 0.0, 0.0, 0.0, 0.0, 0.0, 0.0, 0.0, 1.7401439056639953E9, 0.0, 2025-02-21 10:18:25.663
115.0, -47356.14923908106, 134408.70605810953, -181806.54130059975, 134553.09832729082, -187500.02235174447, 134525.6056816108, 134525.78449556645, -187500.02235174447, 0.048, 0.934, 0.354, 192.0, 0.0, 0.0, 0.0, 0.0, 0.0, 0.0, 0.0, 0.0, 0.0, 1.7401439056640148E9, 0.0, 2025-02-21 10:18:25.664
116.0, -51830.11911274423, 134397.73135158198, -181973.53118342534, 134543.33061496387, -187500.02235174447, 134515.748562306, 134515.92737626165, -187500.02235174447, 0.048, 0.934, 0.354, 192.0, 0.0, 0.0, 0.0, 0.0, 0.0, 0.0, 0.0, 0.0, 0.0, 1.7401439056640337E9, 0.0, 2025-02-21 10:18:25.664
117.0, -54218.470063027155, 134388.29891542185, -182101.65138264315, 134534.501675904, -187500.02235174447, 134506.96432673506, 134507.00903022397, -187500.02235174447, 0.048, 0.934, 0.354, 192.0, 0.0, 0.0, 0.0, 0.0, 0.0, 0.0, 0.0, 0.0, 0.0, 1.7401439056640604E9, 0.0, 2025-02-21 10:18:25.664
118.0, -51073.42315595426, 134381.66044731863, -181951.0006250144, 134526.96913802257, -187500.02235174447, 134499.45414059807, 134499.54354757591, -187500.02235174447, 0.044, 0.932, 0.358, 192.0, 1.0, 96.0, 29.0, 32.0, 11.0, 48.0, 0.0, 0.0, 0.0, 1.74014390566408E9, 0.0, 2025-02-21 10:18:25.664
119.0, -49158.90683637939, 134371.55745882483, -181794.91839348298, 134516.30735591738, -187500.02235174447, 134488.77000674844, 134489.08293117082, -187500.02235174447, 0.044, 0.932, 0.358, 192.0, 0.0, 0.0, 0.0, 0.0, 0.0, 0.0, 0.0, 0.0, 0.0, 1.7401439056641E9, 0.0, 2025-02-21 10:18:25.664
120.0, -53039.34848777634, 134362.08031917576, -181924.73732527942, 134507.85839651327, -187500.02235174447, 134480.3433990888, 134480.5892682778, -187500.02235174447, 0.044, 0.932, 0.358, 192.0, 0.0, 0.0, 0.0, 0.0, 0.0, 0.0, 0.0, 0.0, 0.0, 1.7401439056641188E9, 0.0, 2025-02-21 10:18:25.664
121.0, -56352.72638234215, 134357.3193976068, -182095.21408024002, 134504.05859995587, -187500.02235174447, 134476.3871403202, 134476.61065776477, -187500.02235174447, 0.044, 0.932, 0.358, 192.0, 0.0, 0.0, 0.0, 0.0, 0.0, 0.0, 0.0, 0.0, 0.0, 1.7401439056641378E9, 0.0, 2025-02-21 10:18:25.664
122.0, -53835.22705259646, 134349.42923181405, -181982.51658469636, 134495.40847485166, -187500.02235174447, 134467.91582917166, 134468.1393466162, -187500.02235174447, 0.044, 0.932, 0.358, 192.0, 0.0, 0.0, 0.0, 0.0, 0.0, 0.0, 0.0, 0.0, 0.0, 1.740143905664157E9, 0.0, 2025-02-21 10:18:25.664
123.0, -51170.94381701277, 134335.3476328072, -181794.42665510497, 134480.67867525562, -187500.02235174447, 134453.27543655343, 134453.4766022535, -187500.02235174447, 0.044, 0.932, 0.358, 192.0, 0.0, 0.0, 0.0, 0.0, 0.0, 0.0, 0.0, 0.0, 0.0, 1.740143905664176E9, 0.0, 2025-02-21 10:18:25.664
124.0, -54213.68678971372, 134325.2446443134, -181875.33997003318, 134471.42505305112, -187500.02235174447, 134443.97711086003, 134444.11122132675, -187500.02235174447, 0.044, 0.932, 0.358, 192.0, 0.0, 0.0, 0.0, 0.0, 0.0, 0.0, 0.0, 0.0, 0.0, 1.7401439056641948E9, 0.0, 2025-02-21 10:18:25.664
125.0, -58256.73738202303, 134318.62852795466, -182070.31423691683, 134465.7924134484, -187500.02235174447, 134438.32211951283, 134438.41152649064, -187500.02235174447, 0.044, 0.932, 0.358, 192.0, 0.0, 0.0, 0.0, 0.0, 0.0, 0.0, 0.0, 0.0, 0.0, 1.7401439056642156E9, 0.0, 2025-02-21 10:18:25.664
126.0, -56599.444937639826, 134311.61008019568, -182006.94704138604, 134458.25987556696, -187500.02235174447, 134430.85663686474, 134431.0801543093, -187500.02235174447, 0.044, 0.932, 0.358, 192.0, 0.0, 0.0, 0.0, 0.0, 0.0, 0.0, 0.0, 0.0, 0.0, 1.7401439056642344E9, 0.0, 2025-02-21 10:18:25.664
127.0, -53395.791756605126, 134299.13780678963, -181803.79203603175, 134444.9829393605, -187500.02235174447, 134417.60205240274, 134417.89262508068, -187500.02235174447, 0.044, 0.932, 0.358, 192.0, 0.0, 0.0, 0.0, 0.0, 0.0, 0.0, 0.0, 0.0, 0.0, 1.7401439056642528E9, 0.0, 2025-02-21 10:18:25.664
128.0, -55460.80237159758, 134287.33608571722, -181829.5635973887, 134433.74001189947, -187500.02235174447, 134406.31442145281, 134406.470883664, -187500.02235174447, 0.054, 0.932, 0.354, 192.0, 1.0, 176.0, 29.0, 32.0, 11.0, 16.0, 0.0, 0.0, 0.0, 1.74014390566428E9, 0.0, 2025-02-21 10:18:25.664
129.0, -59952.0501437247, 134278.26127746838, -182035.28905335534, 134426.05101180685, -187500.02235174447, 134398.53601438238, 134398.55836612682, -187500.02235174447, 0.054, 0.932, 0.354, 192.0, 0.0, 0.0, 0.0, 0.0, 0.0, 0.0, 0.0, 0.0, 0.0, 1.7401439056643004E9, 0.0, 2025-02-21 10:18:25.664
130.0, -59239.45417874506, 134272.91921054354, -182025.18606486157, 134420.46307569303, -187500.02235174447, 134392.970430013, 134393.08218873528, -187500.02235174447, 0.054, 0.932, 0.354, 192.0, 0.0, 0.0, 0.0, 0.0, 0.0, 0.0, 0.0, 0.0, 0.0, 1.7401439056643193E9, 0.0, 2025-02-21 10:18:25.664
131.0, -55780.47702079738, 134263.6432365946, -181821.29345194023, 134410.31538371032, -187500.02235174447, 134382.82273803029, 134382.9121450081, -187500.02235174447, 0.054, 0.932, 0.354, 192.0, 0.0, 0.0, 0.0, 0.0, 0.0, 0.0, 0.0, 0.0, 0.0, 1.7401439056643376E9, 0.0, 2025-02-21 10:18:25.664
132.0, -56865.18482746898, 134252.6908818115, -181793.64434404904, 134399.58654637178, -187500.02235174447, 134372.16095592512, 134372.22801115847, -187500.02235174447, 0.054, 0.932, 0.354, 192.0, 0.0, 0.0, 0.0, 0.0, 0.0, 0.0, 0.0, 0.0, 0.0, 1.740143905664363E9, 0.0, 2025-02-21 10:18:25.664
133.0, -61518.72861608608, 134244.9348264855, -181998.67689593756, 134393.08218873528, -187500.02235174447, 134365.70130177753, 134365.65659828862, -187500.02235174447, 0.054, 0.932, 0.354, 192.0, 0.0, 0.0, 0.0, 0.0, 0.0, 0.0, 0.0, 0.0, 0.0, 1.740143905664382E9, 0.0, 2025-02-21 10:18:25.664
134.0, -61795.35380546496, 134240.64329155008, -182044.20739939302, 134388.83535728877, -187500.02235174447, 134361.43211858656, 134361.3650633532, -187500.02235174447, 0.054, 0.932, 0.354, 192.0, 0.0, 0.0, 0.0, 0.0, 0.0, 0.0, 0.0, 0.0, 0.0, 1.7401439056644008E9, 0.0, 2025-02-21 10:18:25.664
135.0, -58273.836466531335, 134230.60735828965, -181847.84732435315, 134377.70418855004, -187500.02235174447, 134350.3680050812, 134350.3233015923, -187500.02235174447, 0.054, 0.932, 0.354, 192.0, 0.0, 0.0, 0.0, 0.0, 0.0, 0.0, 0.0, 0.0, 0.0, 1.7401439056644197E9, 0.0, 2025-02-21 10:18:25.664
136.0, -58323.613801433305, 134217.3304220832, -181765.59290475762, 134364.47195583247, -187500.02235174447, 134337.18047585257, 134337.22517934148, -187500.02235174447, 0.054, 0.932, 0.354, 192.0, 0.0, 0.0, 0.0, 0.0, 0.0, 0.0, 0.0, 0.0, 0.0, 1.7401439056644385E9, 0.0, 2025-02-21 10:18:25.664
137.0, -62948.70381935881, 134207.56270975622, -181954.12986923812, 134356.09005166174, -187500.02235174447, 134328.709164704, 134328.7538681929, -187500.02235174447, 0.054, 0.932, 0.354, 192.0, 0.0, 0.0, 0.0, 0.0, 0.0, 0.0, 0.0, 0.0, 0.0, 1.740143905664457E9, 0.0, 2025-02-21 10:18:25.664
138.0, -64275.548073714745, 134201.50538700883, -182048.29776862834, 134350.47976380345, -187500.02235174447, 134323.07652510126, 134323.0094698679, -187500.02235174447, 0.054, 0.922, 0.352, 192.0, 1.0, 176.0, 28.0, 208.0, 11.0, 0.0, 0.0, 0.0, 0.0, 1.7401439056644764E9, 0.0, 2025-02-21 10:18:25.664
139.0, -60889.81758234711, 134191.35769502612, -181871.8754496426, 134339.32624332028, -187500.02235174447, 134311.99005985144, 134311.81124589578, -187500.02235174447, 0.054, 0.922, 0.352, 192.0, 0.0, 0.0, 0.0, 0.0, 0.0, 0.0, 0.0, 0.0, 0.0, 1.740143905664496E9, 0.0, 2025-02-21 10:18:25.664
140.0, -59954.48648387033, 134178.68425591997, -181744.9398928809, 134326.451638514, -187500.02235174447, 134298.95899283397, 134298.95899283397, -187500.02235174447, 0.054, 0.922, 0.352, 192.0, 0.0, 0.0, 0.0, 0.0, 0.0, 0.0, 0.0, 0.0, 0.0, 1.7401439056645157E9, 0.0, 2025-02-21 10:18:25.664
141.0, -64281.13600982857, 134167.19545926995, -181903.50316804685, 134316.19218780904, -187500.02235174447, 134288.63248689563, 134288.61013515116, -187500.02235174447, 0.054, 0.922, 0.352, 192.0, 0.0, 0.0, 0.0, 0.0, 0.0, 0.0, 0.0, 0.0, 0.0, 1.7401439056645353E9, 0.0, 2025-02-21 10:18:25.664
142.0, -66609.83015416029, 134160.62404640007, -182041.74870750293, 134310.31367901727, -187500.02235174447, 134282.86573682615, 134282.66457112605, -187500.02235174447, 0.054, 0.922, 0.352, 192.0, 0.0, 0.0, 0.0, 0.0, 0.0, 0.0, 0.0, 0.0, 0.0, 1.7401439056645539E9, 0.0, 2025-02-21 10:18:25.664
143.0, -63603.229952243564, 134152.44330792944, -181898.4293220555, 134301.26122251287, -187500.02235174447, 134273.8356320662, 134273.7015215995, -187500.02235174447, 0.054, 0.922, 0.352, 192.0, 0.0, 0.0, 0.0, 0.0, 0.0, 0.0, 0.0, 0.0, 0.0, 1.7401439056646092E9, 0.0, 2025-02-21 10:18:25.664
144.0, -61772.376212164905, 134140.64158685703, -181735.0827735761, 134288.9007078291, -187500.02235174447, 134261.4304138935, 134261.51982087136, -187500.02235174447, 0.054, 0.922, 0.352, 192.0, 0.0, 0.0, 0.0, 0.0, 0.0, 0.0, 0.0, 0.0, 0.0, 1.7401439056646287E9, 0.0, 2025-02-21 10:18:25.664
145.0, -65529.8162138243, 134130.5609501077, -181854.95517908994, 134279.87060306914, -187500.02235174447, 134252.46736436695, 134252.51206785586, -187500.02235174447, 0.054, 0.922, 0.352, 192.0, 0.0, 0.0, 0.0, 0.0, 0.0, 0.0, 0.0, 0.0, 0.0, 1.7401439056646476E9, 0.0, 2025-02-21 10:18:25.664
146.0, -68747.5733456103, 134124.68244131596, -182029.63406200818, 134274.8414605667, -187500.02235174447, 134247.4829253534, 134247.46057360896, -187500.02235174447, 0.054, 0.922, 0.352, 192.0, 0.0, 0.0, 0.0, 0.0, 0.0, 0.0, 0.0, 0.0, 0.0, 1.7401439056646688E9, 0.0, 2025-02-21 10:18:25.664
147.0, -66344.93963062044, 134118.3121941462, -181928.7382875369, 134267.8006610633, -187500.02235174447, 134240.44212584998, 134240.39742236107, -187500.02235174447, 0.054, 0.922, 0.352, 192.0, 0.0, 0.0, 0.0, 0.0, 0.0, 0.0, 0.0, 0.0, 0.0, 1.7401439056646965E9, 0.0, 2025-02-21 10:18:25.664
148.0, -63797.39955632682, 134104.0517811837, -181737.42970674395, 134252.6908818115, -187500.02235174447, 134225.37705008712, 134225.30999485374, -187500.02235174447, 0.046, 0.916, 0.35000000000000003, 192.0, 1.0, 112.0, 28.0, 160.0, 10.0, 240.0, 0.0, 0.0, 0.0, 1.7401439056647153E9, 0.0, 2025-02-21 10:18:25.664
149.0, -66758.3574960658, 134091.71361824436, -181806.161320944, 134241.17973341703, -187500.02235174447, 134213.8882534371, 134213.79884645925, -187500.02235174447, 0.046, 0.916, 0.35000000000000003, 192.0, 0.0, 0.0, 0.0, 0.0, 0.0, 0.0, 0.0, 0.0, 0.0, 1.7401439056647463E9, 0.0, 2025-02-21 10:18:25.664
150.0, -70689.67171784303, 134086.5056617863, -182005.87415765217, 134237.15641941506, -187500.02235174447, 134209.7755324573, 134209.6861254795, -187500.02235174447, 0.046, 0.916, 0.35000000000000003, 192.0, 0.0, 0.0, 0.0, 0.0, 0.0, 0.0, 0.0, 0.0, 0.0, 1.7401439056647656E9, 0.0, 2025-02-21 10:18:25.664
151.0, -69090.58321602145, 134080.26952508325, -181953.3922616711, 134230.40619258955, -187500.02235174447, 134203.20411958743, 134203.0253056318, -187500.02235174447, 0.046, 0.916, 0.35000000000000003, 192.0, 0.0, 0.0, 0.0, 0.0, 0.0, 0.0, 0.0, 0.0, 0.0, 1.740143905664785E9, 0.0, 2025-02-21 10:18:25.664
152.0, -66004.6343212884, 134068.6466179665, -181750.1031458501, 134217.9786226724, -187500.02235174447, 134190.7765496703, 134190.68714269248, -187500.02235174447, 0.046, 0.916, 0.35000000000000003, 192.0, 0.0, 0.0, 0.0, 0.0, 0.0, 0.0, 0.0, 0.0, 0.0, 1.7401439056648037E9, 0.0, 2025-02-21 10:18:25.664
153.0, -67990.58681614243, 134054.16268755947, -181762.08368087813, 134204.1205411101, -187500.02235174447, 134176.7620058968, 134176.80670938574, -187500.02235174447, 0.046, 0.916, 0.35000000000000003, 192.0, 0.0, 0.0, 0.0, 0.0, 0.0, 0.0, 0.0, 0.0, 0.0, 1.7401439056648235E9, 0.0, 2025-02-21 10:18:25.664
154.0, -72411.91833161334, 134048.17242004545, -181972.43594794703, 134199.31491605222, -187500.02235174447, 134172.04578781675, 134172.00108432784, -187500.02235174447, 0.046, 0.916, 0.35000000000000003, 192.0, 0.0, 0.0, 0.0, 0.0, 0.0, 0.0, 0.0, 0.0, 0.0, 1.7401439056648424E9, 0.0, 2025-02-21 10:18:25.664
155.0, -71796.44069629202, 134041.8915798535, -181973.33001772524, 134192.81055841572, -187500.02235174447, 134165.65318890254, 134165.45202320244, -187500.02235174447, 0.046, 0.916, 0.35000000000000003, 192.0, 0.0, 0.0, 0.0, 0.0, 0.0, 0.0, 0.0, 0.0, 0.0, 1.7401439056648612E9, 0.0, 2025-02-21 10:18:25.664
156.0, -68397.18739952892, 134030.87216983704, -181768.67744549245, 134180.83002338768, -187500.02235174447, 134153.7173573634, 134153.62795038556, -187500.02235174447, 0.046, 0.916, 0.35000000000000003, 192.0, 0.0, 0.0, 0.0, 0.0, 0.0, 0.0, 0.0, 0.0, 0.0, 1.74014390566488E9, 0.0, 2025-02-21 10:18:25.664
157.0, -69315.77704140867, 134019.89746330946, -181728.86898861756, 134170.21294477143, -187500.02235174447, 134143.0108717693, 134142.87676130258, -187500.02235174447, 0.046, 0.916, 0.35000000000000003, 192.0, 0.0, 0.0, 0.0, 0.0, 0.0, 0.0, 0.0, 0.0, 0.0, 1.7401439056648989E9, 0.0, 2025-02-21 10:18:25.664
158.0, -73942.94577156851, 134011.0908759941, -181932.1357526941, 134162.92627607897, -187500.02235174447, 134135.52303737678, 134135.38892691003, -187500.02235174447, 0.05, 0.918, 0.35000000000000003, 192.0, 1.0, 144.0, 28.0, 176.0, 10.0, 240.0, 0.0, 0.0, 0.0, 1.7401439056649275E9, 0.0, 2025-02-21 10:18:25.664
159.0, -74412.19829466323, 134004.1394834685, -181987.05398882081, 134155.95253180893, -187500.02235174447, 134128.68340357346, 134128.4598861289, -187500.02235174447, 0.05, 0.918, 0.35000000000000003, 192.0, 0.0, 0.0, 0.0, 0.0, 0.0, 0.0, 0.0, 0.0, 0.0, 1.7401439056649477E9, 0.0, 2025-02-21 10:18:25.664
160.0, -70921.1463834222, 133993.2318321743, -181792.14677717054, 134143.99434852533, -187500.02235174447, 134116.7922755232, 134116.59110982314, -187500.02235174447, 0.05, 0.918, 0.35000000000000003, 192.0, 0.0, 0.0, 0.0, 0.0, 0.0, 0.0, 0.0, 0.0, 0.0, 1.7401439056649673E9, 0.0, 2025-02-21 10:18:25.664
161.0, -70785.06896317827, 133977.9655907113, -181697.01775276873, 134128.8175140402, -187500.02235174447, 134101.61544103807, 134101.39192359353, -187500.02235174447, 0.05, 0.918, 0.35000000000000003, 192.0, 0.0, 0.0, 0.0, 0.0, 0.0, 0.0, 0.0, 0.0, 0.0, 1.7401439056649857E9, 0.0, 2025-02-21 10:18:25.664
162.0, -75326.49640160757, 133969.4719278183, -181882.09019685868, 134121.62025232558, -187500.02235174447, 134094.3511240901, 134094.10525490108, -187500.02235174447, 0.05, 0.918, 0.35000000000000003, 192.0, 0.0, 0.0, 0.0, 0.0, 0.0, 0.0, 0.0, 0.0, 0.0, 1.7401439056651528E9, 0.0, 2025-02-21 10:18:25.665
163.0, -76857.9932281963, 133964.59924752705, -181989.40092198862, 134117.1499034345, -187500.02235174447, 134089.88077519904, 134089.65725775447, -187500.02235174447, 0.05, 0.918, 0.35000000000000003, 192.0, 0.0, 0.0, 0.0, 0.0, 0.0, 0.0, 0.0, 0.0, 0.0, 1.740143905665172E9, 0.0, 2025-02-21 10:18:25.665
164.0, -73553.64543839043, 133955.03270090016, -181818.67829783898, 134106.62223179606, -187500.02235174447, 134079.3978070495, 134079.08488262712, -187500.02235174447, 0.05, 0.918, 0.35000000000000003, 192.0, 0.0, 0.0, 0.0, 0.0, 0.0, 0.0, 0.0, 0.0, 0.0, 1.7401439056651917E9, 0.0, 2025-02-21 10:18:25.665
165.0, -72441.60144824999, 133943.63331122795, -181683.27142992872, 134094.95462119038, -187500.02235174447, 134067.640789466, 134067.41727202144, -187500.02235174447, 0.05, 0.918, 0.35000000000000003, 192.0, 0.0, 0.0, 0.0, 0.0, 0.0, 0.0, 0.0, 0.0, 0.0, 1.7401439056652105E9, 0.0, 2025-02-21 10:18:25.665
166.0, -76642.1424319914, 133934.78202042365, -181838.28077772626, 134087.42208330895, -187500.02235174447, 134059.97414111783, 134059.81767890666, -187500.02235174447, 0.05, 0.918, 0.35000000000000003, 192.0, 0.0, 0.0, 0.0, 0.0, 0.0, 0.0, 0.0, 0.0, 0.0, 1.740143905665229E9, 0.0, 2025-02-21 10:18:25.665
167.0, -79097.59331912916, 133929.3058430321, -181986.11521555367, 134082.48234778433, -187500.02235174447, 134055.16851605996, 134054.9897021043, -187500.02235174447, 0.05, 0.918, 0.35000000000000003, 192.0, 0.0, 0.0, 0.0, 0.0, 0.0, 0.0, 0.0, 0.0, 0.0, 1.7401439056652477E9, 0.0, 2025-02-21 10:18:25.665
168.0, -76227.76344153445, 133920.4098487389, -181849.03196680927, 134072.82639417963, -187500.02235174447, 134045.4902107108, 134045.2890450107, -187500.02235174447, 0.052000000000000005, 0.914, 0.34600000000000003, 192.0, 1.0, 160.0, 28.0, 144.0, 10.0, 208.0, 0.0, 0.0, 0.0, 1.7401439056652694E9, 0.0, 2025-02-21 10:18:25.665
169.0, -74284.59218556789, 133906.5070636877, -181676.1859269364, 134058.4318707504, -187500.02235174447, 134031.09568728157, 134030.93922507038, -187500.02235174447, 0.052000000000000005, 0.914, 0.34600000000000003, 192.0, 0.0, 0.0, 0.0, 0.0, 0.0, 0.0, 0.0, 0.0, 0.0, 1.7401439056652896E9, 0.0, 2025-02-21 10:18:25.665
170.0, -77860.9830571393, 133894.48182517075, -181785.64241953404, 134047.3901089895, -187500.02235174447, 134020.07627726512, 134019.89746330946, -187500.02235174447, 0.052000000000000005, 0.914, 0.34600000000000003, 192.0, 0.0, 0.0, 0.0, 0.0, 0.0, 0.0, 0.0, 0.0, 0.0, 1.740143905665308E9, 0.0, 2025-02-21 10:18:25.665
171.0, -81154.37849216205, 133888.58096463454, -181966.98212229993, 134042.36096648706, -187500.02235174447, 134015.20359697385, 134014.9800795293, -187500.02235174447, 0.052000000000000005, 0.914, 0.34600000000000003, 192.0, 0.0, 0.0, 0.0, 0.0, 0.0, 0.0, 0.0, 0.0, 0.0, 1.7401439056653268E9, 0.0, 2025-02-21 10:18:25.665
172.0, -78941.3322736421, 133880.53433663063, -181873.48477524339, 134033.64378614948, -187500.02235174447, 134006.39700965845, 134006.2405474473, -187500.02235174447, 0.052000000000000005, 0.914, 0.34600000000000003, 192.0, 0.0, 0.0, 0.0, 0.0, 0.0, 0.0, 0.0, 0.0, 0.0, 1.7401439056653454E9, 0.0, 2025-02-21 10:18:25.665
173.0, -76345.28891388046, 133869.53727835862, -181680.45511012737, 134021.97617554382, -187500.02235174447, 133994.75175079724, 133994.5282333527, -187500.02235174447, 0.052000000000000005, 0.914, 0.34600000000000003, 192.0, 0.0, 0.0, 0.0, 0.0, 0.0, 0.0, 0.0, 0.0, 0.0, 1.7401439056653757E9, 0.0, 2025-02-21 10:18:25.665
174.0, -79082.17061545499, 133856.12623168543, -181737.51911372176, 134009.3921434155, -187500.02235174447, 133982.14536692447, 133981.85479424655, -187500.02235174447, 0.052000000000000005, 0.914, 0.34600000000000003, 192.0, 0.0, 0.0, 0.0, 0.0, 0.0, 0.0, 0.0, 0.0, 0.0, 1.7401439056653953E9, 0.0, 2025-02-21 10:18:25.665
175.0, -83011.56258720906, 133848.41487984837, -181938.17072369705, 134002.9771927568, -187500.02235174447, 133975.59630579906, 133975.4174918434, -187500.02235174447, 0.052000000000000005, 0.914, 0.34600000000000003, 192.0, 0.0, 0.0, 0.0, 0.0, 0.0, 0.0, 0.0, 0.0, 0.0, 1.7401439056654148E9, 0.0, 2025-02-21 10:18:25.665
176.0, -81641.04302418746, 133844.4362693353, -181898.85400520015, 133998.4397886324, -187500.02235174447, 133971.05890167464, 133970.9694946968, -187500.02235174447, 0.052000000000000005, 0.914, 0.34600000000000003, 192.0, 0.0, 0.0, 0.0, 0.0, 0.0, 0.0, 0.0, 0.0, 0.0, 1.7401439056654344E9, 0.0, 2025-02-21 10:18:25.665
177.0, -78592.95798456168, 133832.61219651846, -181694.3355434341, 133985.69929429286, -187500.02235174447, 133958.43016605737, 133958.31840733511, -187500.02235174447, 0.052000000000000005, 0.914, 0.34600000000000003, 192.0, 0.0, 0.0, 0.0, 0.0, 0.0, 0.0, 0.0, 0.0, 0.0, 1.7401439056654613E9, 0.0, 2025-02-21 10:18:25.665
178.0, -80355.48244184048, 133820.27403357913, -181697.71065684684, 133973.89757322046, -187500.02235174447, 133946.65079672943, 133946.42727928486, -187500.02235174447, 0.046, 0.916, 0.352, 192.0, 1.0, 112.0, 28.0, 160.0, 11.0, 0.0, 0.0, 0.0, 0.0, 1.74014390566548E9, 0.0, 2025-02-21 10:18:25.665
179.0, -84673.39243571668, 133814.6860974653, -181907.5935372822, 133969.6730935184, -187500.02235174447, 133942.33691004955, 133942.0686891161, -187500.02235174447, 0.046, 0.916, 0.352, 192.0, 0.0, 0.0, 0.0, 0.0, 0.0, 0.0, 0.0, 0.0, 0.0, 1.7401439056655004E9, 0.0, 2025-02-21 10:18:25.665
180.0, -84262.96970402834, 133808.06998110653, -181918.76940950984, 133963.01227367073, -187500.02235174447, 133935.65373845742, 133935.4749245018, -187500.02235174447, 0.046, 0.916, 0.352, 192.0, 0.0, 0.0, 0.0, 0.0, 0.0, 0.0, 0.0, 0.0, 0.0, 1.7401439056655197E9, 0.0, 2025-02-21 10:18:25.665
181.0, -80976.615068509, 133795.2847832781, -181713.87096808804, 133949.2659508307, -187500.02235174447, 133921.99682259522, 133921.72860166177, -187500.02235174447, 0.046, 0.916, 0.352, 192.0, 0.0, 0.0, 0.0, 0.0, 0.0, 0.0, 0.0, 0.0, 0.0, 1.7401439056655383E9, 0.0, 2025-02-21 10:18:25.665
182.0, -81723.25274029408, 133782.70075114976, -181662.86428724104, 133936.90543614692, -187500.02235174447, 133909.63630791145, 133909.32338348907, -187500.02235174447, 0.046, 0.916, 0.352, 192.0, 0.0, 0.0, 0.0, 0.0, 0.0, 0.0, 0.0, 0.0, 0.0, 1.7401439056655571E9, 0.0, 2025-02-21 10:18:25.665
183.0, -86183.74451205069, 133776.08463479098, -181865.39344375057, 133931.63042445548, -187500.02235174447, 133904.36129621998, 133904.07072354207, -187500.02235174447, 0.046, 0.916, 0.352, 192.0, 0.0, 0.0, 0.0, 0.0, 0.0, 0.0, 0.0, 0.0, 0.0, 1.7401439056655755E9, 0.0, 2025-02-21 10:18:25.665
184.0, -86773.20471682605, 133771.9719138112, -181930.8393515157, 133927.67416568688, -187500.02235174447, 133900.31563047357, 133900.11446477348, -187500.02235174447, 0.046, 0.916, 0.352, 192.0, 0.0, 0.0, 0.0, 0.0, 0.0, 0.0, 0.0, 0.0, 0.0, 1.740143905665594E9, 0.0, 2025-02-21 10:18:25.665
185.0, -83479.6528195921, 133763.63471312937, -181743.30821553568, 133918.3087847601, -187500.02235174447, 133891.06200826907, 133890.92789780235, -187500.02235174447, 0.046, 0.916, 0.352, 192.0, 0.0, 0.0, 0.0, 0.0, 0.0, 0.0, 0.0, 0.0, 0.0, 1.7401439056656125E9, 0.0, 2025-02-21 10:18:25.665
186.0, -83244.98185455584, 133749.35194842244, -181641.94305443086, 133903.93661307535, -187500.02235174447, 133876.8462987955, 133876.6004296065, -187500.02235174447, 0.046, 0.916, 0.352, 192.0, 0.0, 0.0, 0.0, 0.0, 0.0, 0.0, 0.0, 0.0, 0.0, 1.7401439056656308E9, 0.0, 2025-02-21 10:18:25.665
187.0, -87556.85687742912, 133736.74556454964, -181817.20308270492, 133892.69368561433, -187500.02235174447, 133865.42455737884, 133865.13398470092, -187500.02235174447, 0.046, 0.916, 0.352, 192.0, 0.0, 0.0, 0.0, 0.0, 0.0, 0.0, 0.0, 0.0, 0.0, 1.7401439056656497E9, 0.0, 2025-02-21 10:18:25.665
188.0, -89130.77731499402, 133729.43654411274, -181927.48658984742, 133885.96581053326, -187500.02235174447, 133858.6966822978, 133858.4061096199, -187500.02235174447, 0.05, 0.93, 0.35000000000000003, 192.0, 1.0, 144.0, 29.0, 16.0, 10.0, 240.0, 0.0, 0.0, 0.0, 1.740143905665676E9, 0.0, 2025-02-21 10:18:25.665
189.0, -86059.15588845681, 133722.64161379833, -181766.1069948801, 133878.12034822945, -187500.02235174447, 133851.05238569409, 133850.6947577828, -187500.02235174447, 0.05, 0.93, 0.35000000000000003, 192.0, 0.0, 0.0, 0.0, 0.0, 0.0, 0.0, 0.0, 0.0, 0.0, 1.740143905665697E9, 0.0, 2025-02-21 10:18:25.665
190.0, -84945.27905527104, 133712.9633084492, -181628.93433915786, 133868.1514702024, -187500.02235174447, 133840.97174894475, 133840.72587975574, -187500.02235174447, 0.05, 0.93, 0.35000000000000003, 192.0, 0.0, 0.0, 0.0, 0.0, 0.0, 0.0, 0.0, 0.0, 0.0, 1.7401439056657155E9, 0.0, 2025-02-21 10:18:25.665
191.0, -88866.19971587654, 133701.83213971046, -181772.67840774995, 133858.2943508976, -187500.02235174447, 133830.91346393985, 133830.77935347313, -187500.02235174447, 0.05, 0.93, 0.35000000000000003, 192.0, 0.0, 0.0, 0.0, 0.0, 0.0, 0.0, 0.0, 0.0, 0.0, 1.740143905665734E9, 0.0, 2025-02-21 10:18:25.665
192.0, -91310.20650985319, 133693.98667740665, -181921.56337756675, 133851.11944092746, -187500.02235174447, 133823.87266443644, 133823.62679524743, -187500.02235174447, 0.05, 0.93, 0.35000000000000003, 192.0, 0.0, 0.0, 0.0, 0.0, 0.0, 0.0, 0.0, 0.0, 0.0, 1.740143905665759E9, 0.0, 2025-02-21 10:18:25.665
193.0, -88681.75312063136, 133685.87299416936, -181793.53258532676, 133842.11168791197, -187500.02235174447, 133815.06607712104, 133814.66374572084, -187500.02235174447, 0.05, 0.93, 0.35000000000000003, 192.0, 0.0, 0.0, 0.0, 0.0, 0.0, 0.0, 0.0, 0.0, 0.0, 1.7401439056657777E9, 0.0, 2025-02-21 10:18:25.665
194.0, -86804.78773174141, 133674.07127309695, -181622.2288158213, 133829.81822846155, -187500.02235174447, 133802.75026592615, 133802.32558278152, -187500.02235174447, 0.05, 0.93, 0.35000000000000003, 192.0, 0.0, 0.0, 0.0, 0.0, 0.0, 0.0, 0.0, 0.0, 0.0, 1.7401439056657963E9, 0.0, 2025-02-21 10:18:25.665
195.0, -90107.12386454629, 133663.16362180279, -181722.72225889235, 133819.89405392337, -187500.02235174447, 133792.75903615463, 133792.33435301, -187500.02235174447, 0.05, 0.93, 0.35000000000000003, 192.0, 0.0, 0.0, 0.0, 0.0, 0.0, 0.0, 0.0, 0.0, 0.0, 1.7401439056658144E9, 0.0, 2025-02-21 10:18:25.665
196.0, -93320.79062709697, 133656.9498368442, -181904.2407756139, 133814.66374572084, -187500.02235174447, 133787.55107969657, 133787.081693063, -187500.02235174447, 0.05, 0.93, 0.35000000000000003, 192.0, 0.0, 0.0, 0.0, 0.0, 0.0, 0.0, 0.0, 0.0, 0.0, 1.7401439056658328E9, 0.0, 2025-02-21 10:18:25.665
197.0, -91337.02860319956, 133649.52905768502, -181820.55584437322, 133806.66182120584, -187500.02235174447, 133779.4150447148, 133779.1244720369, -187500.02235174447, 0.05, 0.93, 0.35000000000000003, 192.0, 0.0, 0.0, 0.0, 0.0, 0.0, 0.0, 0.0, 0.0, 0.0, 1.7401439056658523E9, 0.0, 2025-02-21 10:18:25.665
198.0, -88865.73032924299, 133636.6321011343, -181627.615586235, 133793.04960883257, -187500.02235174447, 133765.89223931936, 133765.6240183859, -187500.02235174447, 0.046, 0.932, 0.358, 192.0, 1.0, 112.0, 29.0, 32.0, 11.0, 48.0, 0.0, 0.0, 0.0, 1.7401439056658716E9, 0.0, 2025-02-21 10:18:25.665
199.0, -91363.98480701266, 133624.69626959518, -181676.54355484768, 133781.7843296271, -187500.02235174447, 133754.69401534725, 133754.40344266934, -187500.02235174447, 0.046, 0.932, 0.358, 192.0, 0.0, 0.0, 0.0, 0.0, 0.0, 0.0, 0.0, 0.0, 0.0, 1.7401439056658928E9, 0.0, 2025-02-21 10:18:25.665
200.0, -95137.27219549086, 133615.91203402425, -181873.14949907656, 133774.25179174566, -187500.02235174447, 133747.04971874354, 133746.71444257672, -187500.02235174447, 0.046, 0.932, 0.358, 192.0, 0.0, 0.0, 0.0, 0.0, 0.0, 0.0, 0.0, 0.0, 0.0, 1.7401439056659122E9, 0.0, 2025-02-21 10:18:25.665
201.0, -93951.98153877039, 133609.85471127686, -181839.75599286033, 133767.79213759807, -187500.02235174447, 133740.63476808486, 133740.27714017357, -187500.02235174447, 0.046, 0.932, 0.358, 192.0, 0.0, 0.0, 0.0, 0.0, 0.0, 0.0, 0.0, 0.0, 0.0, 1.7401439056659305E9, 0.0, 2025-02-21 10:18:25.665
202.0, -91083.42571060965, 133598.41061811574, -181639.5737695186, 133755.43162291427, -187500.02235174447, 133728.38601212334, 133728.02838421208, -187500.02235174447, 0.046, 0.932, 0.358, 192.0, 0.0, 0.0, 0.0, 0.0, 0.0, 0.0, 0.0, 0.0, 0.0, 1.740143905665949E9, 0.0, 2025-02-21 10:18:25.665
203.0, -92669.59490413606, 133586.72065576562, -181635.55045551664, 133744.30045417554, -187500.02235174447, 133717.1654364068, 133716.8078084955, -187500.02235174447, 0.046, 0.932, 0.358, 192.0, 0.0, 0.0, 0.0, 0.0, 0.0, 0.0, 0.0, 0.0, 0.0, 1.7401439056660445E9, 0.0, 2025-02-21 10:18:25.666
204.0, -96782.6958635683, 133580.3727603403, -181839.4207166935, 133739.29366341754, -187500.02235174447, 133712.18099739327, 133711.7563142486, -187500.02235174447, 0.046, 0.932, 0.358, 192.0, 0.0, 0.0, 0.0, 0.0, 0.0, 0.0, 0.0, 0.0, 0.0, 1.7401439056660633E9, 0.0, 2025-02-21 10:18:25.666
0.0, 0.0, 0.0, 0.0, 0.0, 0.0, 0.0, 0.0, 0.0, 0.046, 0.932, 0.358, 192.0, 0.0, 0.0, 0.0, 0.0, 0.0, 0.0, 0.0, 0.0, 0.0, 1.7401439057567587E9, 0.0, 2025-02-21 10:18:25.756
1.0, -142698.923373094, 127359.03291213905, -177216.05178309107, 127514.57870180353, -187500.02235174447, 127490.75174221418, 127501.65939350837, -187500.02235174447, 0.046, 0.934, 0.35000000000000003, 192.0, 1.0, 112.0, 29.0, 48.0, 10.0, 240.0, 0.0, 0.0, 0.0, 1.74014390624269E9, 0.0, 2025-02-21 10:18:26.242
2.0, -142762.40232734708, 127338.06697583997, -177180.24428847365, 127493.59041376, -187500.02235174447, 127469.83050940401, 127481.11814035394, -187500.02235174447, 0.046, 0.934, 0.35000000000000003, 192.0, 0.0, 0.0, 0.0, 0.0, 0.0, 0.0, 0.0, 0.0, 0.0, 1.7401439062427847E9, 0.0, 2025-02-21 10:18:26.242
3.0, -142992.6029434923, 127321.41492622078, -177316.67933662885, 127476.98306762971, -187500.02235174447, 127453.15610804035, 127464.30962852355, -187500.02235174447, 0.046, 0.934, 0.35000000000000003, 192.0, 0.0, 0.0, 0.0, 0.0, 0.0, 0.0, 0.0, 0.0, 0.0, 1.740143906242813E9, 0.0, 2025-02-21 10:18:26.242
4.0, -142963.52332395595, 127315.69287964022, -177354.05145335812, 127471.28337279361, -187500.02235174447, 127447.56817192653, 127458.11819530943, -187500.02235174447, 0.046, 0.934, 0.35000000000000003, 192.0, 0.0, 0.0, 0.0, 0.0, 0.0, 0.0, 0.0, 0.0, 0.0, 1.7401439062428331E9, 0.0, 2025-02-21 10:18:26.242
5.0, -142744.78915271632, 127306.10398126888, -177210.8214748885, 127461.71682616674, -187500.02235174447, 127438.00162529966, 127448.66340740483, -187500.02235174447, 0.046, 0.934, 0.35000000000000003, 192.0, 0.0, 0.0, 0.0, 0.0, 0.0, 0.0, 0.0, 0.0, 0.0, 1.740143906242852E9, 0.0, 2025-02-21 10:18:26.242
6.0, -142751.06999290825, 127285.60743160338, -177141.3075496325, 127441.1308695234, -187500.02235174447, 127417.48272388968, 127428.59154088398, -187500.02235174447, 0.046, 0.934, 0.35000000000000003, 192.0, 0.0, 0.0, 0.0, 0.0, 0.0, 0.0, 0.0, 0.0, 0.0, 1.7401439062428703E9, 0.0, 2025-02-21 10:18:26.242
7.0, -142980.3988910197, 127268.2401261616, -177261.89521096888, 127423.85297105944, -187500.02235174447, 127400.11541844791, 127411.15718020883, -187500.02235174447, 0.046, 0.934, 0.35000000000000003, 192.0, 0.0, 0.0, 0.0, 0.0, 0.0, 0.0, 0.0, 0.0, 0.0, 1.740143906242889E9, 0.0, 2025-02-21 10:18:26.242
8.0, -143017.0557519264, 127263.47920459262, -177339.2098950398, 127419.09204949047, -187500.02235174447, 127395.28744164556, 127405.9268720063, -187500.02235174447, 0.042, 0.932, 0.34600000000000003, 192.0, 1.0, 80.0, 29.0, 32.0, 10.0, 208.0, 0.0, 0.0, 0.0, 1.7401439062429078E9, 0.0, 2025-02-21 10:18:26.242
9.0, -142801.4061214216, 127252.77271899853, -177212.96724235622, 127408.25145342965, -187500.02235174447, 127384.60330779593, 127395.0192207121, -187500.02235174447, 0.042, 0.932, 0.34600000000000003, 192.0, 0.0, 0.0, 0.0, 0.0, 0.0, 0.0, 0.0, 0.0, 0.0, 1.7401439062429276E9, 0.0, 2025-02-21 10:18:26.242
10.0, -142748.23132136243, 127233.55021876696, -177112.07146788496, 127389.05130494254, -187500.02235174447, 127365.38080756436, 127376.28845885856, -187500.02235174447, 0.042, 0.932, 0.34600000000000003, 192.0, 0.0, 0.0, 0.0, 0.0, 0.0, 0.0, 0.0, 0.0, 0.0, 1.7401439062429461E9, 0.0, 2025-02-21 10:18:26.242
11.0, -142957.6448151642, 127213.74657317957, -177204.89826260787, 127369.42647331077, -187500.02235174447, 127345.75597593261, 127356.73068246015, -187500.02235174447, 0.042, 0.932, 0.34600000000000003, 192.0, 0.0, 0.0, 0.0, 0.0, 0.0, 0.0, 0.0, 0.0, 0.0, 1.7401439062429647E9, 0.0, 2025-02-21 10:18:26.242
12.0, -143050.9186447762, 127204.24708178606, -177310.73377260374, 127360.03874063955, -187500.02235174447, 127336.36824326137, 127346.71710094418, -187500.02235174447, 0.042, 0.932, 0.34600000000000003, 192.0, 0.0, 0.0, 0.0, 0.0, 0.0, 0.0, 0.0, 0.0, 0.0, 1.7401439062429836E9, 0.0, 2025-02-21 10:18:26.242
13.0, -142855.720860448, 127195.19462528166, -177212.29669002257, 127350.82982192397, -187500.02235174447, 127327.2487315236, 127337.39642350632, -187500.02235174447, 0.042, 0.932, 0.34600000000000003, 192.0, 0.0, 0.0, 0.0, 0.0, 0.0, 0.0, 0.0, 0.0, 0.0, 1.7401439062430143E9, 0.0, 2025-02-21 10:18:26.243
14.0, -142748.946577185, 127176.35210470583, -177085.8528716389, 127331.96494960367, -187500.02235174447, 127308.31680396997, 127318.86682735287, -187500.02235174447, 0.042, 0.932, 0.34600000000000003, 192.0, 0.0, 0.0, 0.0, 0.0, 0.0, 0.0, 0.0, 0.0, 0.0, 1.7401439062430334E9, 0.0, 2025-02-21 10:18:26.243
15.0, -142925.81593105983, 127157.12960447426, -177145.8673055014, 127312.78715286103, -187500.02235174447, 127289.1390072273, 127299.91254805477, -187500.02235174447, 0.042, 0.932, 0.34600000000000003, 192.0, 0.0, 0.0, 0.0, 0.0, 0.0, 0.0, 0.0, 0.0, 0.0, 1.7401439062430525E9, 0.0, 2025-02-21 10:18:26.243
16.0, -143073.6280171428, 127146.5572293469, -177276.2003274203, 127302.32653645595, -187500.02235174447, 127278.70074256668, 127289.00489676058, -187500.02235174447, 0.042, 0.932, 0.34600000000000003, 192.0, 0.0, 0.0, 0.0, 0.0, 0.0, 0.0, 0.0, 0.0, 0.0, 1.740143906243071E9, 0.0, 2025-02-21 10:18:26.243
17.0, -142919.31157342336, 127141.84101126684, -177217.39288775838, 127297.45385616469, -187500.02235174447, 127273.82806227542, 127283.8416437914, -187500.02235174447, 0.042, 0.932, 0.34600000000000003, 192.0, 0.0, 0.0, 0.0, 0.0, 0.0, 0.0, 0.0, 0.0, 0.0, 1.7401439062430975E9, 0.0, 2025-02-21 10:18:26.243
18.0, -142768.3925948611, 127126.86534248177, -177076.08515931192, 127282.25466993508, -187500.02235174447, 127258.60652430136, 127268.95538198417, -187500.02235174447, 0.048, 0.928, 0.34800000000000003, 192.0, 1.0, 128.0, 29.0, 0.0, 10.0, 224.0, 0.0, 0.0, 0.0, 1.7401439062431161E9, 0.0, 2025-02-21 10:18:26.243
19.0, -142895.976352212, 127104.64770849321, -177094.88297639883, 127260.21584990215, -187500.02235174447, 127236.59005601288, 127247.27418986252, -187500.02235174447, 0.048, 0.928, 0.34800000000000003, 192.0, 0.0, 0.0, 0.0, 0.0, 0.0, 0.0, 0.0, 0.0, 0.0, 1.740143906243136E9, 0.0, 2025-02-21 10:18:26.243
20.0, -143083.75335738104, 127090.65551646419, -177236.2354083342, 127246.44717531768, -187500.02235174447, 127222.79902968396, 127233.14788736677, -187500.02235174447, 0.048, 0.928, 0.34800000000000003, 192.0, 0.0, 0.0, 0.0, 0.0, 0.0, 0.0, 0.0, 0.0, 0.0, 1.7401439062431545E9, 0.0, 2025-02-21 10:18:26.243
21.0, -142982.87993465425, 127087.25805130698, -177220.74564942668, 127242.96030318264, -187500.02235174447, 127219.33450929339, 127229.2363320871, -187500.02235174447, 0.048, 0.928, 0.34800000000000003, 192.0, 0.0, 0.0, 0.0, 0.0, 0.0, 0.0, 0.0, 0.0, 0.0, 1.7401439062431734E9, 0.0, 2025-02-21 10:18:26.243
22.0, -142794.99117076292, 127072.88587962222, -177070.76544413157, 127228.40931754225, -187500.02235174447, 127204.80587539743, 127214.90886389124, -187500.02235174447, 0.048, 0.928, 0.34800000000000003, 192.0, 0.0, 0.0, 0.0, 0.0, 0.0, 0.0, 0.0, 0.0, 0.0, 1.7401439062431922E9, 0.0, 2025-02-21 10:18:26.243
23.0, -142865.2650553304, 127049.57301015533, -177047.47492640914, 127205.18585505318, -187500.02235174447, 127181.67181988619, 127192.13243629129, -187500.02235174447, 0.048, 0.928, 0.34800000000000003, 192.0, 0.0, 0.0, 0.0, 0.0, 0.0, 0.0, 0.0, 0.0, 0.0, 1.7401439062432108E9, 0.0, 2025-02-21 10:18:26.243
24.0, -143078.54540092294, 127033.77032682543, -177188.76030311114, 127189.69609614565, -187500.02235174447, 127166.15970923421, 127176.28504947247, -187500.02235174447, 0.048, 0.928, 0.34800000000000003, 192.0, 0.0, 0.0, 0.0, 0.0, 0.0, 0.0, 0.0, 0.0, 0.0, 1.740143906243229E9, 0.0, 2025-02-21 10:18:26.243
25.0, -143035.71945854658, 127028.54001862288, -177214.95654761273, 127184.33167747638, -187500.02235174447, 127160.77293882049, 127170.49594765854, -187500.02235174447, 0.048, 0.928, 0.34800000000000003, 192.0, 0.0, 0.0, 0.0, 0.0, 0.0, 0.0, 0.0, 0.0, 0.0, 1.7401439062432468E9, 0.0, 2025-02-21 10:18:26.243
26.0, -142829.56931943528, 127017.61001558424, -177070.60898192038, 127173.20050873763, -187500.02235174447, 127149.68647357065, 127159.6106481088, -187500.02235174447, 0.048, 0.928, 0.34800000000000003, 192.0, 0.0, 0.0, 0.0, 0.0, 0.0, 0.0, 0.0, 0.0, 0.0, 1.7401439062432652E9, 0.0, 2025-02-21 10:18:26.243
27.0, -142842.5556829638, 126996.86759672972, -177010.50514108004, 127152.4580898831, -187500.02235174447, 127128.8546477383, 127139.35996763229, -187500.02235174447, 0.048, 0.928, 0.34800000000000003, 192.0, 0.0, 0.0, 0.0, 0.0, 0.0, 0.0, 0.0, 0.0, 0.0, 1.7401439062432835E9, 0.0, 2025-02-21 10:18:26.243
28.0, -143061.69218560366, 126979.54499477685, -177138.37947110887, 127135.3590053748, -187500.02235174447, 127111.84497020782, 127122.08206916835, -187500.02235174447, 0.05, 0.922, 0.35000000000000003, 192.0, 1.0, 144.0, 28.0, 208.0, 10.0, 240.0, 0.0, 0.0, 0.0, 1.7401439062433107E9, 0.0, 2025-02-21 10:18:26.243
29.0, -143079.95356082363, 126971.65482898413, -177204.00419282966, 127127.46883958207, -187500.02235174447, 127103.95480441509, 127113.6554615087, -187500.02235174447, 0.05, 0.922, 0.35000000000000003, 192.0, 0.0, 0.0, 0.0, 0.0, 0.0, 0.0, 0.0, 0.0, 0.0, 1.7401439062433307E9, 0.0, 2025-02-21 10:18:26.243
30.0, -142872.2835030894, 126963.33998004676, -177075.97340058963, 127119.06458366688, -187500.02235174447, 127095.5505484999, 127105.27355733796, -187500.02235174447, 0.05, 0.922, 0.35000000000000003, 192.0, 0.0, 0.0, 0.0, 0.0, 0.0, 0.0, 0.0, 0.0, 0.0, 1.7401439062433496E9, 0.0, 2025-02-21 10:18:26.243
31.0, -142827.75882813442, 126943.29046527034, -176981.53728026597, 127098.88095842373, -187500.02235174447, 127075.41162674567, 127085.60402221729, -187500.02235174447, 0.05, 0.922, 0.35000000000000003, 192.0, 0.0, 0.0, 0.0, 0.0, 0.0, 0.0, 0.0, 0.0, 0.0, 1.7401439062433689E9, 0.0, 2025-02-21 10:18:26.243
32.0, -143034.53481609045, 126925.47612493947, -177085.13761581632, 127081.42424600414, -187500.02235174447, 127057.86550734825, 127068.05790281987, -187500.02235174447, 0.05, 0.922, 0.35000000000000003, 192.0, 0.0, 0.0, 0.0, 0.0, 0.0, 0.0, 0.0, 0.0, 0.0, 1.7401439062433953E9, 0.0, 2025-02-21 10:18:26.243
33.0, -143113.99526762907, 126917.4071451911, -177186.50277692114, 127073.35526625578, -187500.02235174447, 127049.90828632216, 127059.47483294902, -187500.02235174447, 0.05, 0.922, 0.35000000000000003, 192.0, 0.0, 0.0, 0.0, 0.0, 0.0, 0.0, 0.0, 0.0, 0.0, 1.7401439062434146E9, 0.0, 2025-02-21 10:18:26.243
34.0, -142919.84801529028, 126909.31581369828, -177082.7906826485, 127065.06276906286, -187500.02235174447, 127041.57108564033, 127051.0929287783, -187500.02235174447, 0.05, 0.922, 0.35000000000000003, 192.0, 0.0, 0.0, 0.0, 0.0, 0.0, 0.0, 0.0, 0.0, 0.0, 1.7401439062434337E9, 0.0, 2025-02-21 10:18:26.243
35.0, -142822.61792690968, 126890.29447916681, -176961.018378856, 127045.86262057575, -187500.02235174447, 127022.41564064214, 127032.42922215811, -187500.02235174447, 0.05, 0.922, 0.35000000000000003, 192.0, 0.0, 0.0, 0.0, 0.0, 0.0, 0.0, 0.0, 0.0, 0.0, 1.7401439062434523E9, 0.0, 2025-02-21 10:18:26.243
36.0, -143001.8565656968, 126872.50249058039, -177032.00751924605, 127028.27179768942, -187500.02235174447, 127004.84716950027, 127014.90545450515, -187500.02235174447, 0.05, 0.922, 0.35000000000000003, 192.0, 0.0, 0.0, 0.0, 0.0, 0.0, 0.0, 0.0, 0.0, 0.0, 1.7401439062434716E9, 0.0, 2025-02-21 10:18:26.243
37.0, -143136.0787911509, 126864.05353117628, -177160.8653260309, 127020.00165224096, -187500.02235174447, 126996.48761707397, 127006.09886718976, -187500.02235174447, 0.05, 0.922, 0.35000000000000003, 192.0, 0.0, 0.0, 0.0, 0.0, 0.0, 0.0, 0.0, 0.0, 0.0, 1.7401439062434895E9, 0.0, 2025-02-21 10:18:26.243
38.0, -142970.36295775927, 126854.46463280496, -177088.93741237372, 127010.2786434029, -187500.02235174447, 126986.719904747, 126996.12998916268, -187500.02235174447, 0.056, 0.924, 0.354, 192.0, 1.0, 192.0, 28.0, 224.0, 11.0, 16.0, 0.0, 0.0, 0.0, 1.7401439062435083E9, 0.0, 2025-02-21 10:18:26.243
39.0, -142829.43520896856, 126839.5336675088, -176950.7142246621, 126995.16886415111, -187500.02235174447, 126971.63247723968, 126981.51194828891, -187500.02235174447, 0.056, 0.924, 0.354, 192.0, 0.0, 0.0, 0.0, 0.0, 0.0, 0.0, 0.0, 0.0, 0.0, 1.7401439062435288E9, 0.0, 2025-02-21 10:18:26.243
40.0, -142964.93148385664, 126818.41126899855, -176980.33028606538, 126974.20292785203, -187500.02235174447, 126950.6665409406, 126960.68012245657, -187500.02235174447, 0.056, 0.924, 0.354, 192.0, 0.0, 0.0, 0.0, 0.0, 0.0, 0.0, 0.0, 0.0, 0.0, 1.7401439062435484E9, 0.0, 2025-02-21 10:18:26.243
41.0, -143141.1973406312, 126806.8777688596, -177123.31439534598, 126962.84824166873, -187500.02235174447, 126939.37890999067, 126948.94545661754, -187500.02235174447, 0.056, 0.924, 0.354, 192.0, 0.0, 0.0, 0.0, 0.0, 0.0, 0.0, 0.0, 0.0, 0.0, 1.7401439062435672E9, 0.0, 2025-02-21 10:18:26.243
42.0, -143021.07906592835, 126799.70285888945, -177092.9607263757, 126955.53922123185, -187500.02235174447, 126932.11459304269, 126941.36821524719, -187500.02235174447, 0.056, 0.924, 0.354, 192.0, 0.0, 0.0, 0.0, 0.0, 0.0, 0.0, 0.0, 0.0, 0.0, 1.7401439062435863E9, 0.0, 2025-02-21 10:18:26.243
43.0, -142841.5051509744, 126784.66013487102, -176942.7123001471, 126940.34003500224, -187500.02235174447, 126916.91540681309, 126926.52665692887, -187500.02235174447, 0.056, 0.924, 0.354, 192.0, 0.0, 0.0, 0.0, 0.0, 0.0, 0.0, 0.0, 0.0, 0.0, 1.740143906243615E9, 0.0, 2025-02-21 10:18:26.243
44.0, -142928.9451752836, 126764.14123346106, -176933.4139744537, 126919.93289231455, -187500.02235174447, 126896.46356063648, 126906.41008691909, -187500.02235174447, 0.056, 0.924, 0.354, 192.0, 0.0, 0.0, 0.0, 0.0, 0.0, 0.0, 0.0, 0.0, 0.0, 1.740143906243634E9, 0.0, 2025-02-21 10:18:26.243
45.0, -143135.3411835839, 126751.35603563262, -177080.9578396032, 126907.23710146394, -187500.02235174447, 126883.87952850814, 126893.37901990165, -187500.02235174447, 0.056, 0.924, 0.354, 192.0, 0.0, 0.0, 0.0, 0.0, 0.0, 0.0, 0.0, 0.0, 0.0, 1.7401439062436533E9, 0.0, 2025-02-21 10:18:26.243
46.0, -143066.29664496143, 126744.87402974059, -177091.5972699639, 126900.66568859408, -187500.02235174447, 126877.30811563828, 126886.42762737605, -187500.02235174447, 0.056, 0.924, 0.354, 192.0, 0.0, 0.0, 0.0, 0.0, 0.0, 0.0, 0.0, 0.0, 0.0, 1.7401439062436724E9, 0.0, 2025-02-21 10:18:26.243
47.0, -142863.94630240754, 126732.80408773472, -176942.64524491373, 126888.46163612147, -187500.02235174447, 126865.05935967677, 126874.40238885909, -187500.02235174447, 0.056, 0.924, 0.354, 192.0, 0.0, 0.0, 0.0, 0.0, 0.0, 0.0, 0.0, 0.0, 0.0, 1.740143906243699E9, 0.0, 2025-02-21 10:18:26.243
48.0, -142899.19500341357, 126712.35224155811, -176895.14778794622, 126867.98743820042, -187500.02235174447, 126844.65221698908, 126854.4422810605, -187500.02235174447, 0.054, 0.924, 0.356, 192.0, 1.0, 176.0, 28.0, 224.0, 11.0, 32.0, 0.0, 0.0, 0.0, 1.740143906243718E9, 0.0, 2025-02-21 10:18:26.243
49.0, -143116.25279381906, 126695.38726751653, -177031.2922634235, 126851.26833334785, -187500.02235174447, 126827.95546388096, 126837.49965876338, -187500.02235174447, 0.054, 0.924, 0.356, 192.0, 0.0, 0.0, 0.0, 0.0, 0.0, 0.0, 0.0, 0.0, 0.0, 1.7401439062437387E9, 0.0, 2025-02-21 10:18:26.243
50.0, -143105.30043903596, 126690.80515990319, -177083.9529733602, 126846.79798445679, -187500.02235174447, 126823.37335626762, 126832.40346102757, -187500.02235174447, 0.054, 0.924, 0.356, 192.0, 0.0, 0.0, 0.0, 0.0, 0.0, 0.0, 0.0, 0.0, 0.0, 1.7401439062437596E9, 0.0, 2025-02-21 10:18:26.243
51.0, -142891.79657599886, 126679.83045337565, -176944.70160540362, 126835.4880017624, -187500.02235174447, 126812.10807706215, 126821.36169926665, -187500.02235174447, 0.054, 0.924, 0.356, 192.0, 0.0, 0.0, 0.0, 0.0, 0.0, 0.0, 0.0, 0.0, 0.0, 1.7401439062437787E9, 0.0, 2025-02-21 10:18:26.243
52.0, -142874.1834013681, 126660.27267697724, -176863.0953863973, 126815.930225364, -187500.02235174447, 126792.59500415267, 126802.29566124627, -187500.02235174447, 0.054, 0.924, 0.356, 192.0, 0.0, 0.0, 0.0, 0.0, 0.0, 0.0, 0.0, 0.0, 0.0, 1.7401439062437973E9, 0.0, 2025-02-21 10:18:26.243
53.0, -143092.67170341872, 126644.40293841397, -176982.99014365557, 126800.39576296757, -187500.02235174447, 126777.03819001176, 126786.51532966082, -187500.02235174447, 0.054, 0.924, 0.356, 192.0, 0.0, 0.0, 0.0, 0.0, 0.0, 0.0, 0.0, 0.0, 0.0, 1.7401439062438164E9, 0.0, 2025-02-21 10:18:26.243
54.0, -143135.788218473, 126635.95397900988, -177068.284400497, 126791.94680356346, -187500.02235174447, 126768.61158235212, 126777.66403885651, -187500.02235174447, 0.054, 0.924, 0.356, 192.0, 0.0, 0.0, 0.0, 0.0, 0.0, 0.0, 0.0, 0.0, 0.0, 1.7401439062438347E9, 0.0, 2025-02-21 10:18:26.243
55.0, -142924.1395502257, 126624.59929282658, -176946.80266938242, 126780.34624819116, -187500.02235174447, 126757.10043395763, 126766.13053871758, -187500.02235174447, 0.054, 0.924, 0.356, 192.0, 0.0, 0.0, 0.0, 0.0, 0.0, 0.0, 0.0, 0.0, 0.0, 1.740143906243853E9, 0.0, 2025-02-21 10:18:26.243
56.0, -142854.60327322522, 126605.15327515046, -176835.98272037302, 126760.85552702613, -187500.02235174447, 126737.69911977043, 126747.10920418611, -187500.02235174447, 0.054, 0.924, 0.356, 192.0, 0.0, 0.0, 0.0, 0.0, 0.0, 0.0, 0.0, 0.0, 0.0, 1.7401439062438715E9, 0.0, 2025-02-21 10:18:26.243
57.0, -143054.2714064445, 126587.11541737503, -176925.83673308336, 126742.95177971743, -187500.02235174447, 126719.75066897282, 126729.18310513296, -187500.02235174447, 0.054, 0.924, 0.356, 192.0, 0.0, 0.0, 0.0, 0.0, 0.0, 0.0, 0.0, 0.0, 0.0, 1.7401439062438896E9, 0.0, 2025-02-21 10:18:26.243
58.0, -143152.2391023921, 126578.39823703746, -177040.72469958363, 126734.36870984659, -187500.02235174447, 126711.0558403797, 126719.95183467292, -187500.02235174447, 0.056, 0.926, 0.35000000000000003, 192.0, 1.0, 192.0, 28.0, 240.0, 10.0, 240.0, 0.0, 0.0, 0.0, 1.740143906243915E9, 0.0, 2025-02-21 10:18:26.243
59.0, -142957.73422214203, 126568.5187659882, -176946.8250211269, 126724.39983181952, -187500.02235174447, 126701.08696235264, 126709.98295664585, -187500.02235174447, 0.056, 0.926, 0.35000000000000003, 192.0, 0.0, 0.0, 0.0, 0.0, 0.0, 0.0, 0.0, 0.0, 0.0, 1.740143906243935E9, 0.0, 2025-02-21 10:18:26.243
60.0, -142841.48279922997, 126551.79966113564, -176814.9944323295, 126707.59131998914, -187500.02235174447, 126684.27845052225, 126693.57677621566, -187500.02235174447, 0.056, 0.926, 0.35000000000000003, 192.0, 0.0, 0.0, 0.0, 0.0, 0.0, 0.0, 0.0, 0.0, 0.0, 1.7401439062439532E9, 0.0, 2025-02-21 10:18:26.243
61.0, -143012.0042576795, 126533.09125102655, -176871.0526074234, 126689.08407558013, -187500.02235174447, 126665.77120611325, 126675.02482831775, -187500.02235174447, 0.056, 0.926, 0.35000000000000003, 192.0, 0.0, 0.0, 0.0, 0.0, 0.0, 0.0, 0.0, 0.0, 0.0, 1.740143906243971E9, 0.0, 2025-02-21 10:18:26.243
62.0, -143151.76971575854, 126521.58010263207, -177002.10088516487, 126677.59527893011, -187500.02235174447, 126654.34946469658, 126663.20075550089, -187500.02235174447, 0.056, 0.926, 0.35000000000000003, 192.0, 0.0, 0.0, 0.0, 0.0, 0.0, 0.0, 0.0, 0.0, 0.0, 1.7401439062441192E9, 0.0, 2025-02-21 10:18:26.244
63.0, -142980.10831834178, 126514.62871010647, -176938.3090064894, 126670.55447942669, -187500.02235174447, 126647.28631344871, 126655.91408680847, -187500.02235174447, 0.056, 0.926, 0.35000000000000003, 192.0, 0.0, 0.0, 0.0, 0.0, 0.0, 0.0, 0.0, 0.0, 0.0, 1.740143906244139E9, 0.0, 2025-02-21 10:18:26.244
64.0, -142820.76273211988, 126499.07189596558, -176789.8710715617, 126654.93061005243, -187500.02235174447, 126631.66244407445, 126640.71490057885, -187500.02235174447, 0.056, 0.926, 0.35000000000000003, 192.0, 0.0, 0.0, 0.0, 0.0, 0.0, 0.0, 0.0, 0.0, 0.0, 1.740143906244158E9, 0.0, 2025-02-21 10:18:26.244
65.0, -142956.54957968587, 126478.5082910667, -176810.4793799495, 126634.50111562028, -187500.02235174447, 126611.27765313121, 126620.50892359126, -187500.02235174447, 0.056, 0.926, 0.35000000000000003, 192.0, 0.0, 0.0, 0.0, 0.0, 0.0, 0.0, 0.0, 0.0, 0.0, 1.7401439062441769E9, 0.0, 2025-02-21 10:18:26.244
66.0, -143113.43647401768, 126464.98548567123, -176939.78422162347, 126620.97831022482, -187500.02235174447, 126597.7771994802, 126606.5837867956, -187500.02235174447, 0.056, 0.926, 0.35000000000000003, 192.0, 0.0, 0.0, 0.0, 0.0, 0.0, 0.0, 0.0, 0.0, 0.0, 1.7401439062441957E9, 0.0, 2025-02-21 10:18:26.244
67.0, -142950.91694008315, 126458.347017568, -176892.33146814484, 126614.1833799104, -187500.02235174447, 126591.07167614362, 126599.36417333654, -187500.02235174447, 0.056, 0.926, 0.35000000000000003, 192.0, 0.0, 0.0, 0.0, 0.0, 0.0, 0.0, 0.0, 0.0, 0.0, 1.7401439062442143E9, 0.0, 2025-02-21 10:18:26.244
68.0, -142767.5432285718, 126444.846563917, -176740.29490235983, 126600.54881579267, -187500.02235174447, 126577.41476028142, 126585.99783015226, -187500.02235174447, 0.052000000000000005, 0.924, 0.356, 192.0, 1.0, 160.0, 28.0, 224.0, 11.0, 32.0, 0.0, 0.0, 0.0, 1.740143906244233E9, 0.0, 2025-02-21 10:18:26.244
69.0, -142889.80727074234, 126423.72416540673, -176741.8148209828, 126579.56052774913, -187500.02235174447, 126556.38176874898, 126565.41187350893, -187500.02235174447, 0.052000000000000005, 0.924, 0.356, 192.0, 0.0, 0.0, 0.0, 0.0, 0.0, 0.0, 0.0, 0.0, 0.0, 1.740143906244252E9, 0.0, 2025-02-21 10:18:26.244
70.0, -143100.76303491154, 126409.91078733336, -176888.19639542061, 126565.83655665358, -187500.02235174447, 126542.63544590896, 126551.4196814799, -187500.02235174447, 0.052000000000000005, 0.924, 0.356, 192.0, 0.0, 0.0, 0.0, 0.0, 0.0, 0.0, 0.0, 0.0, 0.0, 1.74014390624427E9, 0.0, 2025-02-21 10:18:26.244
71.0, -142991.5524115029, 126401.95356630726, -176881.66968603965, 126557.78992864967, -187500.02235174447, 126534.58881790505, 126542.88131509797, -187500.02235174447, 0.052000000000000005, 0.924, 0.356, 192.0, 0.0, 0.0, 0.0, 0.0, 0.0, 0.0, 0.0, 0.0, 0.0, 1.7401439062442887E9, 0.0, 2025-02-21 10:18:26.244
72.0, -142772.08063269625, 126390.64358361288, -176725.07336438578, 126546.25642851072, -187500.02235174447, 126523.18942823284, 126531.57133240359, -187500.02235174447, 0.052000000000000005, 0.924, 0.356, 192.0, 0.0, 0.0, 0.0, 0.0, 0.0, 0.0, 0.0, 0.0, 0.0, 1.740143906244307E9, 0.0, 2025-02-21 10:18:26.244
73.0, -142836.3642497497, 126369.05179846905, -176686.203680778, 126524.77640208918, -187500.02235174447, 126501.68705006684, 126510.5606926156, -187500.02235174447, 0.052000000000000005, 0.924, 0.356, 192.0, 0.0, 0.0, 0.0, 0.0, 0.0, 0.0, 0.0, 0.0, 0.0, 1.7401439062443333E9, 0.0, 2025-02-21 10:18:26.244
74.0, -143071.70576711962, 126354.61257155093, -176828.40547900266, 126510.62774784896, -187500.02235174447, 126487.47134059327, 126496.21087267529, -187500.02235174447, 0.052000000000000005, 0.924, 0.356, 192.0, 0.0, 0.0, 0.0, 0.0, 0.0, 0.0, 0.0, 0.0, 0.0, 1.7401439062443516E9, 0.0, 2025-02-21 10:18:26.244
75.0, -143024.07419968536, 126349.18109764828, -176864.21297362007, 126505.19627394632, -187500.02235174447, 126481.95045971281, 126490.28766039464, -187500.02235174447, 0.052000000000000005, 0.924, 0.356, 192.0, 0.0, 0.0, 0.0, 0.0, 0.0, 0.0, 0.0, 0.0, 0.0, 1.7401439062443705E9, 0.0, 2025-02-21 10:18:26.244
76.0, -142784.73172005793, 126339.45808881022, -176713.67397471357, 126495.22739591925, -187500.02235174447, 126472.0486369191, 126480.38583760093, -187500.02235174447, 0.052000000000000005, 0.924, 0.356, 192.0, 0.0, 0.0, 0.0, 0.0, 0.0, 0.0, 0.0, 0.0, 0.0, 1.740143906244398E9, 0.0, 2025-02-21 10:18:26.244
77.0, -142792.13014747264, 126320.57086474549, -176641.07550872274, 126476.36252359897, -187500.02235174447, 126453.16141285437, 126461.87859319194, -187500.02235174447, 0.052000000000000005, 0.924, 0.356, 192.0, 0.0, 0.0, 0.0, 0.0, 0.0, 0.0, 0.0, 0.0, 0.0, 1.7401439062444248E9, 0.0, 2025-02-21 10:18:26.244
78.0, -143029.17039742117, 126300.74486741364, -176763.31719914882, 126456.69298847832, -187500.02235174447, 126433.51422947815, 126442.20905807127, -187500.02235174447, 0.056, 0.928, 0.34800000000000003, 192.0, 1.0, 192.0, 29.0, 0.0, 10.0, 224.0, 0.0, 0.0, 0.0, 1.7401439062444437E9, 0.0, 2025-02-21 10:18:26.244
79.0, -143043.02847898347, 126291.9606318427, -176833.61343546075, 126447.7969941851, -187500.02235174447, 126424.68529041832, 126432.77662191114, -187500.02235174447, 0.056, 0.928, 0.34800000000000003, 192.0, 0.0, 0.0, 0.0, 0.0, 0.0, 0.0, 0.0, 0.0, 0.0, 1.7401439062444785E9, 0.0, 2025-02-21 10:18:26.244
80.0, -142797.82984230874, 126282.97523057167, -176697.06662858327, 126438.5433719806, -187500.02235174447, 126415.52107519163, 126423.56770319554, -187500.02235174447, 0.056, 0.928, 0.34800000000000003, 192.0, 0.0, 0.0, 0.0, 0.0, 0.0, 0.0, 0.0, 0.0, 0.0, 1.7401439062444968E9, 0.0, 2025-02-21 10:18:26.244
81.0, -142743.98448991592, 126265.4514629187, -176592.1251883656, 126421.08665956101, -187500.02235174447, 126398.1314180054, 126406.58037740951, -187500.02235174447, 0.056, 0.928, 0.34800000000000003, 192.0, 0.0, 0.0, 0.0, 0.0, 0.0, 0.0, 0.0, 0.0, 0.0, 1.7401439062445154E9, 0.0, 2025-02-21 10:18:26.244
82.0, -142968.88774262523, 126246.00544524258, -176688.88589011264, 126401.90886281835, -187500.02235174447, 126378.90891777384, 126387.44728415577, -187500.02235174447, 0.056, 0.928, 0.34800000000000003, 192.0, 0.0, 0.0, 0.0, 0.0, 0.0, 0.0, 0.0, 0.0, 0.0, 1.740143906244534E9, 0.0, 2025-02-21 10:18:26.244
83.0, -143047.47647613008, 126236.01421547106, -176791.30158320686, 126391.9846882802, -187500.02235174447, 126368.89533625786, 126376.87490902841, -187500.02235174447, 0.056, 0.928, 0.34800000000000003, 192.0, 0.0, 0.0, 0.0, 0.0, 0.0, 0.0, 0.0, 0.0, 0.0, 1.740143906244552E9, 0.0, 2025-02-21 10:18:26.244
84.0, -142815.33125821725, 126226.6935380332, -176678.93936383002, 126382.44049339778, -187500.02235174447, 126359.3734931199, 126367.1742519348, -187500.02235174447, 0.056, 0.928, 0.34800000000000003, 192.0, 0.0, 0.0, 0.0, 0.0, 0.0, 0.0, 0.0, 0.0, 0.0, 1.7401439062445705E9, 0.0, 2025-02-21 10:18:26.244
85.0, -142702.0749690622, 126211.18142738122, -176547.08642328816, 126366.88367925689, -187500.02235174447, 126343.81667897901, 126352.04212093857, -187500.02235174447, 0.056, 0.928, 0.34800000000000003, 192.0, 0.0, 0.0, 0.0, 0.0, 0.0, 0.0, 0.0, 0.0, 0.0, 1.7401439062445889E9, 0.0, 2025-02-21 10:18:26.244
86.0, -142900.93843948108, 126193.45649402816, -176612.95701419795, 126349.40461509283, -187500.02235174447, 126326.29291132605, 126334.6748154968, -187500.02235174447, 0.056, 0.928, 0.34800000000000003, 192.0, 0.0, 0.0, 0.0, 0.0, 0.0, 0.0, 0.0, 0.0, 0.0, 1.7401439062446067E9, 0.0, 2025-02-21 10:18:26.244
87.0, -143042.42498188317, 126184.80636892395, -176743.20062913903, 126340.75448998863, -187500.02235174447, 126317.73219319967, 126325.55530375903, -187500.02235174447, 0.056, 0.928, 0.34800000000000003, 192.0, 0.0, 0.0, 0.0, 0.0, 0.0, 0.0, 0.0, 0.0, 0.0, 1.740143906244625E9, 0.0, 2025-02-21 10:18:26.244
88.0, -142844.4108777536, 126177.36323802033, -176665.7071311125, 126333.11019338491, -187500.02235174447, 126310.11024834041, 126317.64278622184, -187500.02235174447, 0.044, 0.932, 0.356, 192.0, 1.0, 96.0, 29.0, 32.0, 11.0, 32.0, 0.0, 0.0, 0.0, 1.74014390624465E9, 0.0, 2025-02-21 10:18:26.244
89.0, -142677.89038156156, 126160.93470584569, -176512.77649554927, 126316.6146059769, -187500.02235174447, 126293.6593644213, 126301.57188195847, -187500.02235174447, 0.044, 0.932, 0.356, 192.0, 0.0, 0.0, 0.0, 0.0, 0.0, 0.0, 0.0, 0.0, 0.0, 1.7401439062446697E9, 0.0, 2025-02-21 10:18:26.244
90.0, -142832.54210144785, 126140.28169396898, -176539.15155400653, 126296.02864933356, -187500.02235174447, 126273.05105603351, 126281.29884973752, -187500.02235174447, 0.044, 0.932, 0.356, 192.0, 0.0, 0.0, 0.0, 0.0, 0.0, 0.0, 0.0, 0.0, 0.0, 1.740143906244688E9, 0.0, 2025-02-21 10:18:26.244
91.0, -143021.12376941726, 126127.34003392936, -176681.7556836314, 126283.28815499404, -187500.02235174447, 126260.24350646061, 126268.11132050889, -187500.02235174447, 0.044, 0.932, 0.356, 192.0, 0.0, 0.0, 0.0, 0.0, 0.0, 0.0, 0.0, 0.0, 0.0, 1.7401439062447064E9, 0.0, 2025-02-21 10:18:26.244
92.0, -142869.221314099, 126121.48387688208, -176642.99775874589, 126277.25318399111, -187500.02235174447, 126254.2979424355, 126261.76342508358, -187500.02235174447, 0.044, 0.932, 0.356, 192.0, 0.0, 0.0, 0.0, 0.0, 0.0, 0.0, 0.0, 0.0, 0.0, 1.7401439062447312E9, 0.0, 2025-02-21 10:18:26.244
93.0, -142662.60178835414, 126107.33522264186, -176480.94761144492, 126262.9033640508, -187500.02235174447, 126240.08223296193, 126247.70417782119, -187500.02235174447, 0.044, 0.932, 0.356, 192.0, 0.0, 0.0, 0.0, 0.0, 0.0, 0.0, 0.0, 0.0, 0.0, 1.7401439062447493E9, 0.0, 2025-02-21 10:18:26.244
94.0, -142765.86684773766, 126085.8104927314, -176468.4976897833, 126241.44568937371, -187500.02235174447, 126218.4904478181, 126226.62648279984, -187500.02235174447, 0.044, 0.932, 0.356, 192.0, 0.0, 0.0, 0.0, 0.0, 0.0, 0.0, 0.0, 0.0, 0.0, 1.7401439062447677E9, 0.0, 2025-02-21 10:18:26.244
95.0, -142986.41151027818, 126071.43832104663, -176613.1358281536, 126227.36409036686, -187500.02235174447, 126204.38649706681, 126212.16490413724, -187500.02235174447, 0.044, 0.932, 0.356, 192.0, 0.0, 0.0, 0.0, 0.0, 0.0, 0.0, 0.0, 0.0, 0.0, 1.740143906244786E9, 0.0, 2025-02-21 10:18:26.244
96.0, -142888.28735211937, 126064.48692852104, -176612.26411011984, 126220.30093911898, -187500.02235174447, 126197.36804930784, 126204.49825578908, -187500.02235174447, 0.044, 0.932, 0.356, 192.0, 0.0, 0.0, 0.0, 0.0, 0.0, 0.0, 0.0, 0.0, 0.0, 1.740143906244804E9, 0.0, 2025-02-21 10:18:26.244
97.0, -142654.10812546112, 126052.48404174854, -176450.16925932997, 126208.09688664638, -187500.02235174447, 126185.16399683524, 126192.5400725055, -187500.02235174447, 0.044, 0.932, 0.356, 192.0, 0.0, 0.0, 0.0, 0.0, 0.0, 0.0, 0.0, 0.0, 0.0, 1.7401439062448225E9, 0.0, 2025-02-21 10:18:26.244
98.0, -142709.1381203101, 126035.27319851796, -176406.7398198533, 126190.97545039361, -187500.02235174447, 126168.02020883802, 126175.93272637519, -187500.02235174447, 0.044, 0.932, 0.356, 192.0, 1.0, 96.0, 29.0, 32.0, 11.0, 32.0, 0.0, 0.0, 0.0, 1.7401439062448413E9, 0.0, 2025-02-21 10:18:26.244
99.0, -142953.6438529067, 126020.00695705498, -176547.75697562183, 126175.91037463074, -187500.02235174447, 126152.9774848196, 126160.59942967886, -187500.02235174447, 0.044, 0.932, 0.356, 192.0, 0.0, 0.0, 0.0, 0.0, 0.0, 0.0, 0.0, 0.0, 0.0, 1.740143906244861E9, 0.0, 2025-02-21 10:18:26.244
100.0, -142920.4291606461, 126010.52981740593, -176587.36426679662, 126166.34382800387, -187500.02235174447, 126143.41093819273, 126150.49644118505, -187500.02235174447, 0.044, 0.932, 0.356, 192.0, 0.0, 0.0, 0.0, 0.0, 0.0, 0.0, 0.0, 0.0, 0.0, 1.7401439062448788E9, 0.0, 2025-02-21 10:18:26.244
