%OpenBCI Raw EXG Data
%Number of channels = 8
%Sample Rate = 250 Hz
%Board = OpenBCI_GUI$BoardCytonSerial
Sample Index, EXG Channel 0, EXG Channel 1, EXG Channel 2, EXG Channel 3, EXG Channel 4, EXG Channel 5, EXG Channel 6, EXG Channel 7, Accel Channel 0, Accel Channel 1, Accel Channel 2, Not Used, Digital Channel 0 (D11), Digital Channel 1 (D12), Digital Channel 2 (D13), Digital Channel 3 (D17), Not Used, Digital Channel 4 (D18), Analog Channel 0, Analog Channel 1, Analog Channel 2, Timestamp, Marker Channel, Timestamp (Formatted)
122.0, -142797.9639527755, 125715.21856966241, -176335.30364457413, 125871.12198723818, -187500.02235174447, 125848.59142882723, 125855.02873123036, -187500.02235174447, 0.0, 0.0, 0.0, 192.0, 0.0, 0.0, 0.0, 0.0, 0.0, 0.0, 0.0, 0.0, 0.0, 1.7401439116548653E9, 0.0, 2025-02-21 10:18:31.654
123.0, -142788.03977823732, 125696.26429036431, -176264.06863499508, 125852.0559492178, -187500.02235174447, 125829.45833557348, 125836.45443158799, -187500.02235174447, 0.0, 0.0, 0.0, 192.0, 0.0, 0.0, 0.0, 0.0, 0.0, 0.0, 0.0, 0.0, 0.0, 1.7401439116549263E9, 0.0, 2025-02-21 10:18:31.654
124.0, -143009.27734485595, 125679.165205856, -176389.99836325628, 125835.06862343177, -187500.02235174447, 125812.47100978745, 125819.22123661295, -187500.02235174447, 0.0, 0.0, 0.0, 192.0, 0.0, 0.0, 0.0, 0.0, 0.0, 0.0, 0.0, 0.0, 0.0, 1.7401439116549506E9, 0.0, 2025-02-21 10:18:31.654
125.0, -143048.43760114166, 125671.8561854191, -176465.5472595152, 125827.82665822825, -187500.02235174447, 125805.22904458393, 125811.48753303141, -187500.02235174447, 0.0, 0.0, 0.0, 192.0, 0.0, 0.0, 0.0, 0.0, 0.0, 0.0, 0.0, 0.0, 0.0, 1.7401439116549737E9, 0.0, 2025-02-21 10:18:31.654
126.0, -142838.80058989534, 125662.33434228116, -176338.9693306648, 125818.21540811246, -187500.02235174447, 125795.64014621261, 125801.943338149, -187500.02235174447, 0.0, 0.0, 0.0, 192.0, 0.0, 0.0, 0.0, 0.0, 0.0, 0.0, 0.0, 0.0, 0.0, 1.7401439116551316E9, 0.0, 2025-02-21 10:18:31.655
127.0, -142774.67343505306, 125643.2012490274, -176236.93361722634, 125799.08231485872, -187500.02235174447, 125776.4847012144, 125783.27963152881, -187500.02235174447, 0.0, 0.0, 0.0, 192.0, 0.0, 0.0, 0.0, 0.0, 0.0, 0.0, 0.0, 0.0, 0.0, 1.740143911655156E9, 0.0, 2025-02-21 10:18:31.655
128.0, -142978.43193750764, 125624.38108019604, -176337.0694323861, 125780.37390474963, -187500.02235174447, 125757.75393936086, 125764.54886967527, -187500.02235174447, 0.044, 0.93, 0.352, 192.0, 1.0, 96.0, 29.0, 16.0, 11.0, 0.0, 0.0, 0.0, 0.0, 1.74014391165518E9, 0.0, 2025-02-21 10:18:31.655
129.0, -143072.1751537532, 125614.92629229145, -176442.1896865594, 125770.94146858949, -187500.02235174447, 125748.38855843409, 125754.5799916482, -187500.02235174447, 0.044, 0.93, 0.352, 192.0, 0.0, 0.0, 0.0, 0.0, 0.0, 0.0, 0.0, 0.0, 0.0, 1.740143911655208E9, 0.0, 2025-02-21 10:18:31.655
130.0, -142879.39135782616, 125606.27616718724, -176339.88575218746, 125762.04547429628, -187500.02235174447, 125739.64902635205, 125745.75105258836, -187500.02235174447, 0.044, 0.93, 0.352, 192.0, 0.0, 0.0, 0.0, 0.0, 0.0, 0.0, 0.0, 0.0, 0.0, 1.740143911655233E9, 0.0, 2025-02-21 10:18:31.655
131.0, -142765.66568203756, 125586.80779776667, -176212.97254717024, 125742.51004964234, -187500.02235174447, 125720.09124995366, 125726.72971805689, -187500.02235174447, 0.044, 0.93, 0.352, 192.0, 0.0, 0.0, 0.0, 0.0, 0.0, 0.0, 0.0, 0.0, 0.0, 1.7401439116552572E9, 0.0, 2025-02-21 10:18:31.655
132.0, -142941.7527248565, 125569.06051266915, -176283.33583871555, 125725.09804071166, -187500.02235174447, 125702.54513055625, 125709.20595040394, -187500.02235174447, 0.044, 0.93, 0.352, 192.0, 0.0, 0.0, 0.0, 0.0, 0.0, 0.0, 0.0, 0.0, 0.0, 1.7401439116552818E9, 0.0, 2025-02-21 10:18:31.655
133.0, -143086.41321497122, 125560.20922186486, -176413.95943331235, 125716.20204641845, -187500.02235174447, 125693.69383975196, 125699.79586598824, -187500.02235174447, 0.044, 0.93, 0.352, 192.0, 0.0, 0.0, 0.0, 0.0, 0.0, 0.0, 0.0, 0.0, 0.0, 1.7401439116553059E9, 0.0, 2025-02-21 10:18:31.655
134.0, -142921.7926170579, 125549.8380124376, -176340.69041498785, 125705.7637817578, -187500.02235174447, 125683.25557509132, 125689.08938039416, -187500.02235174447, 0.044, 0.93, 0.352, 192.0, 0.0, 0.0, 0.0, 0.0, 0.0, 0.0, 0.0, 0.0, 0.0, 1.7401439116553867E9, 0.0, 2025-02-21 10:18:31.655
135.0, -142767.7890977608, 125532.51541048473, -176197.81806442954, 125688.35177282713, -187500.02235174447, 125665.82121441618, 125672.14675809703, -187500.02235174447, 0.044, 0.93, 0.352, 192.0, 0.0, 0.0, 0.0, 0.0, 0.0, 0.0, 0.0, 0.0, 0.0, 1.7401439116554117E9, 0.0, 2025-02-21 10:18:31.655
136.0, -142900.93843948108, 125512.91293059742, -176230.339852612, 125668.88340340655, -187500.02235174447, 125646.37519674006, 125652.96896135437, -187500.02235174447, 0.044, 0.93, 0.352, 192.0, 0.0, 0.0, 0.0, 0.0, 0.0, 0.0, 0.0, 0.0, 0.0, 1.740143911655437E9, 0.0, 2025-02-21 10:18:31.655
137.0, -143087.03906381596, 125503.68166013739, -176376.40850262746, 125659.74153992433, -187500.02235174447, 125637.32274023566, 125643.3577112386, -187500.02235174447, 0.044, 0.93, 0.352, 192.0, 0.0, 0.0, 0.0, 0.0, 0.0, 0.0, 0.0, 0.0, 0.0, 1.740143911655644E9, 0.0, 2025-02-21 10:18:31.655
138.0, -142972.06169033787, 125498.4737036793, -176345.18311562337, 125654.48887997735, -187500.02235174447, 125632.0030250553, 125637.72507163585, -187500.02235174447, 0.042, 0.932, 0.35000000000000003, 192.0, 1.0, 80.0, 29.0, 32.0, 10.0, 240.0, 0.0, 0.0, 0.0, 1.740143911655696E9, 0.0, 2025-02-21 10:18:31.655
139.0, -142787.27981892583, 125485.48734015076, -176196.1863870843, 125641.34605423761, -187500.02235174447, 125618.83784757112, 125624.89517031852, -187500.02235174447, 0.042, 0.932, 0.35000000000000003, 192.0, 0.0, 0.0, 0.0, 0.0, 0.0, 0.0, 0.0, 0.0, 0.0, 1.7401439116557243E9, 0.0, 2025-02-21 10:18:31.655
140.0, -142868.05902338732, 125464.45434861832, -176189.36910502543, 125620.46952491636, -187500.02235174447, 125597.8942630165, 125604.35391716409, -187500.02235174447, 0.042, 0.932, 0.35000000000000003, 192.0, 0.0, 0.0, 0.0, 0.0, 0.0, 0.0, 0.0, 0.0, 0.0, 1.740143911655749E9, 0.0, 2025-02-21 10:18:31.655
141.0, -143078.6348079008, 125449.59043855553, -176336.10830737452, 125605.87383578705, -187500.02235174447, 125583.23151865382, 125589.28884140121, -187500.02235174447, 0.042, 0.932, 0.35000000000000003, 192.0, 0.0, 0.0, 0.0, 0.0, 0.0, 0.0, 0.0, 0.0, 0.0, 1.740143911655774E9, 0.0, 2025-02-21 10:18:31.655
142.0, -143015.66994377016, 125443.04137743014, -176342.38914756646, 125599.10125721709, -187500.02235174447, 125576.57069880614, 125582.22569015333, -187500.02235174447, 0.042, 0.932, 0.35000000000000003, 192.0, 0.0, 0.0, 0.0, 0.0, 0.0, 0.0, 0.0, 0.0, 0.0, 1.740143911655799E9, 0.0, 2025-02-21 10:18:31.655
143.0, -142808.17869999155, 125430.12206913497, -176191.85014865999, 125585.93607973291, -187500.02235174447, 125563.49492829978, 125569.37343709153, -187500.02235174447, 0.042, 0.932, 0.35000000000000003, 192.0, 0.0, 0.0, 0.0, 0.0, 0.0, 0.0, 0.0, 0.0, 0.0, 1.7401439116558244E9, 0.0, 2025-02-21 10:18:31.655
144.0, -142835.8054561383, 125408.7538014357, -176148.10778476094, 125564.59016377809, -187500.02235174447, 125542.17136408942, 125548.54161125918, -187500.02235174447, 0.042, 0.932, 0.35000000000000003, 192.0, 0.0, 0.0, 0.0, 0.0, 0.0, 0.0, 0.0, 0.0, 0.0, 1.7401439116558535E9, 0.0, 2025-02-21 10:18:31.655
145.0, -143061.53572339247, 125397.55557746359, -176291.89655684194, 125553.61545725053, -187500.02235174447, 125531.17430581742, 125537.32103554263, -187500.02235174447, 0.042, 0.932, 0.35000000000000003, 192.0, 0.0, 0.0, 0.0, 0.0, 0.0, 0.0, 0.0, 0.0, 0.0, 1.740143911655878E9, 0.0, 2025-02-21 10:18:31.655
146.0, -143057.82533381289, 125392.03469658313, -176339.0810893871, 125547.9828176478, -187500.02235174447, 125525.67577668141, 125531.17430581742, -187500.02235174447, 0.042, 0.932, 0.35000000000000003, 192.0, 0.0, 0.0, 0.0, 0.0, 0.0, 0.0, 0.0, 0.0, 0.0, 1.7401439116559024E9, 0.0, 2025-02-21 10:18:31.655
147.0, -142841.8180753968, 125378.93657433231, -176196.81223592904, 125534.6835296969, -187500.02235174447, 125512.39884047495, 125518.03148007768, -187500.02235174447, 0.042, 0.932, 0.35000000000000003, 192.0, 0.0, 0.0, 0.0, 0.0, 0.0, 0.0, 0.0, 0.0, 0.0, 1.7401439116559267E9, 0.0, 2025-02-21 10:18:31.655
148.0, -142816.00181055092, 125358.30591420007, -176119.25168266913, 125514.11992479801, -187500.02235174447, 125491.74582859824, 125497.91491006792, -187500.02235174447, 0.046, 0.93, 0.352, 192.0, 1.0, 112.0, 29.0, 16.0, 11.0, 0.0, 0.0, 0.0, 0.0, 1.7401439116559508E9, 0.0, 2025-02-21 10:18:31.655
149.0, -143033.88661550125, 125340.82685003601, -176241.5380765841, 125496.75261935624, -187500.02235174447, 125474.33381966756, 125480.34643892605, -187500.02235174447, 0.046, 0.93, 0.352, 192.0, 0.0, 0.0, 0.0, 0.0, 0.0, 0.0, 0.0, 0.0, 0.0, 1.7401439116559887E9, 0.0, 2025-02-21 10:18:31.655
150.0, -143082.8816393473, 125331.77439353161, -176321.110286845, 125487.78956982966, -187500.02235174447, 125465.2590114187, 125470.6681335769, -187500.02235174447, 0.046, 0.93, 0.352, 192.0, 0.0, 0.0, 0.0, 0.0, 0.0, 0.0, 0.0, 0.0, 0.0, 1.7401439116560144E9, 0.0, 2025-02-21 10:18:31.656
151.0, -142874.6304362572, 125321.44788759327, -176198.10863710745, 125477.35130516902, -187500.02235174447, 125454.84309850253, 125460.40868287192, -187500.02235174447, 0.046, 0.93, 0.352, 192.0, 0.0, 0.0, 0.0, 0.0, 0.0, 0.0, 0.0, 0.0, 0.0, 1.7401439116560404E9, 0.0, 2025-02-21 10:18:31.656
152.0, -142798.83567080923, 125302.35949782844, -176092.38488583386, 125458.08410144856, -187500.02235174447, 125435.82176397106, 125441.856734974, -187500.02235174447, 0.046, 0.93, 0.352, 192.0, 0.0, 0.0, 0.0, 0.0, 0.0, 0.0, 0.0, 0.0, 0.0, 1.7401439116560977E9, 0.0, 2025-02-21 10:18:31.656
153.0, -143000.4037023072, 125287.24971857664, -176191.31370679304, 125443.1084326635, -187500.02235174447, 125420.86844693047, 125426.88106618894, -187500.02235174447, 0.046, 0.93, 0.352, 192.0, 0.0, 0.0, 0.0, 0.0, 0.0, 0.0, 0.0, 0.0, 0.0, 1.7401439116561308E9, 0.0, 2025-02-21 10:18:31.656
154.0, -143107.20033731466, 125279.04662836155, -176303.7653331477, 125434.92769419285, -187500.02235174447, 125412.7994671821, 125418.14153410692, -187500.02235174447, 0.046, 0.93, 0.352, 192.0, 0.0, 0.0, 0.0, 0.0, 0.0, 0.0, 0.0, 0.0, 0.0, 1.7401439116561568E9, 0.0, 2025-02-21 10:18:31.656
155.0, -142917.94811701158, 125268.317791023, -176205.8870441779, 125424.1541533654, -187500.02235174447, 125401.89181588791, 125407.16682757936, -187500.02235174447, 0.046, 0.93, 0.352, 192.0, 0.0, 0.0, 0.0, 0.0, 0.0, 0.0, 0.0, 0.0, 0.0, 1.7401439116561823E9, 0.0, 2025-02-21 10:18:31.656
156.0, -142796.22051670798, 125251.21870651469, -176078.19152810474, 125407.0550688571, -187500.02235174447, 125384.72567614623, 125390.55948144908, -187500.02235174447, 0.046, 0.93, 0.352, 192.0, 0.0, 0.0, 0.0, 0.0, 0.0, 0.0, 0.0, 0.0, 0.0, 1.7401439116562076E9, 0.0, 2025-02-21 10:18:31.656
157.0, -142958.67299540914, 125230.2080667267, -176137.84833405595, 125386.08913255802, -187500.02235174447, 125363.71503635825, 125369.72765561673, -187500.02235174447, 0.046, 0.93, 0.352, 192.0, 0.0, 0.0, 0.0, 0.0, 0.0, 0.0, 0.0, 0.0, 0.0, 1.7401439116562335E9, 0.0, 2025-02-21 10:18:31.656
158.0, -143112.2294798171, 125218.80867705449, -176270.99767577622, 125374.80150160808, -187500.02235174447, 125352.42740540832, 125357.8365275665, -187500.02235174447, 0.048, 0.93, 0.34800000000000003, 192.0, 1.0, 128.0, 29.0, 16.0, 10.0, 224.0, 0.0, 0.0, 0.0, 1.7401439116562588E9, 0.0, 2025-02-21 10:18:31.656
159.0, -142961.80223963287, 125210.96321475068, -176210.46915179124, 125366.844280582, -187500.02235174447, 125344.64899833787, 125349.67814084032, -187500.02235174447, 0.048, 0.93, 0.34800000000000003, 192.0, 0.0, 0.0, 0.0, 0.0, 0.0, 0.0, 0.0, 0.0, 0.0, 1.7401439116562867E9, 0.0, 2025-02-21 10:18:31.656
160.0, -142798.99213302042, 125195.2499383986, -176066.52391749906, 125351.08630074101, -187500.02235174447, 125328.84631500798, 125334.4789546107, -187500.02235174447, 0.048, 0.93, 0.34800000000000003, 192.0, 0.0, 0.0, 0.0, 0.0, 0.0, 0.0, 0.0, 0.0, 0.0, 1.7401439116563122E9, 0.0, 2025-02-21 10:18:31.656
161.0, -142920.4291606461, 125177.3461910899, -176091.3120021, 125333.33901564349, -187500.02235174447, 125310.98727118818, 125316.95518695774, -187500.02235174447, 0.048, 0.93, 0.34800000000000003, 192.0, 0.0, 0.0, 0.0, 0.0, 0.0, 0.0, 0.0, 0.0, 0.0, 1.7401439116563375E9, 0.0, 2025-02-21 10:18:31.656
162.0, -143113.6823432067, 125166.28207758452, -176238.96762597177, 125322.36430911593, -187500.02235174447, 125299.99021291616, 125305.42168681881, -187500.02235174447, 0.048, 0.93, 0.34800000000000003, 192.0, 0.0, 0.0, 0.0, 0.0, 0.0, 0.0, 0.0, 0.0, 0.0, 1.7401439116563625E9, 0.0, 2025-02-21 10:18:31.656
163.0, -143009.79143497843, 125158.50367051408, -176216.54882628308, 125314.47414332321, -187500.02235174447, 125292.18945410127, 125297.24094834816, -187500.02235174447, 0.048, 0.93, 0.34800000000000003, 192.0, 0.0, 0.0, 0.0, 0.0, 0.0, 0.0, 0.0, 0.0, 0.0, 1.7401439116563876E9, 0.0, 2025-02-21 10:18:31.656
164.0, -142815.64418263963, 125144.31031278496, -176065.18281283174, 125300.19137861626, -187500.02235174447, 125277.92904113878, 125283.2711080636, -187500.02235174447, 0.048, 0.93, 0.34800000000000003, 192.0, 0.0, 0.0, 0.0, 0.0, 0.0, 0.0, 0.0, 0.0, 0.0, 1.7401439116564229E9, 0.0, 2025-02-21 10:18:31.656
165.0, -142882.6770642611, 125122.76323113004, -176047.83785913442, 125278.75605568363, -187500.02235174447, 125256.5160699506, 125262.19341304225, -187500.02235174447, 0.048, 0.93, 0.34800000000000003, 192.0, 0.0, 0.0, 0.0, 0.0, 0.0, 0.0, 0.0, 0.0, 0.0, 1.7401439116564486E9, 0.0, 2025-02-21 10:18:31.656
166.0, -143098.41610174373, 125107.87696932281, -176194.97939288372, 125263.8697938764, -187500.02235174447, 125241.71921512118, 125247.03893030155, -187500.02235174447, 0.048, 0.93, 0.34800000000000003, 192.0, 0.0, 0.0, 0.0, 0.0, 0.0, 0.0, 0.0, 0.0, 0.0, 1.7401439116564784E9, 0.0, 2025-02-21 10:18:31.656
167.0, -143049.9575197646, 125101.9761087866, -176214.38070707093, 125257.96893334019, -187500.02235174447, 125235.68424411825, 125240.66868313178, -187500.02235174447, 0.048, 0.93, 0.34800000000000003, 192.0, 0.0, 0.0, 0.0, 0.0, 0.0, 0.0, 0.0, 0.0, 0.0, 1.7401439116565137E9, 0.0, 2025-02-21 10:18:31.656
168.0, -142838.0629823283, 125089.3250214249, -176065.29457155403, 125245.25079074512, -187500.02235174447, 125223.01080501209, 125228.12935449235, -187500.02235174447, 0.05, 0.932, 0.34800000000000003, 192.0, 1.0, 144.0, 29.0, 32.0, 10.0, 224.0, 0.0, 0.0, 0.0, 1.7401439116565452E9, 0.0, 2025-02-21 10:18:31.656
169.0, -142851.3622702792, 125068.91787873721, -176011.42686741674, 125224.84364805743, -187500.02235174447, 125202.69306930222, 125208.14689494931, -187500.02235174447, 0.05, 0.932, 0.34800000000000003, 192.0, 0.0, 0.0, 0.0, 0.0, 0.0, 0.0, 0.0, 0.0, 0.0, 1.7401439116565704E9, 0.0, 2025-02-21 10:18:31.656
170.0, -143074.90206657673, 125052.17642214018, -176148.17483999432, 125208.14689494931, -187500.02235174447, 125185.9963161941, 125191.2489761411, -187500.02235174447, 0.05, 0.932, 0.34800000000000003, 192.0, 0.0, 0.0, 0.0, 0.0, 0.0, 0.0, 0.0, 0.0, 0.0, 1.7401439116565943E9, 0.0, 2025-02-21 10:18:31.656
171.0, -143085.0721103039, 125046.1638028817, -176206.62465174493, 125202.13427569084, -187500.02235174447, 125179.93899344672, 125184.69991501569, -187500.02235174447, 0.05, 0.932, 0.34800000000000003, 192.0, 0.0, 0.0, 0.0, 0.0, 0.0, 0.0, 0.0, 0.0, 0.0, 1.740143911656618E9, 0.0, 2025-02-21 10:18:31.656
172.0, -142870.89769493314, 125036.91018067721, -176071.57541174596, 125192.7465430196, -187500.02235174447, 125170.52890903103, 125175.49099630011, -187500.02235174447, 0.05, 0.932, 0.34800000000000003, 192.0, 0.0, 0.0, 0.0, 0.0, 0.0, 0.0, 0.0, 0.0, 0.0, 1.7401439116566422E9, 0.0, 2025-02-21 10:18:31.656
173.0, -142831.64803166964, 125018.5593984794, -175986.1470444378, 125174.30635384397, -187500.02235174447, 125152.17812683323, 125157.5872489914, -187500.02235174447, 0.05, 0.932, 0.34800000000000003, 192.0, 0.0, 0.0, 0.0, 0.0, 0.0, 0.0, 0.0, 0.0, 0.0, 1.7401439116566668E9, 0.0, 2025-02-21 10:18:31.656
174.0, -143046.73886856306, 125000.76740989297, -176102.39846734985, 125156.58142049093, -187500.02235174447, 125134.45319348016, 125139.72820517162, -187500.02235174447, 0.05, 0.932, 0.34800000000000003, 192.0, 0.0, 0.0, 0.0, 0.0, 0.0, 0.0, 0.0, 0.0, 0.0, 1.7401439116566906E9, 0.0, 2025-02-21 10:18:31.656
175.0, -143113.54823273997, 124990.53031093244, -176193.07949460502, 125146.41137676376, -187500.02235174447, 125124.30550149745, 125129.04407132199, -187500.02235174447, 0.05, 0.932, 0.34800000000000003, 192.0, 0.0, 0.0, 0.0, 0.0, 0.0, 0.0, 0.0, 0.0, 0.0, 1.7401439116567156E9, 0.0, 2025-02-21 10:18:31.656
176.0, -142911.6225733307, 124983.69067712913, -176080.71727522818, 125139.50468772707, -187500.02235174447, 125117.3317572274, 125122.1820857742, -187500.02235174447, 0.05, 0.932, 0.34800000000000003, 192.0, 0.0, 0.0, 0.0, 0.0, 0.0, 0.0, 0.0, 0.0, 0.0, 1.74014391165674E9, 0.0, 2025-02-21 10:18:31.656
177.0, -142819.13105477465, 124966.01044726497, -175966.5892680394, 125121.779754374, -187500.02235174447, 125099.65152736325, 125104.97124254362, -187500.02235174447, 0.05, 0.932, 0.34800000000000003, 192.0, 0.0, 0.0, 0.0, 0.0, 0.0, 0.0, 0.0, 0.0, 0.0, 1.7401439116567664E9, 0.0, 2025-02-21 10:18:31.656
178.0, -143008.3609233333, 124946.16209818867, -176051.68235918073, 125102.15492274225, -187500.02235174447, 125079.93728875367, 125085.21230044513, -187500.02235174447, 0.052000000000000005, 0.928, 0.35000000000000003, 192.0, 1.0, 160.0, 29.0, 0.0, 10.0, 240.0, 0.0, 0.0, 0.0, 1.7401439116567895E9, 0.0, 2025-02-21 10:18:31.656
179.0, -143132.0331254045, 124937.15434517317, -176173.00762808416, 125093.16952147121, -187500.02235174447, 125070.92953573818, 125075.64575381826, -187500.02235174447, 0.052000000000000005, 0.928, 0.35000000000000003, 192.0, 0.0, 0.0, 0.0, 0.0, 0.0, 0.0, 0.0, 0.0, 0.0, 1.7401439116568255E9, 0.0, 2025-02-21 10:18:31.656
180.0, -142953.01800406195, 124927.67720552412, -176086.8640049534, 125083.55827135543, -187500.02235174447, 125061.5641548114, 125066.07920719137, -187500.02235174447, 0.052000000000000005, 0.928, 0.35000000000000003, 192.0, 0.0, 0.0, 0.0, 0.0, 0.0, 0.0, 0.0, 0.0, 0.0, 1.74014391165685E9, 0.0, 2025-02-21 10:18:31.656
181.0, -142813.67722912756, 124911.1816181161, -175951.6806544877, 125067.12973918077, -187500.02235174447, 125045.06856740339, 125050.09770990584, -187500.02235174447, 0.052000000000000005, 0.928, 0.35000000000000003, 192.0, 0.0, 0.0, 0.0, 0.0, 0.0, 0.0, 0.0, 0.0, 0.0, 1.7401439116568737E9, 0.0, 2025-02-21 10:18:31.656
182.0, -142967.3454722578, 124893.09905685176, -176003.35788766836, 125049.09188140534, -187500.02235174447, 125026.9636543946, 125032.12690736377, -187500.02235174447, 0.052000000000000005, 0.928, 0.35000000000000003, 192.0, 0.0, 0.0, 0.0, 0.0, 0.0, 0.0, 0.0, 0.0, 0.0, 1.7401439116569314E9, 0.0, 2025-02-21 10:18:31.656
183.0, -143137.86693070733, 124882.79490265786, -176144.55385739254, 125038.87713418927, -187500.02235174447, 125016.7042036896, 125021.37571828076, -187500.02235174447, 0.052000000000000005, 0.928, 0.35000000000000003, 192.0, 0.0, 0.0, 0.0, 0.0, 0.0, 0.0, 0.0, 0.0, 0.0, 1.740143911656963E9, 0.0, 2025-02-21 10:18:31.656
184.0, -142996.26862958298, 124873.22835603099, -176092.42958932277, 125029.13177360676, -187500.02235174447, 125007.13765706273, 125011.54095072043, -187500.02235174447, 0.052000000000000005, 0.928, 0.35000000000000003, 192.0, 0.0, 0.0, 0.0, 0.0, 0.0, 0.0, 0.0, 0.0, 0.0, 1.7401439116569872E9, 0.0, 2025-02-21 10:18:31.656
185.0, -142819.24281349694, 124858.3197424793, -175944.14811660626, 125014.08904958834, -187500.02235174447, 124992.2066917666, 124996.96761333557, -187500.02235174447, 0.052000000000000005, 0.928, 0.35000000000000003, 192.0, 0.0, 0.0, 0.0, 0.0, 0.0, 0.0, 0.0, 0.0, 0.0, 1.7401439116570113E9, 0.0, 2025-02-21 10:18:31.657
186.0, -142923.3348874253, 124838.44904165853, -175955.43574755618, 124994.28540400094, -187500.02235174447, 124972.42539792364, 124977.38748519272, -187500.02235174447, 0.052000000000000005, 0.928, 0.35000000000000003, 192.0, 0.0, 0.0, 0.0, 0.0, 0.0, 0.0, 0.0, 0.0, 0.0, 1.7401439116570349E9, 0.0, 2025-02-21 10:18:31.657
187.0, -143129.19445385868, 124825.35091940772, -176105.2594906401, 124981.14257826122, -187500.02235174447, 124959.1931652061, 124963.81997630835, -187500.02235174447, 0.052000000000000005, 0.928, 0.35000000000000003, 192.0, 0.0, 0.0, 0.0, 0.0, 0.0, 0.0, 0.0, 0.0, 0.0, 1.7401439116570587E9, 0.0, 2025-02-21 10:18:31.657
188.0, -143041.53091210496, 124817.28193965935, -176094.97768819067, 124973.00654327948, -187500.02235174447, 124951.05713022438, 124955.25925818196, -187500.02235174447, 0.05, 0.93, 0.35000000000000003, 192.0, 1.0, 144.0, 29.0, 16.0, 10.0, 240.0, 0.0, 0.0, 0.0, 1.7401439116570826E9, 0.0, 2025-02-21 10:18:31.657
189.0, -142834.19613053754, 124802.66389878558, -175941.35414854935, 124958.41085415016, -187500.02235174447, 124936.4390893506, 124941.04354870839, -187500.02235174447, 0.05, 0.93, 0.35000000000000003, 192.0, 0.0, 0.0, 0.0, 0.0, 0.0, 0.0, 0.0, 0.0, 0.0, 1.740143911657107E9, 0.0, 2025-02-21 10:18:31.657
190.0, -142881.04538691585, 124782.63673575364, -175912.1180668018, 124938.47309809603, -187500.02235174447, 124916.4342780631, 124921.35166184326, -187500.02235174447, 0.05, 0.93, 0.35000000000000003, 192.0, 0.0, 0.0, 0.0, 0.0, 0.0, 0.0, 0.0, 0.0, 0.0, 1.740143911657131E9, 0.0, 2025-02-21 10:18:31.657
191.0, -143111.73774143908, 124770.74560770341, -176063.08174885294, 124926.5372665569, -187500.02235174447, 124904.54315001288, 124909.14760937067, -187500.02235174447, 0.05, 0.93, 0.35000000000000003, 192.0, 0.0, 0.0, 0.0, 0.0, 0.0, 0.0, 0.0, 0.0, 0.0, 1.7401439116571543E9, 0.0, 2025-02-21 10:18:31.657
192.0, -143090.9282673512, 124764.04008436682, -176097.92811845877, 124919.8317432203, -187500.02235174447, 124897.79292318737, 124902.01740288943, -187500.02235174447, 0.05, 0.93, 0.35000000000000003, 192.0, 0.0, 0.0, 0.0, 0.0, 0.0, 0.0, 0.0, 0.0, 0.0, 1.740143911657179E9, 0.0, 2025-02-21 10:18:31.657
193.0, -142865.8238489418, 124751.23253479393, -175949.49018353107, 124906.97949015851, -187500.02235174447, 124885.0300771034, 124889.50042599445, -187500.02235174447, 0.05, 0.93, 0.35000000000000003, 192.0, 0.0, 0.0, 0.0, 0.0, 0.0, 0.0, 0.0, 0.0, 0.0, 1.7401439116572032E9, 0.0, 2025-02-21 10:18:31.657
194.0, -142826.95416533403, 124733.08291829622, -175872.13079597126, 124888.8745771497, -187500.02235174447, 124866.96986758351, 124871.88725136367, -187500.02235174447, 0.05, 0.93, 0.35000000000000003, 192.0, 0.0, 0.0, 0.0, 0.0, 0.0, 0.0, 0.0, 0.0, 0.0, 1.7401439116572375E9, 0.0, 2025-02-21 10:18:31.657
195.0, -143061.9157030482, 124719.7389268564, -176004.14019872432, 124875.59764094325, -187500.02235174447, 124853.64822788814, 124858.23033550149, -187500.02235174447, 0.05, 0.93, 0.35000000000000003, 192.0, 0.0, 0.0, 0.0, 0.0, 0.0, 0.0, 0.0, 0.0, 0.0, 1.7401439116572652E9, 0.0, 2025-02-21 10:18:31.657
196.0, -143150.62977679132, 124708.8312755622, -176095.62588877988, 124864.66763790461, -187500.02235174447, 124842.7182248495, 124846.69683536254, -187500.02235174447, 0.05, 0.93, 0.35000000000000003, 192.0, 0.0, 0.0, 0.0, 0.0, 0.0, 0.0, 0.0, 0.0, 0.0, 1.7401439116573071E9, 0.0, 2025-02-21 10:18:31.657
197.0, -142931.51562589593, 124695.82256028922, -175971.81957624192, 124851.45775693153, -187500.02235174447, 124829.50834387641, 124833.73282357847, -187500.02235174447, 0.05, 0.93, 0.35000000000000003, 192.0, 0.0, 0.0, 0.0, 0.0, 0.0, 0.0, 0.0, 0.0, 0.0, 1.740143911657343E9, 0.0, 2025-02-21 10:18:31.657
198.0, -142797.62867660864, 124679.7293042814, -175848.6167608043, 124835.36450092371, -187500.02235174447, 124813.43743961304, 124818.17600943756, -187500.02235174447, 0.05, 0.934, 0.354, 192.0, 1.0, 144.0, 29.0, 48.0, 11.0, 16.0, 0.0, 0.0, 0.0, 1.740143911657375E9, 0.0, 2025-02-21 10:18:31.657
199.0, -142996.0004086495, 124663.36782734012, -175940.7282997046, 124819.1594861936, -187500.02235174447, 124797.29948011631, 124801.81453249628, -187500.02235174447, 0.05, 0.934, 0.354, 192.0, 0.0, 0.0, 0.0, 0.0, 0.0, 0.0, 0.0, 0.0, 0.0, 1.7401439116574025E9, 0.0, 2025-02-21 10:18:31.657
200.0, -143160.88922749631, 124655.3211993362, -176071.08367336795, 124811.13520993415, -187500.02235174447, 124789.18579687904, 124793.23146262545, -187500.02235174447, 0.05, 0.934, 0.354, 192.0, 0.0, 0.0, 0.0, 0.0, 0.0, 0.0, 0.0, 0.0, 0.0, 1.7401439116574292E9, 0.0, 2025-02-21 10:18:31.657
201.0, -142980.8459259088, 124643.5641817527, -175981.45317810218, 124799.31113711729, -187500.02235174447, 124777.36172406218, 124781.38503806414, -187500.02235174447, 0.05, 0.934, 0.354, 192.0, 0.0, 0.0, 0.0, 0.0, 0.0, 0.0, 0.0, 0.0, 0.0, 1.7401439116574564E9, 0.0, 2025-02-21 10:18:31.657
202.0, -142794.87941204064, 124627.13564957806, -175834.49045830852, 124782.79319796481, -187500.02235174447, 124760.93319188753, 124765.4482442675, -187500.02235174447, 0.05, 0.934, 0.354, 192.0, 0.0, 0.0, 0.0, 0.0, 0.0, 0.0, 0.0, 0.0, 0.0, 1.7401439116574852E9, 0.0, 2025-02-21 10:18:31.657
203.0, -142944.88196908022, 124612.27173951529, -175888.514624657, 124767.92928790204, -187500.02235174447, 124746.02457833584, 124750.51727897135, -187500.02235174447, 0.05, 0.934, 0.354, 192.0, 0.0, 0.0, 0.0, 0.0, 0.0, 0.0, 0.0, 0.0, 0.0, 1.7401439116575136E9, 0.0, 2025-02-21 10:18:31.657
204.0, -143181.4975358841, 124602.68284114395, -176049.5589434575, 124758.36274127517, -187500.02235174447, 124736.43567996452, 124740.45899396647, -187500.02235174447, 0.05, 0.934, 0.354, 192.0, 0.0, 0.0, 0.0, 0.0, 0.0, 0.0, 0.0, 0.0, 0.0, 1.7401439116575427E9, 0.0, 2025-02-21 10:18:31.657
205.0, -143059.34525243583, 124591.03758228273, -176005.48130339163, 124746.62807543614, -187500.02235174447, 124724.7904211033, 124728.63492114961, -187500.02235174447, 0.05, 0.934, 0.354, 192.0, 0.0, 0.0, 0.0, 0.0, 0.0, 0.0, 0.0, 0.0, 0.0, 1.74014391165757E9, 0.0, 2025-02-21 10:18:31.657
206.0, -142807.77636859135, 124575.16784371948, -175835.47393506457, 124730.82539210623, -187500.02235174447, 124709.05479300676, 124713.32397619773, -187500.02235174447, 0.05, 0.934, 0.354, 192.0, 0.0, 0.0, 0.0, 0.0, 0.0, 0.0, 0.0, 0.0, 0.0, 1.7401439116576009E9, 0.0, 2025-02-21 10:18:31.657
207.0, -142873.1775728676, 124557.46526211087, -175830.53419953995, 124713.189865731, -187500.02235174447, 124691.39691488707, 124695.7331533114, -187500.02235174447, 0.05, 0.934, 0.354, 192.0, 0.0, 0.0, 0.0, 0.0, 0.0, 0.0, 0.0, 0.0, 0.0, 1.7401439116576264E9, 0.0, 2025-02-21 10:18:31.657
208.0, -143161.98446297462, 124543.71893927085, -176003.80492255747, 124699.57765335772, -187500.02235174447, 124677.71764728043, 124681.60685081565, -187500.02235174447, 0.046, 0.934, 0.356, 192.0, 1.0, 112.0, 29.0, 48.0, 11.0, 32.0, 0.0, 0.0, 0.0, 1.740143911657652E9, 0.0, 2025-02-21 10:18:31.657
209.0, -143128.70271548067, 124532.36425308757, -176016.61247213036, 124688.22296717441, -187500.02235174447, 124666.31825760822, 124670.02864718779, -187500.02235174447, 0.046, 0.934, 0.356, 192.0, 0.0, 0.0, 0.0, 0.0, 0.0, 0.0, 0.0, 0.0, 0.0, 1.7401439116576917E9, 0.0, 2025-02-21 10:18:31.657
210.0, -142833.16795029258, 124515.891017424, -175838.1114409103, 124671.5262140663, -187500.02235174447, 124649.73326322237, 124653.86833594661, -187500.02235174447, 0.046, 0.934, 0.356, 192.0, 0.0, 0.0, 0.0, 0.0, 0.0, 0.0, 0.0, 0.0, 0.0, 1.740143911657715E9, 0.0, 2025-02-21 10:18:31.657
211.0, -142794.74530157392, 124502.47997075082, -175773.9395825791, 124658.09281564866, -187500.02235174447, 124636.32221654919, 124640.74786195134, -187500.02235174447, 0.046, 0.934, 0.356, 192.0, 0.0, 0.0, 0.0, 0.0, 0.0, 0.0, 0.0, 0.0, 0.0, 1.7401439116577399E9, 0.0, 2025-02-21 10:18:31.657
212.0, -143113.70469495116, 124490.03004908921, -175945.37746255132, 124645.73230096488, -187500.02235174447, 124623.89464663205, 124627.80620191172, -187500.02235174447, 0.046, 0.934, 0.356, 192.0, 0.0, 0.0, 0.0, 0.0, 0.0, 0.0, 0.0, 0.0, 0.0, 1.740143911657771E9, 0.0, 2025-02-21 10:18:31.657
213.0, -143189.85708831038, 124477.62483091651, -176019.62995763184, 124633.39413802554, -187500.02235174447, 124611.48942845935, 124614.97630059437, -187500.02235174447, 0.046, 0.934, 0.356, 192.0, 0.0, 0.0, 0.0, 0.0, 0.0, 0.0, 0.0, 0.0, 0.0, 1.7401439116578004E9, 0.0, 2025-02-21 10:18:31.657
214.0, -142895.19404115606, 124463.8785080765, -175858.25036266452, 124619.64781518553, -187500.02235174447, 124597.87721608607, 124601.67701264347, -187500.02235174447, 0.046, 0.934, 0.356, 192.0, 0.0, 0.0, 0.0, 0.0, 0.0, 0.0, 0.0, 0.0, 0.0, 1.7401439116578233E9, 0.0, 2025-02-21 10:18:31.657
215.0, -142763.96694945896, 124447.8299555576, -175743.74237581997, 124603.53220743325, -187500.02235174447, 124581.67220135596, 124585.91903280247, -187500.02235174447, 0.046, 0.934, 0.356, 192.0, 0.0, 0.0, 0.0, 0.0, 0.0, 0.0, 0.0, 0.0, 0.0, 1.7401439116578467E9, 0.0, 2025-02-21 10:18:31.657
216.0, -143052.34915642132, 124433.94952225084, -175886.23474672256, 124589.67412587097, -187500.02235174447, 124567.7023610714, 124571.61391635108, -187500.02235174447, 0.046, 0.934, 0.356, 192.0, 0.0, 0.0, 0.0, 0.0, 0.0, 0.0, 0.0, 0.0, 0.0, 1.7401439116578727E9, 0.0, 2025-02-21 10:18:31.657
217.0, -143203.2010797502, 124426.19346692484, -176002.03913474552, 124582.02982926725, -187500.02235174447, 124560.05806446768, 124563.56728834717, -187500.02235174447, 0.046, 0.934, 0.356, 192.0, 0.0, 0.0, 0.0, 0.0, 0.0, 0.0, 0.0, 0.0, 0.0, 1.7401439116578977E9, 0.0, 2025-02-21 10:18:31.657
218.0, -142936.2988992094, 124413.67649002987, -175863.88300226725, 124569.46814888337, -187500.02235174447, 124547.56343931716, 124551.2514771523, -187500.02235174447, 0.046, 0.9400000000000001, 0.36, 192.0, 1.0, 112.0, 29.0, 96.0, 11.0, 64.0, 0.0, 0.0, 0.0, 1.7401439116579216E9, 0.0, 2025-02-21 10:18:31.657
219.0, -142754.95919644347, 124396.0633153991, -175721.81531450932, 124551.72086378586, -187500.02235174447, 124530.03967166421, 124534.0406339217, -187500.02235174447, 0.046, 0.9400000000000001, 0.36, 192.0, 0.0, 0.0, 0.0, 0.0, 0.0, 0.0, 0.0, 0.0, 0.0, 1.7401439116579468E9, 0.0, 2025-02-21 10:18:31.657
220.0, -143003.8011674644, 124380.52885300266, -175834.1998856306, 124536.18640138942, -187500.02235174447, 124514.4381540344, 124518.2379505918, -187500.02235174447, 0.046, 0.9400000000000001, 0.36, 192.0, 0.0, 0.0, 0.0, 0.0, 0.0, 0.0, 0.0, 0.0, 0.0, 1.740143911657971E9, 0.0, 2025-02-21 10:18:31.657
221.0, -143209.3031059865, 124368.54831797461, -175976.51344257753, 124524.11645938356, -187500.02235174447, 124502.36821202854, 124505.65391846346, -187500.02235174447, 0.046, 0.9400000000000001, 0.36, 192.0, 0.0, 0.0, 0.0, 0.0, 0.0, 0.0, 0.0, 0.0, 0.0, 1.7401439116579952E9, 0.0, 2025-02-21 10:18:31.657
222.0, -142990.3007138134, 124356.36661724647, -175872.15314771573, 124511.8900551665, -187500.02235174447, 124490.29827002267, 124493.67338343542, -187500.02235174447, 0.046, 0.9400000000000001, 0.36, 192.0, 0.0, 0.0, 0.0, 0.0, 0.0, 0.0, 0.0, 0.0, 0.0, 1.7401439116580184E9, 0.0, 2025-02-21 10:18:31.658
223.0, -142764.5927983037, 124341.1450792724, -175711.73467776, 124496.75792417026, -187500.02235174447, 124475.12143553751, 124479.01063907275, -187500.02235174447, 0.046, 0.9400000000000001, 0.36, 192.0, 0.0, 0.0, 0.0, 0.0, 0.0, 0.0, 0.0, 0.0, 0.0, 1.7401439116580417E9, 0.0, 2025-02-21 10:18:31.658
224.0, -142949.55348367136, 124324.82830582003, -175782.25443151649, 124480.46350246234, -187500.02235174447, 124458.71525510732, 124462.51505166473, -187500.02235174447, 0.046, 0.9400000000000001, 0.36, 192.0, 0.0, 0.0, 0.0, 0.0, 0.0, 0.0, 0.0, 0.0, 0.0, 1.7401439116580827E9, 0.0, 2025-02-21 10:18:31.658
225.0, -143201.16707100478, 124314.25593069267, -175945.53392476248, 124469.80172035715, -187500.02235174447, 124448.23228695778, 124451.33917943707, -187500.02235174447, 0.046, 0.9400000000000001, 0.36, 192.0, 0.0, 0.0, 0.0, 0.0, 0.0, 0.0, 0.0, 0.0, 0.0, 1.7401439116581075E9, 0.0, 2025-02-21 10:18:31.658
226.0, -143041.2626911715, 124302.65537532036, -175879.50687164153, 124458.17881324039, -187500.02235174447, 124436.58702809658, 124439.73862406476, -187500.02235174447, 0.046, 0.9400000000000001, 0.36, 192.0, 0.0, 0.0, 0.0, 0.0, 0.0, 0.0, 0.0, 0.0, 0.0, 1.7401439116581302E9, 0.0, 2025-02-21 10:18:31.658
227.0, -142791.12431897217, 124287.12091292393, -175709.54420680334, 124442.68905433286, -187500.02235174447, 124421.07491744458, 124424.69590004634, -187500.02235174447, 0.046, 0.9400000000000001, 0.36, 192.0, 0.0, 0.0, 0.0, 0.0, 0.0, 0.0, 0.0, 0.0, 0.0, 1.7401439116581616E9, 0.0, 2025-02-21 10:18:31.658
228.0, -142910.30382040786, 124269.5300900376, -175738.75793680645, 124425.16528667991, -187500.02235174447, 124403.4170393249, 124407.10507716001, -187500.02235174447, 0.05, 0.93, 0.34800000000000003, 192.0, 1.0, 144.0, 29.0, 16.0, 10.0, 224.0, 0.0, 0.0, 0.0, 1.7401439116581905E9, 0.0, 2025-02-21 10:18:31.658
229.0, -143168.35471014437, 124256.43196778679, -175902.7750376195, 124412.17892315137, -187500.02235174447, 124390.45302754082, 124393.62697525347, -187500.02235174447, 0.05, 0.93, 0.34800000000000003, 192.0, 0.0, 0.0, 0.0, 0.0, 0.0, 0.0, 0.0, 0.0, 0.0, 1.7401439116582153E9, 0.0, 2025-02-21 10:18:31.658
230.0, -143062.9662350376, 124246.82071767101, -175869.89562152573, 124402.4112108244, -187500.02235174447, 124380.88648091395, 124383.88161467096, -187500.02235174447, 0.05, 0.93, 0.34800000000000003, 192.0, 0.0, 0.0, 0.0, 0.0, 0.0, 0.0, 0.0, 0.0, 0.0, 1.7401439116582384E9, 0.0, 2025-02-21 10:18:31.658
231.0, -142826.97651707847, 124231.53212446359, -175707.44314282457, 124387.05556238361, -187500.02235174447, 124365.50848072869, 124368.99535286373, -187500.02235174447, 0.05, 0.93, 0.34800000000000003, 192.0, 0.0, 0.0, 0.0, 0.0, 0.0, 0.0, 0.0, 0.0, 0.0, 1.7401439116582615E9, 0.0, 2025-02-21 10:18:31.658
232.0, -142914.81887278782, 124213.49426668815, -175715.91445397312, 124369.08475984154, -187500.02235174447, 124347.38121597545, 124351.11395729947, -187500.02235174447, 0.05, 0.93, 0.34800000000000003, 192.0, 0.0, 0.0, 0.0, 0.0, 0.0, 0.0, 0.0, 0.0, 0.0, 1.740143911658284E9, 0.0, 2025-02-21 10:18:31.658
233.0, -143118.1303403533, 124204.12888576137, -175861.60312433282, 124359.69702717032, -187500.02235174447, 124338.03818679311, 124341.1003757835, -187500.02235174447, 0.05, 0.93, 0.34800000000000003, 192.0, 0.0, 0.0, 0.0, 0.0, 0.0, 0.0, 0.0, 0.0, 0.0, 1.7401439116583073E9, 0.0, 2025-02-21 10:18:31.658
234.0, -143002.9518011751, 124194.85291181243, -175824.16395237017, 124350.33164624353, -187500.02235174447, 124328.80691633308, 124331.46677392325, -187500.02235174447, 0.05, 0.93, 0.34800000000000003, 192.0, 0.0, 0.0, 0.0, 0.0, 0.0, 0.0, 0.0, 0.0, 0.0, 1.7401439116583304E9, 0.0, 2025-02-21 10:18:31.658
235.0, -142813.58782214974, 124180.95012676122, -175674.25080230844, 124336.40650944789, -187500.02235174447, 124314.85942779297, 124318.03337550562, -187500.02235174447, 0.05, 0.93, 0.34800000000000003, 192.0, 0.0, 0.0, 0.0, 0.0, 0.0, 0.0, 0.0, 0.0, 0.0, 1.740143911658353E9, 0.0, 2025-02-21 10:18:31.658
236.0, -142898.77032026893, 124161.1017776849, -175675.23427906446, 124316.55816037157, -187500.02235174447, 124295.05578220557, 124298.5873578295, -187500.02235174447, 0.05, 0.93, 0.34800000000000003, 192.0, 0.0, 0.0, 0.0, 0.0, 0.0, 0.0, 0.0, 0.0, 0.0, 1.7401439116583767E9, 0.0, 2025-02-21 10:18:31.658
237.0, -143110.3295815384, 124148.76361474558, -175824.3874698147, 124304.2870526656, -187500.02235174447, 124282.80702624406, 124285.84686348998, -187500.02235174447, 0.05, 0.93, 0.34800000000000003, 192.0, 0.0, 0.0, 0.0, 0.0, 0.0, 0.0, 0.0, 0.0, 0.0, 1.7401439116584008E9, 0.0, 2025-02-21 10:18:31.658
238.0, -143038.02168822548, 124140.87344895286, -175821.03470814644, 124296.32983163952, -187500.02235174447, 124274.82745347351, 124277.44260757478, -187500.02235174447, 0.04, 0.936, 0.354, 192.0, 1.0, 64.0, 29.0, 64.0, 11.0, 16.0, 0.0, 0.0, 0.0, 1.7401439116584284E9, 0.0, 2025-02-21 10:18:31.658
239.0, -142832.09506655874, 124125.92013191225, -175668.88638363915, 124281.42121808782, -187500.02235174447, 124259.829432944, 124262.75751146764, -187500.02235174447, 0.04, 0.936, 0.354, 192.0, 0.0, 0.0, 0.0, 0.0, 0.0, 0.0, 0.0, 0.0, 0.0, 1.740143911658464E9, 0.0, 2025-02-21 10:18:31.658
240.0, -142873.60225601224, 124105.75885841357, -175638.3091972243, 124261.2822963336, -187500.02235174447, 124239.55640072304, 124243.04327285806, -187500.02235174447, 0.04, 0.936, 0.354, 192.0, 0.0, 0.0, 0.0, 0.0, 0.0, 0.0, 0.0, 0.0, 0.0, 1.7401439116584885E9, 0.0, 2025-02-21 10:18:31.658
241.0, -143094.3257325084, 124093.15247454078, -175783.2379082725, 124248.72061594971, -187500.02235174447, 124227.06177557253, 124230.1686680518, -187500.02235174447, 0.04, 0.936, 0.354, 192.0, 0.0, 0.0, 0.0, 0.0, 0.0, 0.0, 0.0, 0.0, 0.0, 1.7401439116585128E9, 0.0, 2025-02-21 10:18:31.658
242.0, -143069.40353744072, 124086.89398609329, -175814.55270225438, 124242.35036877995, -187500.02235174447, 124220.84799061394, 124223.30668250403, -187500.02235174447, 0.04, 0.936, 0.354, 192.0, 0.0, 0.0, 0.0, 0.0, 0.0, 0.0, 0.0, 0.0, 0.0, 1.7401439116586175E9, 0.0, 2025-02-21 10:18:31.658
243.0, -142857.1290203487, 124074.06408477595, -175669.06519759478, 124229.38635699588, -187500.02235174447, 124207.92868231877, 124210.5661881645, -187500.02235174447, 0.04, 0.936, 0.354, 192.0, 0.0, 0.0, 0.0, 0.0, 0.0, 0.0, 0.0, 0.0, 0.0, 1.7401439116586466E9, 0.0, 2025-02-21 10:18:31.658
0.0, 0.0, 0.0, 0.0, 0.0, 0.0, 0.0, 0.0, 0.0, 0.046, 0.914, 0.354, 192.0, 1.0, 112.0, 28.0, 144.0, 11.0, 16.0, 0.0, 0.0, 0.0, 1.740143911728348E9, 0.0, 2025-02-21 10:18:31.728
1.0, -143551.8435897641, 107175.31826201896, -170310.61444409066, 107319.86699341143, -183089.35261837873, 107310.07692934001, 107288.32868198499, -187500.02235174447, 0.046, 0.914, 0.354, 192.0, 0.0, 0.0, 0.0, 0.0, 0.0, 0.0, 0.0, 0.0, 0.0, 1.740143912208094E9, 0.0, 2025-02-21 10:18:32.208
2.0, -143202.061140783, 107161.03549731201, -170175.45344536944, 107305.56187696003, -182916.8642064171, 107295.81651637751, 107273.97886204468, -187500.02235174447, 0.046, 0.914, 0.354, 192.0, 0.0, 0.0, 0.0, 0.0, 0.0, 0.0, 0.0, 0.0, 0.0, 1.7401439122081475E9, 0.0, 2025-02-21 10:18:32.208
3.0, -142843.1144765752, 107151.2901367295, -169986.33533553308, 107295.79416463306, -182782.4855187518, 107286.071155795, 107264.09939099544, -187500.02235174447, 0.046, 0.914, 0.354, 192.0, 0.0, 0.0, 0.0, 0.0, 0.0, 0.0, 0.0, 0.0, 0.0, 1.7401439122081742E9, 0.0, 2025-02-21 10:18:32.208
4.0, -143148.4393058347, 107138.52729064552, -170091.7461623843, 107283.09837378244, -182937.00312817135, 107273.30830971102, 107251.44830363373, -187500.02235174447, 0.046, 0.914, 0.354, 192.0, 0.0, 0.0, 0.0, 0.0, 0.0, 0.0, 0.0, 0.0, 0.0, 1.7401439122081995E9, 0.0, 2025-02-21 10:18:32.208
5.0, -143543.39463035998, 107123.50691837155, -170287.63685079062, 107267.9662427862, -183077.79676649533, 107258.2655856926, 107236.5173383376, -187500.02235174447, 0.046, 0.914, 0.354, 192.0, 0.0, 0.0, 0.0, 0.0, 0.0, 0.0, 0.0, 0.0, 0.0, 1.7401439122082248E9, 0.0, 2025-02-21 10:18:32.208
6.0, -143291.24460115965, 107107.57012457492, -170198.78866658077, 107251.85063503393, -182933.47155254742, 107242.28408840706, 107220.33467535194, -187500.02235174447, 0.046, 0.914, 0.354, 192.0, 0.0, 0.0, 0.0, 0.0, 0.0, 0.0, 0.0, 0.0, 0.0, 1.74014391220825E9, 0.0, 2025-02-21 10:18:32.208
7.0, -142869.4224797991, 107094.74022325757, -169987.05059135566, 107239.02073371658, -182766.54872495518, 107229.43183534525, 107207.34831182341, -187500.02235174447, 0.046, 0.914, 0.354, 192.0, 0.0, 0.0, 0.0, 0.0, 0.0, 0.0, 0.0, 0.0, 0.0, 1.7401439122082753E9, 0.0, 2025-02-21 10:18:32.208
8.0, -143057.4677059016, 107083.38553707428, -170037.29731289117, 107227.77780625556, -182881.34728447764, 107218.14420439533, 107196.1053843624, -187500.02235174447, 0.046, 0.928, 0.356, 192.0, 1.0, 112.0, 29.0, 0.0, 11.0, 32.0, 0.0, 0.0, 0.0, 1.7401439122082996E9, 0.0, 2025-02-21 10:18:32.208
9.0, -143512.66098173393, 107071.20383634613, -170253.50573700736, 107215.81962297198, -183055.28855982883, 107206.05191064501, 107184.23660805663, -187500.02235174447, 0.046, 0.928, 0.356, 192.0, 0.0, 0.0, 0.0, 0.0, 0.0, 0.0, 0.0, 0.0, 0.0, 1.7401439122083256E9, 0.0, 2025-02-21 10:18:32.208
10.0, -143372.58259923253, 107054.30591753793, -170218.50290519034, 107198.69818671921, -182952.38112835662, 107189.01988137006, 107167.18222703722, -187500.02235174447, 0.046, 0.928, 0.356, 192.0, 0.0, 0.0, 0.0, 0.0, 0.0, 0.0, 0.0, 0.0, 0.0, 1.7401439122083895E9, 0.0, 2025-02-21 10:18:32.208
11.0, -142911.26494541945, 107039.62082143078, -169998.09235311658, 107183.92368363425, -182761.96661734185, 107174.29008177402, 107152.22890999663, -187500.02235174447, 0.046, 0.928, 0.356, 192.0, 0.0, 0.0, 0.0, 0.0, 0.0, 0.0, 0.0, 0.0, 0.0, 1.7401439122084153E9, 0.0, 2025-02-21 10:18:32.208
12.0, -142976.4426322511, 107028.60141141432, -169988.23523381178, 107172.99368059561, -182821.48931282634, 107163.33772699091, 107141.20949998016, -187500.02235174447, 0.046, 0.928, 0.356, 192.0, 0.0, 0.0, 0.0, 0.0, 0.0, 0.0, 0.0, 0.0, 0.0, 1.74014391220844E9, 0.0, 2025-02-21 10:18:32.208
13.0, -143467.89043758996, 107015.95032405262, -170209.5175039193, 107160.43200021172, -183019.7492861449, 107150.70899137367, 107128.84898529637, -187500.02235174447, 0.046, 0.928, 0.356, 192.0, 0.0, 0.0, 0.0, 0.0, 0.0, 0.0, 0.0, 0.0, 0.0, 1.7401439122084763E9, 0.0, 2025-02-21 10:18:32.208
14.0, -143448.109143747, 107002.18164946816, -170235.17730655402, 107146.52921516052, -182975.71634956796, 107136.96266853366, 107115.01325547854, -187500.02235174447, 0.046, 0.928, 0.356, 192.0, 0.0, 0.0, 0.0, 0.0, 0.0, 0.0, 0.0, 0.0, 0.0, 1.7401439122085161E9, 0.0, 2025-02-21 10:18:32.208
15.0, -142970.78764090393, 106987.8988847612, -170019.79589698266, 107132.17939522021, -182772.3378267691, 107122.52344161553, 107100.5293250715, -187500.02235174447, 0.046, 0.928, 0.356, 192.0, 0.0, 0.0, 0.0, 0.0, 0.0, 0.0, 0.0, 0.0, 0.0, 1.740143912208542E9, 0.0, 2025-02-21 10:18:32.208
16.0, -142907.3310383953, 106974.84546599931, -169947.95739030332, 107119.01421773604, -182767.21927728885, 107109.47002285362, 107087.40885107624, -187500.02235174447, 0.046, 0.928, 0.356, 192.0, 0.0, 0.0, 0.0, 0.0, 0.0, 0.0, 0.0, 0.0, 0.0, 1.740143912208566E9, 0.0, 2025-02-21 10:18:32.208
17.0, -143403.78563449212, 106961.79204723741, -170158.10849167212, 107106.18431641869, -182973.34706465568, 107096.59541804736, 107074.62365324779, -187500.02235174447, 0.046, 0.928, 0.356, 192.0, 0.0, 0.0, 0.0, 0.0, 0.0, 0.0, 0.0, 0.0, 0.0, 1.7401439122085893E9, 0.0, 2025-02-21 10:18:32.208
18.0, -143507.74359795375, 106946.70461973008, -170239.64765544506, 107091.0745371669, -182988.76976832983, 107081.41858356222, 107059.55857748492, -187500.02235174447, 0.046, 0.932, 0.352, 192.0, 1.0, 112.0, 29.0, 32.0, 11.0, 0.0, 0.0, 0.0, 0.0, 1.740143912208613E9, 0.0, 2025-02-21 10:18:32.208
19.0, -143043.05083072794, 106932.57831723432, -170042.61702807155, 107076.85882769333, -182787.33584729861, 107067.18052234418, 107045.27581277798, -187500.02235174447, 0.046, 0.932, 0.352, 192.0, 0.0, 0.0, 0.0, 0.0, 0.0, 0.0, 0.0, 0.0, 0.0, 1.7401439122086377E9, 0.0, 2025-02-21 10:18:32.208
20.0, -142855.05030811433, 106919.12256707223, -169916.9108172549, 107063.38072578677, -182721.5770151111, 107053.72477218209, 107031.6636004047, -187500.02235174447, 0.046, 0.932, 0.352, 192.0, 0.0, 0.0, 0.0, 0.0, 0.0, 0.0, 0.0, 0.0, 0.0, 1.7401439122086608E9, 0.0, 2025-02-21 10:18:32.208
21.0, -143322.29117420808, 106906.69499715508, -170101.55857820017, 107050.99785935854, -182918.60764248463, 107041.43131273167, 107019.39249269874, -187500.02235174447, 0.046, 0.932, 0.352, 192.0, 0.0, 0.0, 0.0, 0.0, 0.0, 0.0, 0.0, 0.0, 0.0, 1.7401439122086844E9, 0.0, 2025-02-21 10:18:32.208
22.0, -143548.0884966956, 106889.88648532469, -170233.05389083075, 107034.21169927261, -182990.71437009744, 107024.7122078791, 107002.74044307953, -187500.02235174447, 0.046, 0.932, 0.352, 192.0, 0.0, 0.0, 0.0, 0.0, 0.0, 0.0, 0.0, 0.0, 0.0, 1.740143912208708E9, 0.0, 2025-02-21 10:18:32.208
23.0, -143124.1876631007, 106874.26261595043, -170065.32640043812, 107018.38666419825, -182803.54086202872, 107008.97657978257, 106986.8483527718, -187500.02235174447, 0.046, 0.932, 0.352, 192.0, 0.0, 0.0, 0.0, 0.0, 0.0, 0.0, 0.0, 0.0, 0.0, 1.7401439122087317E9, 0.0, 2025-02-21 10:18:32.208
24.0, -142828.69760140154, 106864.98664200147, -169899.67762227985, 107008.99893152702, -182690.06105542913, 106999.56649536687, 106977.37121312275, -187500.02235174447, 0.046, 0.932, 0.352, 192.0, 0.0, 0.0, 0.0, 0.0, 0.0, 0.0, 0.0, 0.0, 0.0, 1.7401439122087553E9, 0.0, 2025-02-21 10:18:32.208
25.0, -143227.76564690657, 106850.23449066097, -170041.34297863758, 106994.42559414216, -182858.63791211104, 106984.88139925974, 106962.7978757379, -187500.02235174447, 0.046, 0.932, 0.352, 192.0, 0.0, 0.0, 0.0, 0.0, 0.0, 0.0, 0.0, 0.0, 0.0, 1.7401439122087848E9, 0.0, 2025-02-21 10:18:32.208
26.0, -143564.36056665904, 106834.49886256443, -170215.59717841115, 106978.77937302344, -182981.7960240598, 106969.21282639657, 106947.28576508591, -187500.02235174447, 0.046, 0.932, 0.352, 192.0, 0.0, 0.0, 0.0, 0.0, 0.0, 0.0, 0.0, 0.0, 0.0, 1.740143912208808E9, 0.0, 2025-02-21 10:18:32.208
27.0, -143213.8628618554, 106817.4668332895, -170089.06395304966, 106961.61323328177, -182822.83041749365, 106952.06903839935, 106930.09727359978, -187500.02235174447, 0.046, 0.932, 0.352, 192.0, 0.0, 0.0, 0.0, 0.0, 0.0, 0.0, 0.0, 0.0, 0.0, 1.7401439122088313E9, 0.0, 2025-02-21 10:18:32.208
28.0, -142825.09897054423, 106805.12867035017, -169888.88172970794, 106949.18566336461, -182665.9211714174, 106939.66382022666, 106917.5355932159, -187500.02235174447, 0.044, 0.926, 0.35000000000000003, 192.0, 1.0, 96.0, 28.0, 240.0, 10.0, 240.0, 0.0, 0.0, 0.0, 1.7401439122088544E9, 0.0, 2025-02-21 10:18:32.208
29.0, -143133.91067193873, 106795.8079929123, -169985.55302447715, 106939.97674464903, -182802.1997573614, 106930.47725325552, 106908.34902624477, -187500.02235174447, 0.044, 0.926, 0.35000000000000003, 192.0, 0.0, 0.0, 0.0, 0.0, 0.0, 0.0, 0.0, 0.0, 0.0, 1.740143912208891E9, 0.0, 2025-02-21 10:18:32.208
30.0, -143559.80081079016, 106782.77692589485, -170191.88197754408, 106926.9903811205, -182966.8874105081, 106917.51324147145, 106895.51912492742, -187500.02235174447, 0.044, 0.926, 0.35000000000000003, 192.0, 0.0, 0.0, 0.0, 0.0, 0.0, 0.0, 0.0, 0.0, 0.0, 1.740143912208914E9, 0.0, 2025-02-21 10:18:32.208
31.0, -143308.00840950114, 106767.15305652059, -170116.37778477406, 106911.34416000178, -182847.77496430578, 106901.86702035273, 106879.96231078653, -187500.02235174447, 0.044, 0.926, 0.35000000000000003, 192.0, 0.0, 0.0, 0.0, 0.0, 0.0, 0.0, 0.0, 0.0, 0.0, 1.7401439122089372E9, 0.0, 2025-02-21 10:18:32.208
32.0, -142857.4642965155, 106755.03841102582, -169898.82825599055, 106899.02834880691, -182663.1719068494, 106889.57356090231, 106867.51238912492, -187500.02235174447, 0.044, 0.926, 0.35000000000000003, 192.0, 0.0, 0.0, 0.0, 0.0, 0.0, 0.0, 0.0, 0.0, 0.0, 1.7401439122089605E9, 0.0, 2025-02-21 10:18:32.208
33.0, -143045.9565575071, 106745.9412510325, -169937.3179599426, 106890.02059579141, -182750.67898639193, 106880.61051137574, 106858.41522913161, -187500.02235174447, 0.044, 0.926, 0.35000000000000003, 192.0, 0.0, 0.0, 0.0, 0.0, 0.0, 0.0, 0.0, 0.0, 0.0, 1.7401439122089837E9, 0.0, 2025-02-21 10:18:32.208
34.0, -143528.59777553056, 106732.01611423686, -170157.54969806073, 106876.16251422913, -182941.11584915113, 106866.70772632453, 106844.7136097805, -187500.02235174447, 0.044, 0.926, 0.35000000000000003, 192.0, 0.0, 0.0, 0.0, 0.0, 0.0, 0.0, 0.0, 0.0, 0.0, 1.7401439122090073E9, 0.0, 2025-02-21 10:18:32.209
35.0, -143395.18021287682, 106715.36406461765, -170137.2543140953, 106859.39870588765, -182868.60679013812, 106850.01097321641, 106827.88274620567, -187500.02235174447, 0.044, 0.926, 0.35000000000000003, 192.0, 0.0, 0.0, 0.0, 0.0, 0.0, 0.0, 0.0, 0.0, 0.0, 1.7401439122090304E9, 0.0, 2025-02-21 10:18:32.209
36.0, -142911.95784949756, 106702.5341633003, -169916.0614509656, 106846.50174933694, -182667.97753190727, 106836.97990619898, 106814.82932744376, -187500.02235174447, 0.044, 0.926, 0.35000000000000003, 192.0, 0.0, 0.0, 0.0, 0.0, 0.0, 0.0, 0.0, 0.0, 0.0, 1.7401439122090535E9, 0.0, 2025-02-21 10:18:32.209
37.0, -142963.00923383347, 106689.81602070523, -169890.26753786416, 106833.60479278622, -182696.99009621027, 106824.217060115, 106802.06648135978, -187500.02235174447, 0.044, 0.926, 0.35000000000000003, 192.0, 0.0, 0.0, 0.0, 0.0, 0.0, 0.0, 0.0, 0.0, 0.0, 1.7401439122090764E9, 0.0, 2025-02-21 10:18:32.209
38.0, -143472.2043242698, 106676.06969786521, -170111.21453180487, 106820.10433913521, -182902.00029635435, 106810.8060134418, 106788.6554346866, -187500.02235174447, 0.044, 0.916, 0.34800000000000003, 192.0, 1.0, 96.0, 28.0, 160.0, 10.0, 224.0, 0.0, 0.0, 0.0, 1.7401439122090993E9, 0.0, 2025-02-21 10:18:32.209
39.0, -143470.5726469246, 106662.16691281402, -170151.60413403562, 106806.22390582848, -182885.23648801286, 106796.92558013507, 106774.77500137985, -187500.02235174447, 0.044, 0.916, 0.34800000000000003, 192.0, 0.0, 0.0, 0.0, 0.0, 0.0, 0.0, 0.0, 0.0, 0.0, 1.7401439122091236E9, 0.0, 2025-02-21 10:18:32.209
40.0, -142982.20938232058, 106648.19707252945, -169938.614361121, 106792.11995507717, -182679.26516285722, 106782.7545741504, 106760.55929190628, -187500.02235174447, 0.044, 0.916, 0.34800000000000003, 192.0, 0.0, 0.0, 0.0, 0.0, 0.0, 0.0, 0.0, 0.0, 0.0, 1.740143912209153E9, 0.0, 2025-02-21 10:18:32.209
41.0, -142898.0774161908, 106636.4177032015, -169854.8400229025, 106780.29588226031, -182652.107793344, 106770.97520482245, 106748.73521908942, -187500.02235174447, 0.044, 0.916, 0.34800000000000003, 192.0, 0.0, 0.0, 0.0, 0.0, 0.0, 0.0, 0.0, 0.0, 0.0, 1.7401439122091763E9, 0.0, 2025-02-21 10:18:32.209
42.0, -143399.2929338566, 106621.97847628337, -170060.40901665797, 106766.10252453119, -182856.916827788, 106756.69244011551, 106734.65362008258, -187500.02235174447, 0.044, 0.916, 0.34800000000000003, 192.0, 0.0, 0.0, 0.0, 0.0, 0.0, 0.0, 0.0, 0.0, 0.0, 1.7401439122091992E9, 0.0, 2025-02-21 10:18:32.209
43.0, -143528.91069995295, 106609.52855462176, -170157.169718405, 106753.63025112514, -182895.3618282511, 106744.30957368728, 106722.22605016542, -187500.02235174447, 0.044, 0.916, 0.34800000000000003, 192.0, 0.0, 0.0, 0.0, 0.0, 0.0, 0.0, 0.0, 0.0, 0.0, 1.740143912209222E9, 0.0, 2025-02-21 10:18:32.209
44.0, -143064.79907808293, 106594.86581025909, -169965.43645446736, 106738.85574804018, -182696.3195438766, 106729.51271885786, 106707.27273312483, -187500.02235174447, 0.044, 0.916, 0.34800000000000003, 192.0, 0.0, 0.0, 0.0, 0.0, 0.0, 0.0, 0.0, 0.0, 0.0, 1.7401439122092571E9, 0.0, 2025-02-21 10:18:32.209
45.0, -142854.44681101403, 106583.19819965342, -169830.40956621285, 106727.12108220113, -182615.8532638375, 106717.80040476327, 106695.51571554133, -187500.02235174447, 0.044, 0.916, 0.34800000000000003, 192.0, 0.0, 0.0, 0.0, 0.0, 0.0, 0.0, 0.0, 0.0, 0.0, 1.7401439122092805E9, 0.0, 2025-02-21 10:18:32.209
46.0, -143315.38448517138, 106571.5529407922, -170008.86589394402, 106715.47582333992, -182808.79352197572, 106706.26690462434, 106684.00456714685, -187500.02235174447, 0.044, 0.916, 0.34800000000000003, 192.0, 0.0, 0.0, 0.0, 0.0, 0.0, 0.0, 0.0, 0.0, 0.0, 1.7401439122093036E9, 0.0, 2025-02-21 10:18:32.209
47.0, -143565.634616093, 106556.10788537358, -170152.14057590254, 106700.09782315468, -182896.43471198497, 106690.97831141691, 106668.73832568388, -187500.02235174447, 0.044, 0.916, 0.34800000000000003, 192.0, 0.0, 0.0, 0.0, 0.0, 0.0, 0.0, 0.0, 0.0, 0.0, 1.7401439122093267E9, 0.0, 2025-02-21 10:18:32.209
48.0, -143156.2400646496, 106542.92035614495, -169995.25368157073, 106686.84323869267, -182718.00073599824, 106677.63431997709, 106655.3272790107, -187500.02235174447, 0.044, 0.918, 0.354, 192.0, 1.0, 96.0, 28.0, 176.0, 11.0, 16.0, 0.0, 0.0, 0.0, 1.7401439122093496E9, 0.0, 2025-02-21 10:18:32.209
49.0, -142836.63247068317, 106529.73282691633, -169817.69142361777, 106673.56630248623, -182589.61231584696, 106664.29032853727, 106641.93858408196, -187500.02235174447, 0.044, 0.918, 0.354, 192.0, 0.0, 0.0, 0.0, 0.0, 0.0, 0.0, 0.0, 0.0, 0.0, 1.7401439122093744E9, 0.0, 2025-02-21 10:18:32.209
50.0, -143222.8035596375, 106518.73576864431, -169953.88060258396, 106662.70335468094, -182754.92581783843, 106653.4720842209, 106631.14269151005, -187500.02235174447, 0.044, 0.918, 0.354, 192.0, 0.0, 0.0, 0.0, 0.0, 0.0, 0.0, 0.0, 0.0, 0.0, 1.7401439122093973E9, 0.0, 2025-02-21 10:18:32.209
51.0, -143579.80562207766, 106505.12355627104, -170137.83545945113, 106649.06879056321, -182889.88565085956, 106639.9716305699, 106617.6198861146, -187500.02235174447, 0.044, 0.918, 0.354, 192.0, 0.0, 0.0, 0.0, 0.0, 0.0, 0.0, 0.0, 0.0, 0.0, 1.740143912209423E9, 0.0, 2025-02-21 10:18:32.209
52.0, -143248.44101052775, 106489.79025957469, -170022.65692027294, 106633.6684386335, -182740.06190777564, 106624.54892689573, 106602.19718244043, -187500.02235174447, 0.044, 0.918, 0.354, 192.0, 0.0, 0.0, 0.0, 0.0, 0.0, 0.0, 0.0, 0.0, 0.0, 1.7401439122094474E9, 0.0, 2025-02-21 10:18:32.209
53.0, -142842.93566261957, 106473.80876228915, -169814.56217939404, 106617.55283088122, -182572.71439703877, 106608.410967399, 106585.96981596587, -187500.02235174447, 0.044, 0.918, 0.354, 192.0, 0.0, 0.0, 0.0, 0.0, 0.0, 0.0, 0.0, 0.0, 0.0, 1.7401439122094715E9, 0.0, 2025-02-21 10:18:32.209
54.0, -143121.99719214407, 106459.83892200458, -169894.58142454404, 106603.69474931894, -182694.03966594217, 106594.55288583672, 106572.11173440359, -187500.02235174447, 0.044, 0.918, 0.354, 192.0, 0.0, 0.0, 0.0, 0.0, 0.0, 0.0, 0.0, 0.0, 0.0, 1.740143912209496E9, 0.0, 2025-02-21 10:18:32.209
55.0, -143562.81829629163, 106447.45605557635, -170106.78888640273, 106591.37893812406, -182866.68454011495, 106582.2594263863, 106559.95238541989, -187500.02235174447, 0.044, 0.918, 0.354, 192.0, 0.0, 0.0, 0.0, 0.0, 0.0, 0.0, 0.0, 0.0, 0.0, 1.7401439122095268E9, 0.0, 2025-02-21 10:18:32.209
56.0, -143335.05402029207, 106432.74860772474, -170043.68991180538, 106576.6044350391, -182757.8315446176, 106567.37316457905, 106545.11082710157, -187500.02235174447, 0.044, 0.918, 0.354, 192.0, 0.0, 0.0, 0.0, 0.0, 0.0, 0.0, 0.0, 0.0, 0.0, 1.740143912209551E9, 0.0, 2025-02-21 10:18:32.209
57.0, -142878.25141885894, 106421.48332851927, -169825.71569987724, 106565.20504536689, -182569.9874842152, 106555.92907141794, 106533.57732696264, -187500.02235174447, 0.044, 0.918, 0.354, 192.0, 0.0, 0.0, 0.0, 0.0, 0.0, 0.0, 0.0, 0.0, 0.0, 1.740143912209576E9, 0.0, 2025-02-21 10:18:32.209
58.0, -143037.55230159193, 106411.98383712576, -169850.839060645, 106555.79496095121, -182645.3128630296, 106546.4966352578, 106524.14489080249, -187500.02235174447, 0.042, 0.92, 0.35000000000000003, 192.0, 1.0, 80.0, 28.0, 192.0, 10.0, 240.0, 0.0, 0.0, 0.0, 1.7401439122095988E9, 0.0, 2025-02-21 10:18:32.209
59.0, -143526.69787725186, 106396.82935438507, -170072.143682497, 106540.66282995496, -182839.3036531572, 106531.47626298384, 106509.2362772508, -187500.02235174447, 0.042, 0.92, 0.35000000000000003, 192.0, 0.0, 0.0, 0.0, 0.0, 0.0, 0.0, 0.0, 0.0, 0.0, 1.7401439122097075E9, 0.0, 2025-02-21 10:18:32.209
60.0, -143417.7107712878, 106379.97613906577, -170063.5382608817, 106523.80961463567, -182776.85287914908, 106514.6901028979, 106492.33835844259, -187500.02235174447, 0.042, 0.92, 0.35000000000000003, 192.0, 0.0, 0.0, 0.0, 0.0, 0.0, 0.0, 0.0, 0.0, 0.0, 1.740143912209731E9, 0.0, 2025-02-21 10:18:32.209
61.0, -142933.01319277444, 106366.72155460376, -169843.21711578575, 106510.4432714514, -182574.52488833963, 106501.32375971363, 106478.81555304714, -187500.02235174447, 0.042, 0.92, 0.35000000000000003, 192.0, 0.0, 0.0, 0.0, 0.0, 0.0, 0.0, 0.0, 0.0, 0.0, 1.740143912209754E9, 0.0, 2025-02-21 10:18:32.209
62.0, -142957.08602155282, 106356.90913878789, -169807.09669674595, 106500.5861521466, -182593.6579815934, 106491.51134389774, 106469.09254420908, -187500.02235174447, 0.042, 0.92, 0.35000000000000003, 192.0, 0.0, 0.0, 0.0, 0.0, 0.0, 0.0, 0.0, 0.0, 0.0, 1.740143912209777E9, 0.0, 2025-02-21 10:18:32.209
63.0, -143464.29180673265, 106342.8051880366, -170025.45088832985, 106486.70571883986, -182798.86934743755, 106477.5862071021, 106455.23446264678, -187500.02235174447, 0.042, 0.92, 0.35000000000000003, 192.0, 0.0, 0.0, 0.0, 0.0, 0.0, 0.0, 0.0, 0.0, 0.0, 1.7401439122098E9, 0.0, 2025-02-21 10:18:32.209
64.0, -143490.64451344544, 106326.6448767954, -170077.01636278824, 106470.54540759866, -182792.67791422343, 106461.40354411645, 106439.02944791669, -187500.02235174447, 0.042, 0.92, 0.35000000000000003, 192.0, 0.0, 0.0, 0.0, 0.0, 0.0, 0.0, 0.0, 0.0, 0.0, 1.7401439122098324E9, 0.0, 2025-02-21 10:18:32.209
65.0, -143006.17045237668, 106313.09971965548, -169868.0052003867, 106456.84378824757, -182587.42184489034, 106447.7242765098, 106425.23842158777, -187500.02235174447, 0.042, 0.92, 0.35000000000000003, 192.0, 0.0, 0.0, 0.0, 0.0, 0.0, 0.0, 0.0, 0.0, 0.0, 1.7401439122098556E9, 0.0, 2025-02-21 10:18:32.209
66.0, -142892.28831437687, 106300.71685322725, -169771.15509166184, 106444.34916309705, -182547.05459440406, 106435.29670659265, 106412.7661481817, -187500.02235174447, 0.042, 0.92, 0.35000000000000003, 192.0, 0.0, 0.0, 0.0, 0.0, 0.0, 0.0, 0.0, 0.0, 0.0, 1.7401439122098792E9, 0.0, 2025-02-21 10:18:32.209
67.0, -143387.20064010628, 106287.32815829852, -169973.08075107107, 106431.16163386843, -182751.34953872557, 106422.04212213066, 106399.64567418644, -187500.02235174447, 0.042, 0.92, 0.35000000000000003, 192.0, 0.0, 0.0, 0.0, 0.0, 0.0, 0.0, 0.0, 0.0, 0.0, 1.7401439122099023E9, 0.0, 2025-02-21 10:18:32.209
68.0, -143544.2887001382, 106272.6877656803, -170080.9055663235, 106416.61064822802, -182800.76924571625, 106407.44643300134, 106385.09468854603, -187500.02235174447, 0.044, 0.924, 0.354, 192.0, 1.0, 96.0, 28.0, 224.0, 11.0, 16.0, 0.0, 0.0, 0.0, 1.7401439122099257E9, 0.0, 2025-02-21 10:18:32.209
69.0, -143090.54828769545, 106258.6285184179, -169896.21310188927, 106402.32788352108, -182605.3032404546, 106393.25307527222, 106370.74486860572, -187500.02235174447, 0.044, 0.924, 0.354, 192.0, 0.0, 0.0, 0.0, 0.0, 0.0, 0.0, 0.0, 0.0, 0.0, 1.7401439122099504E9, 0.0, 2025-02-21 10:18:32.209
70.0, -142855.22912206998, 106247.31853572352, -169751.15028037434, 106390.92849384887, -182514.0857713325, 106382.0101478112, 106359.34547893352, -187500.02235174447, 0.044, 0.924, 0.354, 192.0, 0.0, 0.0, 0.0, 0.0, 0.0, 0.0, 0.0, 0.0, 0.0, 1.7401439122099802E9, 0.0, 2025-02-21 10:18:32.209
71.0, -143303.71687456573, 106234.95802103974, -169922.23053243526, 106378.70208963181, -182703.0250672132, 106369.69433661633, 106347.23083343873, -187500.02235174447, 0.044, 0.924, 0.354, 192.0, 0.0, 0.0, 0.0, 0.0, 0.0, 0.0, 0.0, 0.0, 0.0, 1.7401439122100031E9, 0.0, 2025-02-21 10:18:32.210
72.0, -143579.60445637756, 106220.11646272142, -170077.1057697661, 106364.03934526914, -182802.71384748386, 106354.91983353137, 106332.52338558715, -187500.02235174447, 0.044, 0.924, 0.354, 192.0, 0.0, 0.0, 0.0, 0.0, 0.0, 0.0, 0.0, 0.0, 0.0, 1.7401439122100263E9, 0.0, 2025-02-21 10:18:32.210
73.0, -143181.56459111747, 106204.93962823626, -169926.11973597048, 106348.61664159497, -182626.87267385397, 106339.63124032394, 106317.16773714636, -187500.02235174447, 0.044, 0.924, 0.354, 192.0, 0.0, 0.0, 0.0, 0.0, 0.0, 0.0, 0.0, 0.0, 0.0, 1.7401439122100496E9, 0.0, 2025-02-21 10:18:32.210
74.0, -142840.6557846851, 106192.82498274148, -169740.93553315825, 106336.45729261129, -182489.6776663873, 106327.42718785134, 106304.80722246256, -187500.02235174447, 0.044, 0.924, 0.354, 192.0, 0.0, 0.0, 0.0, 0.0, 0.0, 0.0, 0.0, 0.0, 0.0, 1.7401439122100847E9, 0.0, 2025-02-21 10:18:32.210
75.0, -143208.051408297, 106180.82209596898, -169867.088778864, 106324.52146107215, -182648.0174241087, 106315.46900456776, 106292.96079790125, -187500.02235174447, 0.044, 0.924, 0.354, 192.0, 0.0, 0.0, 0.0, 0.0, 0.0, 0.0, 0.0, 0.0, 0.0, 1.7401439122101076E9, 0.0, 2025-02-21 10:18:32.210
76.0, -143584.7900610912, 106164.32650856096, -170057.77151081225, 106307.95881843076, -182790.26392582225, 106298.97341715974, 106276.53226572661, -187500.02235174447, 0.044, 0.924, 0.354, 192.0, 0.0, 0.0, 0.0, 0.0, 0.0, 0.0, 0.0, 0.0, 0.0, 1.7401439122101307E9, 0.0, 2025-02-21 10:18:32.210
77.0, -143272.2232666282, 106149.64141245383, -169952.85242233903, 106293.25137057918, -182647.4586304973, 106284.28832105259, 106261.73541089719, -187500.02235174447, 0.044, 0.924, 0.354, 192.0, 0.0, 0.0, 0.0, 0.0, 0.0, 0.0, 0.0, 0.0, 0.0, 1.7401439122101536E9, 0.0, 2025-02-21 10:18:32.210
78.0, -142853.99977612493, 106139.6054791934, -169743.7742047041, 106283.17073382983, -182477.69713135925, 106274.20768430326, 106251.52066368112, -187500.02235174447, 0.036000000000000004, 0.928, 0.36, 192.0, 1.0, 32.0, 29.0, 0.0, 11.0, 64.0, 0.0, 0.0, 0.0, 1.7401439122101767E9, 0.0, 2025-02-21 10:18:32.210
79.0, -143109.14493908227, 106125.88150809784, -169812.3270049485, 106269.5361697121, -182590.5063856252, 106260.5284166966, 106237.95315479675, -187500.02235174447, 0.036000000000000004, 0.928, 0.36, 192.0, 0.0, 0.0, 0.0, 0.0, 0.0, 0.0, 0.0, 0.0, 0.0, 1.7401439122102013E9, 0.0, 2025-02-21 10:18:32.210
80.0, -143562.61713059153, 106109.22945847863, -170026.881399975, 106252.97352707072, -182766.884001122, 106243.96577405522, 106221.50227087764, -187500.02235174447, 0.036000000000000004, 0.928, 0.36, 192.0, 0.0, 0.0, 0.0, 0.0, 0.0, 0.0, 0.0, 0.0, 0.0, 1.7401439122102244E9, 0.0, 2025-02-21 10:18:32.210
81.0, -143359.99856710416, 106094.29849318249, -169976.03118133917, 106237.9755065412, -182666.8152411956, 106228.99010527016, 106206.48189860367, -187500.02235174447, 0.036000000000000004, 0.928, 0.36, 192.0, 0.0, 0.0, 0.0, 0.0, 0.0, 0.0, 0.0, 0.0, 0.0, 1.7401439122102473E9, 0.0, 2025-02-21 10:18:32.210
82.0, -142886.65567477414, 106082.38501338781, -169751.73142573016, 106225.95026802424, -182470.87984930037, 106217.00957024212, 106194.32254961999, -187500.02235174447, 0.036000000000000004, 0.928, 0.36, 192.0, 0.0, 0.0, 0.0, 0.0, 0.0, 0.0, 0.0, 0.0, 0.0, 1.7401439122102704E9, 0.0, 2025-02-21 10:18:32.210
83.0, -143015.62524028125, 106069.286891137, -169760.80623397903, 106212.89684926234, -182532.92829190832, 106203.93379973577, 106181.35853783591, -187500.02235174447, 0.036000000000000004, 0.928, 0.36, 192.0, 0.0, 0.0, 0.0, 0.0, 0.0, 0.0, 0.0, 0.0, 0.0, 1.7401439122102933E9, 0.0, 2025-02-21 10:18:32.210
84.0, -143517.57836551408, 106053.84183571838, -169986.8270739111, 106197.5188490771, -182733.44579141686, 106188.53344780607, 106166.00288939511, -187500.02235174447, 0.036000000000000004, 0.928, 0.36, 192.0, 0.0, 0.0, 0.0, 0.0, 0.0, 0.0, 0.0, 0.0, 0.0, 1.740143912210317E9, 0.0, 2025-02-21 10:18:32.210
85.0, -143438.11791397547, 106039.89434717827, -169993.8231699256, 106183.54900879253, -182683.24377337025, 106174.5636075215, 106151.98834562163, -187500.02235174447, 0.036000000000000004, 0.928, 0.36, 192.0, 0.0, 0.0, 0.0, 0.0, 0.0, 0.0, 0.0, 0.0, 0.0, 1.7401439122103462E9, 0.0, 2025-02-21 10:18:32.210
86.0, -142947.4971231815, 106029.16550983972, -169773.3679143629, 106172.64135749835, -182478.322980204, 106163.70065971621, 106140.94658386071, -187500.02235174447, 0.036000000000000004, 0.928, 0.36, 192.0, 0.0, 0.0, 0.0, 0.0, 0.0, 0.0, 0.0, 0.0, 0.0, 1.740143912210369E9, 0.0, 2025-02-21 10:18:32.210
87.0, -142941.17157950063, 106019.71072193513, -169723.8588003944, 106163.09716261592, -182486.92840181928, 106154.22352006717, 106131.51414770057, -187500.02235174447, 0.036000000000000004, 0.928, 0.36, 192.0, 0.0, 0.0, 0.0, 0.0, 0.0, 0.0, 0.0, 0.0, 0.0, 1.7401439122103922E9, 0.0, 2025-02-21 10:18:32.210
88.0, -143455.52992290616, 106004.53388744997, -169944.2246489793, 106148.12149383087, -182696.78893051017, 106139.27020302656, 106116.71729287117, -187500.02235174447, 0.044, 0.9400000000000001, 0.362, 192.0, 1.0, 96.0, 29.0, 96.0, 11.0, 80.0, 0.0, 0.0, 0.0, 1.7401439122104151E9, 0.0, 2025-02-21 10:18:32.210
89.0, -143508.45885377633, 105989.44645994264, -170008.6870799884, 106133.19052853472, -182699.6723055449, 106124.2945342415, 106101.67456885274, -187500.02235174447, 0.044, 0.9400000000000001, 0.362, 192.0, 0.0, 0.0, 0.0, 0.0, 0.0, 0.0, 0.0, 0.0, 0.0, 1.7401439122104516E9, 0.0, 2025-02-21 10:18:32.210
90.0, -143021.30258337292, 105974.35903243531, -169798.31246117502, 106117.9466388162, -182490.34821872096, 106109.07299626744, 106086.3412721564, -187500.02235174447, 0.044, 0.9400000000000001, 0.362, 192.0, 0.0, 0.0, 0.0, 0.0, 0.0, 0.0, 0.0, 0.0, 0.0, 1.7401439122104745E9, 0.0, 2025-02-21 10:18:32.210
91.0, -142878.96667468152, 105964.05487824141, -169690.44294243373, 106107.62013287786, -182441.57671231948, 106098.76884207355, 106075.97006272913, -187500.02235174447, 0.044, 0.9400000000000001, 0.362, 192.0, 0.0, 0.0, 0.0, 0.0, 0.0, 0.0, 0.0, 0.0, 0.0, 1.7401439122104974E9, 0.0, 2025-02-21 10:18:32.210
92.0, -143370.05685210906, 105951.3590873908, -169890.37929658644, 106094.9466937717, -182647.3692235195, 106086.07305122293, 106063.47543757861, -187500.02235174447, 0.044, 0.9400000000000001, 0.362, 192.0, 0.0, 0.0, 0.0, 0.0, 0.0, 0.0, 0.0, 0.0, 0.0, 1.7401439122105205E9, 0.0, 2025-02-21 10:18:32.210
93.0, -143555.9786624883, 105935.31053487188, -170009.7376119778, 106079.00989997506, -182705.30494514763, 106070.11390568185, 106047.49394029308, -187500.02235174447, 0.044, 0.9400000000000001, 0.362, 192.0, 0.0, 0.0, 0.0, 0.0, 0.0, 0.0, 0.0, 0.0, 0.0, 1.7401439122105439E9, 0.0, 2025-02-21 10:18:32.210
94.0, -143108.0273518595, 105921.0501219094, -169827.86146734495, 106064.6377282903, -182508.7884078966, 106055.71938225263, 106032.96530639712, -187500.02235174447, 0.044, 0.9400000000000001, 0.362, 192.0, 0.0, 0.0, 0.0, 0.0, 0.0, 0.0, 0.0, 0.0, 0.0, 1.7401439122105668E9, 0.0, 2025-02-21 10:18:32.210
95.0, -142842.44392424155, 105907.54966825839, -169668.71704682315, 106051.04786766147, -182405.56805200197, 106042.1295216238, 106019.3754457683, -187500.02235174447, 0.044, 0.9400000000000001, 0.362, 192.0, 0.0, 0.0, 0.0, 0.0, 0.0, 0.0, 0.0, 0.0, 0.0, 1.74014391221059E9, 0.0, 2025-02-21 10:18:32.210
96.0, -143275.7101387632, 105894.2503803075, -169832.22005751374, 106037.74857971056, -182591.37810365894, 106028.91964065071, 106006.25497177303, -187500.02235174447, 0.044, 0.9400000000000001, 0.362, 192.0, 0.0, 0.0, 0.0, 0.0, 0.0, 0.0, 0.0, 0.0, 0.0, 1.7401439122106128E9, 0.0, 2025-02-21 10:18:32.210
97.0, -143575.40232841996, 105876.74896439898, -169995.5666059931, 106020.38127426879, -182697.3253723771, 106011.61939044231, 105988.93236982016, -187500.02235174447, 0.044, 0.9400000000000001, 0.362, 192.0, 0.0, 0.0, 0.0, 0.0, 0.0, 0.0, 0.0, 0.0, 0.0, 1.740143912210636E9, 0.0, 2025-02-21 10:18:32.210
98.0, -143194.72976860162, 105864.16493227065, -169854.080063591, 106007.73018690708, -182526.2898238051, 105998.9683030806, 105976.14717199173, -187500.02235174447, 0.044, 0.9380000000000001, 0.364, 192.0, 1.0, 96.0, 29.0, 80.0, 11.0, 96.0, 0.0, 0.0, 0.0, 1.7401439122106593E9, 0.0, 2025-02-21 10:18:32.210
99.0, -142832.98913633695, 105852.1843972426, -169660.33514265242, 105995.63789315676, -182381.76344415708, 105986.83130584138, 105964.03252649696, -187500.02235174447, 0.044, 0.9380000000000001, 0.364, 192.0, 0.0, 0.0, 0.0, 0.0, 0.0, 0.0, 0.0, 0.0, 0.0, 1.740143912210684E9, 0.0, 2025-02-21 10:18:32.210
100.0, -143177.02718699304, 105839.89093779218, -169775.6701440418, 105983.38913719525, -182534.04587913107, 105974.51549464649, 105951.89552925773, -187500.02235174447, 0.044, 0.9380000000000001, 0.364, 192.0, 0.0, 0.0, 0.0, 0.0, 0.0, 0.0, 0.0, 0.0, 0.0, 1.740143912210713E9, 0.0, 2025-02-21 10:18:32.210
101.0, -143577.90572379896, 105826.77046379691, -169978.35576276254, 105970.33571843336, -182687.53530830567, 105961.48442762905, 105938.97622096256, -187500.02235174447, 0.044, 0.9380000000000001, 0.364, 192.0, 0.0, 0.0, 0.0, 0.0, 0.0, 0.0, 0.0, 0.0, 0.0, 1.7401439122107365E9, 0.0, 2025-02-21 10:18:32.210
102.0, -143288.38357786936, 105812.91238223463, -169884.21021511676, 105956.38822989324, -182550.80968747256, 105947.64869781122, 105924.96167718909, -187500.02235174447, 0.044, 0.9380000000000001, 0.364, 192.0, 0.0, 0.0, 0.0, 0.0, 0.0, 0.0, 0.0, 0.0, 0.0, 1.7401439122107592E9, 0.0, 2025-02-21 10:18:32.210
103.0, -142855.0279563699, 105800.93184720658, -169667.9570875117, 105944.31828788738, -182373.9403335977, 105935.62345929426, 105912.73527297203, -187500.02235174447, 0.044, 0.9380000000000001, 0.364, 192.0, 0.0, 0.0, 0.0, 0.0, 0.0, 0.0, 0.0, 0.0, 0.0, 1.7401439122107825E9, 0.0, 2025-02-21 10:18:32.210
104.0, -143085.56384868192, 105790.98532092397, -169727.88211439637, 105934.43881683813, -182482.21218373923, 105925.72163650056, 105902.90050541169, -187500.02235174447, 0.044, 0.9380000000000001, 0.364, 192.0, 0.0, 0.0, 0.0, 0.0, 0.0, 0.0, 0.0, 0.0, 0.0, 1.740143912210817E9, 0.0, 2025-02-21 10:18:32.210
105.0, -143554.41404037643, 105778.02130913989, -169950.50548917122, 105921.4971567985, -182667.4187382959, 105912.80232820539, 105890.11530758326, -187500.02235174447, 0.044, 0.9380000000000001, 0.364, 192.0, 0.0, 0.0, 0.0, 0.0, 0.0, 0.0, 0.0, 0.0, 0.0, 1.7401439122108397E9, 0.0, 2025-02-21 10:18:32.210
106.0, -143378.84108768, 105762.82212291028, -169911.59110207454, 105906.29797056889, -182575.4413098623, 105897.51373499796, 105874.87141786474, -187500.02235174447, 0.044, 0.9380000000000001, 0.364, 192.0, 0.0, 0.0, 0.0, 0.0, 0.0, 0.0, 0.0, 0.0, 0.0, 1.7401439122108629E9, 0.0, 2025-02-21 10:18:32.210
107.0, -142899.3291138803, 105749.05344832581, -169684.51973015306, 105892.46224075106, -182375.28143826502, 105883.65565343568, 105860.81217060235, -187500.02235174447, 0.044, 0.9380000000000001, 0.364, 192.0, 0.0, 0.0, 0.0, 0.0, 0.0, 0.0, 0.0, 0.0, 0.0, 1.740143912210886E9, 0.0, 2025-02-21 10:18:32.210
108.0, -142996.17922260513, 105734.72598012997, -169678.77533182804, 105878.15712429967, -182425.52815980057, 105869.46229570656, 105846.5294058954, -187500.02235174447, 0.044, 0.936, 0.356, 192.0, 1.0, 96.0, 29.0, 64.0, 11.0, 32.0, 0.0, 0.0, 0.0, 1.7401439122109163E9, 0.0, 2025-02-21 10:18:32.210
109.0, -143502.71445545132, 105720.73378810094, -169906.6513665499, 105864.27669099292, -182630.18073203336, 105855.5371589109, 105832.85013828876, -187500.02235174447, 0.044, 0.936, 0.356, 192.0, 0.0, 0.0, 0.0, 0.0, 0.0, 0.0, 0.0, 0.0, 0.0, 1.7401439122109516E9, 0.0, 2025-02-21 10:18:32.210
110.0, -143452.42303042687, 105707.00981700538, -169926.67852958187, 105850.55271989736, -182590.81931004755, 105841.74613258197, 105819.03676021539, -187500.02235174447, 0.044, 0.936, 0.356, 192.0, 0.0, 0.0, 0.0, 0.0, 0.0, 0.0, 0.0, 0.0, 0.0, 1.7401439122109754E9, 0.0, 2025-02-21 10:18:32.210
111.0, -142961.39990823268, 105694.22461917695, -169706.2009222747, 105837.56635636883, -182383.5068802246, 105828.84917603126, 105805.91628622012, -187500.02235174447, 0.044, 0.936, 0.356, 192.0, 0.0, 0.0, 0.0, 0.0, 0.0, 0.0, 0.0, 0.0, 0.0, 1.7401439122109988E9, 0.0, 2025-02-21 10:18:32.210
112.0, -142924.3407159258, 105683.0487469493, -169642.16317441026, 105826.50224286345, -182378.52244121104, 105817.69565554806, 105794.76276573692, -187500.02235174447, 0.044, 0.936, 0.356, 192.0, 0.0, 0.0, 0.0, 0.0, 0.0, 0.0, 0.0, 0.0, 0.0, 1.740143912211022E9, 0.0, 2025-02-21 10:18:32.211
113.0, -143433.53580636214, 105669.36947934264, -169859.26566830467, 105812.86767874572, -182588.3606181575, 105804.15049840814, 105781.35171906374, -187500.02235174447, 0.044, 0.936, 0.356, 192.0, 0.0, 0.0, 0.0, 0.0, 0.0, 0.0, 0.0, 0.0, 0.0, 1.7401439122110453E9, 0.0, 2025-02-21 10:18:32.211
114.0, -143512.39276080046, 105652.44920878997, -169934.0099017632, 105795.9250564486, -182601.72696134174, 105787.20787611102, 105764.45380025552, -187500.02235174447, 0.044, 0.936, 0.356, 192.0, 0.0, 0.0, 0.0, 0.0, 0.0, 0.0, 0.0, 0.0, 0.0, 1.7401439122110682E9, 0.0, 2025-02-21 10:18:32.211
115.0, -143037.17232193617, 105638.65818246105, -169731.6595592093, 105782.11167837521, -182397.40966527577, 105773.4168497821, 105750.41690473759, -187500.02235174447, 0.044, 0.936, 0.356, 192.0, 0.0, 0.0, 0.0, 0.0, 0.0, 0.0, 0.0, 0.0, 0.0, 1.740143912211099E9, 0.0, 2025-02-21 10:18:32.211
116.0, -142870.09303213275, 105626.27531603281, -169611.96596765114, 105769.59470148024, -182335.33887092338, 105760.98927986495, 105737.98933482044, -187500.02235174447, 0.044, 0.936, 0.356, 192.0, 0.0, 0.0, 0.0, 0.0, 0.0, 0.0, 0.0, 0.0, 0.0, 1.7401439122111225E9, 0.0, 2025-02-21 10:18:32.211
117.0, -143345.62639541941, 105613.3783594821, -169802.91692053282, 105756.74244841844, -182535.05170763156, 105748.11467505869, 105725.24884048091, -187500.02235174447, 0.044, 0.936, 0.356, 192.0, 0.0, 0.0, 0.0, 0.0, 0.0, 0.0, 0.0, 0.0, 0.0, 1.7401439122111456E9, 0.0, 2025-02-21 10:18:32.211
118.0, -143552.35767988654, 105597.79919359674, -169931.4618028953, 105741.23033776645, -182604.63268812094, 105732.5578609178, 105709.75908157339, -187500.02235174447, 0.046, 0.9380000000000001, 0.36, 192.0, 1.0, 112.0, 29.0, 80.0, 11.0, 64.0, 0.0, 0.0, 0.0, 1.7401439122111688E9, 0.0, 2025-02-21 10:18:32.211
119.0, -143123.40535204476, 105583.49407714535, -169760.20273687874, 105726.88051782615, -182416.43099980726, 105718.09628225521, 105695.20809593298, -187500.02235174447, 0.046, 0.9380000000000001, 0.36, 192.0, 0.0, 0.0, 0.0, 0.0, 0.0, 0.0, 0.0, 0.0, 0.0, 1.7401439122112207E9, 0.0, 2025-02-21 10:18:32.211
120.0, -142846.2213690545, 105572.58642585117, -169598.19729306668, 105715.86110780969, -182306.99685895408, 105707.14392747212, 105684.0992789387, -187500.02235174447, 0.046, 0.9380000000000001, 0.36, 192.0, 0.0, 0.0, 0.0, 0.0, 0.0, 0.0, 0.0, 0.0, 0.0, 1.740143912211244E9, 0.0, 2025-02-21 10:18:32.211
121.0, -143255.817086198, 105560.22591116738, -169749.67506524027, 105703.5005931259, -182482.59216339496, 105695.00693023288, 105671.96228169947, -187500.02235174447, 0.046, 0.9380000000000001, 0.36, 192.0, 0.0, 0.0, 0.0, 0.0, 0.0, 0.0, 0.0, 0.0, 0.0, 1.7401439126874533E9, 0.0, 2025-02-21 10:18:32.687
122.0, -143571.24490395127, 105546.07725692716, -169920.73296555676, 105689.48604935242, -182600.47526365225, 105680.92533122604, 105658.01479315935, -187500.02235174447, 0.046, 0.9380000000000001, 0.36, 192.0, 0.0, 0.0, 0.0, 0.0, 0.0, 0.0, 0.0, 0.0, 0.0, 1.7401439126875186E9, 0.0, 2025-02-21 10:18:32.687
123.0, -143212.23118451014, 105530.18516661944, -169788.70121105926, 105673.48220032243, -182437.9110262288, 105664.80972347377, 105641.89918540708, -187500.02235174447, 0.046, 0.9380000000000001, 0.36, 192.0, 0.0, 0.0, 0.0, 0.0, 0.0, 0.0, 0.0, 0.0, 0.0, 1.7401439126875572E9, 0.0, 2025-02-21 10:18:32.687
124.0, -142844.54498822035, 105518.96459090288, -169594.3751447648, 105662.19456937248, -182288.31080058942, 105653.43268554601, 105630.52214747932, -187500.02235174447, 0.046, 0.9380000000000001, 0.36, 192.0, 0.0, 0.0, 0.0, 0.0, 0.0, 0.0, 0.0, 0.0, 0.0, 1.740143912687596E9, 0.0, 2025-02-21 10:18:32.687
125.0, -143160.66571005175, 105506.55937273019, -169695.87441633636, 105649.81170294425, -182426.89161621232, 105641.25098481787, 105618.2286880289, -187500.02235174447, 0.046, 0.9380000000000001, 0.36, 192.0, 0.0, 0.0, 0.0, 0.0, 0.0, 0.0, 0.0, 0.0, 0.0, 1.740143912687621E9, 0.0, 2025-02-21 10:18:32.687
126.0, -143565.00876724825, 105491.58370394513, -169897.37539260095, 105634.99249637038, -182583.8902692664, 105626.431778244, 105603.49888843285, -187500.02235174447, 0.046, 0.9380000000000001, 0.36, 192.0, 0.0, 0.0, 0.0, 0.0, 0.0, 0.0, 0.0, 0.0, 0.0, 1.7401439126876464E9, 0.0, 2025-02-21 10:18:32.687
127.0, -143304.34272341046, 105479.49141019481, -169818.76430735164, 105622.81079564225, -182462.65440734083, 105614.20537402695, 105591.36189119362, -187500.02235174447, 0.046, 0.9380000000000001, 0.36, 192.0, 0.0, 0.0, 0.0, 0.0, 0.0, 0.0, 0.0, 0.0, 0.0, 1.7401439126876714E9, 0.0, 2025-02-21 10:18:32.687
128.0, -142870.3836048107, 105467.13089551103, -169604.07580185842, 105610.31617049173, -182282.74521622006, 105601.77780410979, 105578.71080383191, -187500.02235174447, 0.044, 0.926, 0.354, 192.0, 1.0, 96.0, 28.0, 240.0, 11.0, 16.0, 0.0, 0.0, 0.0, 1.7401439126876967E9, 0.0, 2025-02-21 10:18:32.687
129.0, -143068.4647641736, 105453.20575871537, -169645.8959157343, 105596.36868195162, -182371.9957318301, 105587.8750190586, 105564.89742575854, -187500.02235174447, 0.044, 0.926, 0.354, 192.0, 0.0, 0.0, 0.0, 0.0, 0.0, 0.0, 0.0, 0.0, 0.0, 1.7401439126877341E9, 0.0, 2025-02-21 10:18:32.687
130.0, -143534.85626397806, 105438.25244167478, -169864.40656952938, 105581.59417886665, -182557.7834317426, 105573.05581248473, 105550.07821918467, -187500.02235174447, 0.044, 0.926, 0.354, 192.0, 0.0, 0.0, 0.0, 0.0, 0.0, 0.0, 0.0, 0.0, 0.0, 1.740143912687802E9, 0.0, 2025-02-21 10:18:32.687
131.0, -143384.22785809374, 105422.71797927833, -169837.47271746074, 105566.03736472577, -182479.28410521557, 105557.54370183275, 105534.56610853269, -187500.02235174447, 0.044, 0.926, 0.354, 192.0, 0.0, 0.0, 0.0, 0.0, 0.0, 0.0, 0.0, 0.0, 0.0, 1.7401439126878388E9, 0.0, 2025-02-21 10:18:32.687
132.0, -142913.4330646316, 105409.84337447207, -169616.99511015357, 105552.9615942194, -182281.53822201947, 105544.46793132639, 105521.3115240707, -187500.02235174447, 0.044, 0.926, 0.354, 192.0, 0.0, 0.0, 0.0, 0.0, 0.0, 0.0, 0.0, 0.0, 0.0, 1.7401439126878643E9, 0.0, 2025-02-21 10:18:32.687
133.0, -142984.98099863305, 105398.95807492234, -169601.5277029905, 105542.14334990304, -182319.80440852695, 105533.62733526557, 105510.49327975432, -187500.02235174447, 0.044, 0.926, 0.354, 192.0, 0.0, 0.0, 0.0, 0.0, 0.0, 0.0, 0.0, 0.0, 0.0, 1.7401439126878912E9, 0.0, 2025-02-21 10:18:32.687
134.0, -143483.35784475302, 105383.73653694827, -169822.92173182033, 105527.03357065126, -182522.06534410303, 105518.5622595027, 105495.60701794708, -187500.02235174447, 0.044, 0.926, 0.354, 192.0, 0.0, 0.0, 0.0, 0.0, 0.0, 0.0, 0.0, 0.0, 0.0, 1.7401439126880243E9, 0.0, 2025-02-21 10:18:32.688
135.0, -143455.41816418388, 105367.48681872927, -169851.9342961233, 105510.73914894334, -182493.74568387817, 105502.31254128368, 105479.26789275026, -187500.02235174447, 0.044, 0.926, 0.354, 192.0, 0.0, 0.0, 0.0, 0.0, 0.0, 0.0, 0.0, 0.0, 0.0, 1.7401439126880505E9, 0.0, 2025-02-21 10:18:32.688
136.0, -142978.81191716337, 105356.57916743508, -169641.3361598654, 105499.80914590468, -182292.73644599158, 105491.31548301167, 105468.11437226705, -187500.02235174447, 0.044, 0.926, 0.354, 192.0, 0.0, 0.0, 0.0, 0.0, 0.0, 0.0, 0.0, 0.0, 0.0, 1.7401439126880753E9, 0.0, 2025-02-21 10:18:32.688
137.0, -142914.59535534328, 105344.53157717366, -169565.02730429498, 105487.71685215436, -182272.55282074845, 105479.33494798362, 105456.17854072792, -187500.02235174447, 0.044, 0.926, 0.354, 192.0, 0.0, 0.0, 0.0, 0.0, 0.0, 0.0, 0.0, 0.0, 0.0, 1.7401439126881E9, 0.0, 2025-02-21 10:18:32.688
138.0, -143411.07230318454, 105332.79691133463, -169775.33486787498, 105476.07159329315, -182478.94882904875, 105467.6449856335, 105444.57798535562, -187500.02235174447, 0.04, 0.924, 0.36, 192.0, 1.0, 64.0, 28.0, 224.0, 11.0, 64.0, 0.0, 0.0, 0.0, 1.740143912688125E9, 0.0, 2025-02-21 10:18:32.688
139.0, -143518.65124924795, 105316.74835881572, -169863.13252009542, 105460.04539251869, -182507.9390416073, 105451.59643311458, 105428.57413632562, -187500.02235174447, 0.04, 0.924, 0.36, 192.0, 0.0, 0.0, 0.0, 0.0, 0.0, 0.0, 0.0, 0.0, 0.0, 1.740143912688152E9, 0.0, 2025-02-21 10:18:32.688
140.0, -143056.68539484567, 105302.08561445304, -169668.71704682315, 105445.20383420037, -182308.11444617683, 105436.75487479626, 105413.6878745184, -187500.02235174447, 0.04, 0.924, 0.36, 192.0, 0.0, 0.0, 0.0, 0.0, 0.0, 0.0, 0.0, 0.0, 0.0, 1.7401439126881764E9, 0.0, 2025-02-21 10:18:32.688
141.0, -142867.0755466313, 105290.61916954747, -169540.35097841633, 105433.69268580589, -182234.84542785233, 105425.17667116842, 105402.06496740163, -187500.02235174447, 0.04, 0.924, 0.36, 192.0, 0.0, 0.0, 0.0, 0.0, 0.0, 0.0, 0.0, 0.0, 0.0, 1.7401439126882017E9, 0.0, 2025-02-21 10:18:32.688
142.0, -143325.26395622065, 105277.096364152, -169721.3107015265, 105420.32634262161, -182427.47276156818, 105411.74327275077, 105388.74332770627, -187500.02235174447, 0.04, 0.924, 0.36, 192.0, 0.0, 0.0, 0.0, 0.0, 0.0, 0.0, 0.0, 0.0, 0.0, 1.7401439126882262E9, 0.0, 2025-02-21 10:18:32.688
143.0, -143553.00588047574, 105259.99727964369, -169857.76810142616, 105403.29431334668, -182507.2237857847, 105394.77829870919, 105371.75600192024, -187500.02235174447, 0.04, 0.924, 0.36, 192.0, 0.0, 0.0, 0.0, 0.0, 0.0, 0.0, 0.0, 0.0, 0.0, 1.7401439126882508E9, 0.0, 2025-02-21 10:18:32.688
144.0, -143139.47625630812, 105245.02161085865, -169695.11445702487, 105388.20688583933, -182324.76649579604, 105379.73557469077, 105356.57916743508, -187500.02235174447, 0.04, 0.924, 0.36, 192.0, 0.0, 0.0, 0.0, 0.0, 0.0, 0.0, 0.0, 0.0, 0.0, 1.7401439126882756E9, 0.0, 2025-02-21 10:18:32.688
145.0, -142843.69562193105, 105235.5891746985, -169526.80582127642, 105378.64033921246, -182206.6598780942, 105370.23608329726, 105346.94556557485, -187500.02235174447, 0.04, 0.924, 0.36, 192.0, 0.0, 0.0, 0.0, 0.0, 0.0, 0.0, 0.0, 0.0, 0.0, 1.740143912688309E9, 0.0, 2025-02-21 10:18:32.688
146.0, -143231.36427776387, 105222.04401755858, -169666.21365144418, 105365.25164428374, -182372.46511846368, 105356.86974011299, 105333.62392587948, -187500.02235174447, 0.04, 0.924, 0.36, 192.0, 0.0, 0.0, 0.0, 0.0, 0.0, 0.0, 0.0, 0.0, 0.0, 1.7401439126883345E9, 0.0, 2025-02-21 10:18:32.688
147.0, -143564.47232538133, 105205.32491270601, -169842.72537740774, 105348.59959466453, -182497.90310834686, 105340.15063526043, 105317.03893149363, -187500.02235174447, 0.04, 0.924, 0.36, 192.0, 0.0, 0.0, 0.0, 0.0, 0.0, 0.0, 0.0, 0.0, 0.0, 1.7401439126883597E9, 0.0, 2025-02-21 10:18:32.688
148.0, -143227.54212946203, 105191.80210731055, -169723.83644864993, 105334.94267880234, -182345.91124605076, 105326.58312637605, 105303.27025690916, -187500.02235174447, 0.052000000000000005, 0.92, 0.354, 192.0, 1.0, 160.0, 28.0, 192.0, 11.0, 16.0, 0.0, 0.0, 0.0, 1.7401439126883852E9, 0.0, 2025-02-21 10:18:32.688
149.0, -142845.34965102075, 105179.62040658241, -169524.0565567084, 105322.69392284083, -182188.46555810756, 105314.33437041455, 105290.97679745874, -187500.02235174447, 0.052000000000000005, 0.92, 0.354, 192.0, 0.0, 0.0, 0.0, 0.0, 0.0, 0.0, 0.0, 0.0, 0.0, 1.7401439126884267E9, 0.0, 2025-02-21 10:18:32.688
150.0, -143136.45877080664, 105166.87991224289, -169612.77063045153, 105309.9534285013, -182316.07166720292, 105301.61622781948, 105278.3033583526, -187500.02235174447, 0.052000000000000005, 0.92, 0.354, 192.0, 0.0, 0.0, 0.0, 0.0, 0.0, 0.0, 0.0, 0.0, 0.0, 1.740143912688452E9, 0.0, 2025-02-21 10:18:32.688
151.0, -143554.2352264208, 105153.24534812514, -169819.59132189647, 105296.40827136139, -182481.00518953864, 105288.09342242402, 105264.8923116794, -187500.02235174447, 0.052000000000000005, 0.92, 0.354, 192.0, 0.0, 0.0, 0.0, 0.0, 0.0, 0.0, 0.0, 0.0, 0.0, 1.7401439126884773E9, 0.0, 2025-02-21 10:18:32.688
152.0, -143316.45736890525, 105140.48250204117, -169752.0219984081, 105283.55601829958, -182368.95589458419, 105275.24116936221, 105251.99535512869, -187500.02235174447, 0.052000000000000005, 0.92, 0.354, 192.0, 0.0, 0.0, 0.0, 0.0, 0.0, 0.0, 0.0, 0.0, 0.0, 1.7401439126885023E9, 0.0, 2025-02-21 10:18:32.688
153.0, -142873.8704769457, 105127.7643594461, -169534.94185625814, 105270.83787570451, -182184.06226444987, 105262.43361978933, 105239.09839857799, -187500.02235174447, 0.052000000000000005, 0.92, 0.354, 192.0, 0.0, 0.0, 0.0, 0.0, 0.0, 0.0, 0.0, 0.0, 0.0, 1.740143912688527E9, 0.0, 2025-02-21 10:18:32.688
154.0, -143046.5153511185, 105115.06856859548, -169565.45198743965, 105258.07502962054, -182263.27684679948, 105249.6931254498, 105226.44731121628, -187500.02235174447, 0.052000000000000005, 0.92, 0.354, 192.0, 0.0, 0.0, 0.0, 0.0, 0.0, 0.0, 0.0, 0.0, 0.0, 1.740143912688552E9, 0.0, 2025-02-21 10:18:32.688
155.0, -143520.95347892685, 105101.0093213331, -169786.60014708046, 105244.10518933597, -182454.38426189235, 105235.81269214305, 105212.65628488736, -187500.02235174447, 0.052000000000000005, 0.92, 0.354, 192.0, 0.0, 0.0, 0.0, 0.0, 0.0, 0.0, 0.0, 0.0, 0.0, 1.7401439126885767E9, 0.0, 2025-02-21 10:18:32.688
156.0, -143395.4484338103, 105084.53608566953, -169771.24449863966, 105227.52019495014, -182385.83146164793, 105219.29475299058, 105196.04893875706, -187500.02235174447, 0.052000000000000005, 0.92, 0.354, 192.0, 0.0, 0.0, 0.0, 0.0, 0.0, 0.0, 0.0, 0.0, 0.0, 1.740143912688602E9, 0.0, 2025-02-21 10:18:32.688
157.0, -142921.5243961244, 105071.43796341872, -169551.32568494388, 105214.28796223259, -182185.67159005065, 105206.10722376195, 105182.59318859497, -187500.02235174447, 0.052000000000000005, 0.92, 0.354, 192.0, 0.0, 0.0, 0.0, 0.0, 0.0, 0.0, 0.0, 0.0, 0.0, 1.7401439126886265E9, 0.0, 2025-02-21 10:18:32.688
158.0, -142961.33285299933, 105055.85879753338, -169518.8038967614, 105198.7311480917, -182207.66570659468, 105190.43865089878, 105166.99167096516, -187500.02235174447, 0.044, 0.922, 0.356, 192.0, 1.0, 96.0, 28.0, 208.0, 11.0, 32.0, 0.0, 0.0, 0.0, 1.740143912688651E9, 0.0, 2025-02-21 10:18:32.688
159.0, -143458.07802177407, 105041.10664619287, -169738.00745463461, 105184.06840372902, -182410.70895322668, 105175.79825828056, 105152.53009230258, -187500.02235174447, 0.044, 0.922, 0.356, 192.0, 0.0, 0.0, 0.0, 0.0, 0.0, 0.0, 0.0, 0.0, 0.0, 1.7401439126886773E9, 0.0, 2025-02-21 10:18:32.688
160.0, -143461.07315553108, 105028.00852394206, -169782.71094354521, 105170.90322624485, -182397.2532030646, 105162.58837730746, 105139.34256307395, -187500.02235174447, 0.044, 0.922, 0.356, 192.0, 0.0, 0.0, 0.0, 0.0, 0.0, 0.0, 0.0, 0.0, 0.0, 1.7401439126887228E9, 0.0, 2025-02-21 10:18:32.688
161.0, -142988.26670506797, 105016.3856168253, -169575.1302927888, 105159.21326389472, -182196.08750296684, 105150.94311844626, 105127.54084200154, -187500.02235174447, 0.044, 0.922, 0.356, 192.0, 0.0, 0.0, 0.0, 0.0, 0.0, 0.0, 0.0, 0.0, 0.0, 1.740143912688748E9, 0.0, 2025-02-21 10:18:32.688
162.0, -142898.74796852446, 105004.67330273072, -169488.04789639093, 105147.61270852241, -182165.42090957414, 105139.34256307395, 105115.87323139588, -187500.02235174447, 0.044, 0.922, 0.356, 192.0, 0.0, 0.0, 0.0, 0.0, 0.0, 0.0, 0.0, 0.0, 0.0, 1.7401439126887727E9, 0.0, 2025-02-21 10:18:32.688
163.0, -143386.30657032807, 104991.41871826873, -169692.2534337346, 105134.5145862716, -182368.82178411743, 105126.17738558978, 105102.97627484516, -187500.02235174447, 0.044, 0.922, 0.356, 192.0, 0.0, 0.0, 0.0, 0.0, 0.0, 0.0, 0.0, 0.0, 0.0, 1.7401439126888075E9, 0.0, 2025-02-21 10:18:32.688
164.0, -143518.89711843696, 104978.56646520692, -169792.79158029458, 105121.61762972089, -182410.12780787086, 105113.34748427242, 105090.16872527228, -187500.02235174447, 0.044, 0.922, 0.356, 192.0, 0.0, 0.0, 0.0, 0.0, 0.0, 0.0, 0.0, 0.0, 0.0, 1.7401439126888452E9, 0.0, 2025-02-21 10:18:32.688
165.0, -143070.1187932633, 104965.33423248939, -169606.26627281503, 105108.18423130325, -182215.53352064296, 105099.98114108815, 105076.64591987681, -187500.02235174447, 0.044, 0.922, 0.356, 192.0, 0.0, 0.0, 0.0, 0.0, 0.0, 0.0, 0.0, 0.0, 0.0, 1.7401439126888702E9, 0.0, 2025-02-21 10:18:32.688
166.0, -142858.00073838243, 104953.35369746134, -169468.44541650361, 105096.18134453075, -182132.16151382466, 105088.04530954902, 105064.50892263759, -187500.02235174447, 0.044, 0.922, 0.356, 192.0, 0.0, 0.0, 0.0, 0.0, 0.0, 0.0, 0.0, 0.0, 0.0, 1.7401439126888947E9, 0.0, 2025-02-21 10:18:32.688
167.0, -143301.86167977593, 104940.45674091062, -169642.07376743245, 105083.32909146894, -182320.51966434953, 105075.26011172058, 105051.81313178697, -187500.02235174447, 0.044, 0.922, 0.356, 192.0, 0.0, 0.0, 0.0, 0.0, 0.0, 0.0, 0.0, 0.0, 0.0, 1.7401439126889195E9, 0.0, 2025-02-21 10:18:32.688
168.0, -143549.51900834072, 104923.29060116895, -169786.577795336, 105066.18530347174, -182408.67494448126, 105058.07162023445, 105034.75875076756, -187500.02235174447, 0.042, 0.924, 0.352, 192.0, 1.0, 80.0, 28.0, 224.0, 11.0, 0.0, 0.0, 0.0, 0.0, 1.7401439126889443E9, 0.0, 2025-02-21 10:18:32.688
169.0, -143155.25658789356, 104911.33241788537, -169635.41294758476, 105054.13771321032, -182234.9124830857, 105046.00167822858, 105022.64410527279, -187500.02235174447, 0.042, 0.924, 0.352, 192.0, 0.0, 0.0, 0.0, 0.0, 0.0, 0.0, 0.0, 0.0, 0.0, 1.7401439126889703E9, 0.0, 2025-02-21 10:18:32.688
170.0, -142839.20292129554, 104899.55304855741, -169457.98480009852, 105042.20188167118, -182106.4346559566, 105034.06584668945, 105010.59651501138, -187500.02235174447, 0.042, 0.924, 0.352, 192.0, 0.0, 0.0, 0.0, 0.0, 0.0, 0.0, 0.0, 0.0, 0.0, 1.7401439126889951E9, 0.0, 2025-02-21 10:18:32.688
171.0, -143207.1126350299, 104887.88543795174, -169588.36252550632, 105030.6907332767, -182266.09316660085, 105022.4876430616, 104999.17477359471, -187500.02235174447, 0.042, 0.924, 0.352, 192.0, 0.0, 0.0, 0.0, 0.0, 0.0, 0.0, 0.0, 0.0, 0.0, 1.7401439126890197E9, 0.0, 2025-02-21 10:18:32.689
172.0, -143560.15843870144, 104873.51326626698, -169773.54672831856, 105016.40796856977, -182402.01412463357, 105008.24958184357, 104984.9814158656, -187500.02235174447, 0.042, 0.924, 0.352, 192.0, 0.0, 0.0, 0.0, 0.0, 0.0, 0.0, 0.0, 0.0, 0.0, 1.7401439126890512E9, 0.0, 2025-02-21 10:18:32.689
173.0, -143247.79280993855, 104860.99628937201, -169667.66651483375, 105003.82393644142, -182259.78997466445, 104995.64319797078, 104972.41973548172, -187500.02235174447, 0.042, 0.924, 0.352, 192.0, 0.0, 0.0, 0.0, 0.0, 0.0, 0.0, 0.0, 0.0, 0.0, 1.7401439126890757E9, 0.0, 2025-02-21 10:18:32.689
174.0, -142849.19415106706, 104847.20526304308, -169461.27050653344, 104989.98820662359, -182093.76121685043, 104981.80746815294, 104958.44989519715, -187500.02235174447, 0.042, 0.924, 0.352, 192.0, 0.0, 0.0, 0.0, 0.0, 0.0, 0.0, 0.0, 0.0, 0.0, 1.7401439126891003E9, 0.0, 2025-02-21 10:18:32.689
175.0, -143116.0739798634, 104833.10131229178, -169537.53465861495, 104975.97366285011, -182211.68902059665, 104967.83762786837, 104944.41299967922, -187500.02235174447, 0.042, 0.924, 0.352, 192.0, 0.0, 0.0, 0.0, 0.0, 0.0, 0.0, 0.0, 0.0, 0.0, 1.7401439126891322E9, 0.0, 2025-02-21 10:18:32.689
176.0, -143544.89219723849, 104817.92447780663, -169747.23872509465, 104960.86388359831, -182381.2940575235, 104952.79490384995, 104929.45968263861, -187500.02235174447, 0.042, 0.924, 0.352, 192.0, 0.0, 0.0, 0.0, 0.0, 0.0, 0.0, 0.0, 0.0, 0.0, 1.7401439126891568E9, 0.0, 2025-02-21 10:18:32.689
177.0, -143325.55452889856, 104802.16649796563, -169687.04547727652, 104945.03884852397, -182274.5197742605, 104936.94751703115, 104913.58994407534, -187500.02235174447, 0.042, 0.924, 0.352, 192.0, 0.0, 0.0, 0.0, 0.0, 0.0, 0.0, 0.0, 0.0, 0.0, 1.7401439126891816E9, 0.0, 2025-02-21 10:18:32.689
178.0, -142877.73732873646, 104789.20248618156, -169469.27243104845, 104932.00778150652, -182086.474548158, 104923.87174652479, 104900.44711833562, -187500.02235174447, 0.046, 0.926, 0.35000000000000003, 192.0, 1.0, 112.0, 28.0, 240.0, 10.0, 240.0, 0.0, 0.0, 0.0, 1.7401439126892135E9, 0.0, 2025-02-21 10:18:32.689
179.0, -143020.83319673935, 104775.83614299729, -169485.81272194537, 104918.6637900667, -182153.12745012372, 104910.55010682943, 104887.1031268958, -187500.02235174447, 0.046, 0.926, 0.35000000000000003, 192.0, 0.0, 0.0, 0.0, 0.0, 0.0, 0.0, 0.0, 0.0, 0.0, 1.740143912689247E9, 0.0, 2025-02-21 10:18:32.689
180.0, -143501.08277810607, 104762.29098585737, -169708.0561170645, 104905.20803990461, -182347.92290305175, 104897.02730143396, 104873.71443196708, -187500.02235174447, 0.046, 0.926, 0.35000000000000003, 192.0, 0.0, 0.0, 0.0, 0.0, 0.0, 0.0, 0.0, 0.0, 0.0, 1.7401439126892717E9, 0.0, 2025-02-21 10:18:32.689
181.0, -143403.98680019222, 104748.65642173964, -169707.2514542641, 104891.43936532014, -182292.69174250268, 104883.3033303384, 104859.99046087152, -187500.02235174447, 0.046, 0.926, 0.35000000000000003, 192.0, 0.0, 0.0, 0.0, 0.0, 0.0, 0.0, 0.0, 0.0, 0.0, 1.740143912689296E9, 0.0, 2025-02-21 10:18:32.689
182.0, -142931.8285503183, 104736.38531403367, -169490.37247781426, 104879.07885063635, -182092.86714707222, 104870.98751914353, 104847.40642874318, -187500.02235174447, 0.046, 0.926, 0.35000000000000003, 192.0, 0.0, 0.0, 0.0, 0.0, 0.0, 0.0, 0.0, 0.0, 0.0, 1.7401439126893213E9, 0.0, 2025-02-21 10:18:32.689
183.0, -142946.0889632808, 104724.2706685389, -169448.37354998273, 104866.91950165266, -182105.87586234522, 104858.82817015985, 104835.33648673732, -187500.02235174447, 0.046, 0.926, 0.35000000000000003, 192.0, 0.0, 0.0, 0.0, 0.0, 0.0, 0.0, 0.0, 0.0, 0.0, 1.7401439126893456E9, 0.0, 2025-02-21 10:18:32.689
184.0, -143440.71071633228, 104708.17741253108, -169663.77731129853, 104850.82624564484, -182308.3379636214, 104842.8466728743, 104819.46674817405, -187500.02235174447, 0.046, 0.926, 0.35000000000000003, 192.0, 0.0, 0.0, 0.0, 0.0, 0.0, 0.0, 0.0, 0.0, 0.0, 1.7401439126893704E9, 0.0, 2025-02-21 10:18:32.689
185.0, -143471.39966146942, 104696.33098796976, -169721.5118672266, 104839.06922806136, -182307.55565256544, 104831.11200703526, 104807.64267535719, -187500.02235174447, 0.046, 0.926, 0.35000000000000003, 192.0, 0.0, 0.0, 0.0, 0.0, 0.0, 0.0, 0.0, 0.0, 0.0, 1.7401439126893954E9, 0.0, 2025-02-21 10:18:32.689
186.0, -143002.23654535253, 104683.67990060805, -169517.261626394, 104826.30638197737, -182106.5911181678, 104818.41621618465, 104794.74571880647, -187500.02235174447, 0.046, 0.926, 0.35000000000000003, 192.0, 0.0, 0.0, 0.0, 0.0, 0.0, 0.0, 0.0, 0.0, 0.0, 1.7401439126894195E9, 0.0, 2025-02-21 10:18:32.689
187.0, -142885.04634917335, 104670.89470277962, -169417.63990135668, 104813.61059112675, -182063.00521647994, 104805.65337010067, 104781.91581748913, -187500.02235174447, 0.046, 0.926, 0.35000000000000003, 192.0, 0.0, 0.0, 0.0, 0.0, 0.0, 0.0, 0.0, 0.0, 0.0, 1.7401439126894443E9, 0.0, 2025-02-21 10:18:32.689
188.0, -143362.94899737227, 104657.08132470625, -169614.80463919695, 104799.81956479783, -182262.71805318812, 104791.86234377175, 104768.34830860476, -187500.02235174447, 0.046, 0.926, 0.352, 192.0, 1.0, 112.0, 28.0, 240.0, 11.0, 0.0, 0.0, 0.0, 0.0, 1.7401439126894689E9, 0.0, 2025-02-21 10:18:32.689
189.0, -143519.9252986819, 104641.05512393179, -169723.83644864993, 104783.81571576784, -182313.3894578683, 104775.99260520848, 104752.4785700415, -187500.02235174447, 0.046, 0.926, 0.352, 192.0, 0.0, 0.0, 0.0, 0.0, 0.0, 0.0, 0.0, 0.0, 0.0, 1.7401439126894948E9, 0.0, 2025-02-21 10:18:32.689
190.0, -143081.4734794466, 104627.75583598088, -169544.30723718493, 104770.47172432802, -182122.32674626433, 104762.53685504638, 104738.91106115712, -187500.02235174447, 0.046, 0.926, 0.352, 192.0, 0.0, 0.0, 0.0, 0.0, 0.0, 0.0, 0.0, 0.0, 0.0, 1.7401439126895275E9, 0.0, 2025-02-21 10:18:32.689
191.0, -142844.38852600916, 104614.72476896344, -169395.86930225723, 104757.41830556611, -182026.9071491846, 104749.41638105111, 104725.79058716186, -187500.02235174447, 0.046, 0.926, 0.352, 192.0, 0.0, 0.0, 0.0, 0.0, 0.0, 0.0, 0.0, 0.0, 0.0, 1.7401439126895525E9, 0.0, 2025-02-21 10:18:32.689
192.0, -143273.78788874007, 104601.55959147926, -169560.57930714838, 104744.45429378204, -182209.49854964, 104736.43001752258, 104712.87127886669, -187500.02235174447, 0.046, 0.926, 0.352, 192.0, 0.0, 0.0, 0.0, 0.0, 0.0, 0.0, 0.0, 0.0, 0.0, 1.7401439126895773E9, 0.0, 2025-02-21 10:18:32.689
193.0, -143546.14389492798, 104586.85214362766, -169716.32626251297, 104729.724494186, -182310.4837310891, 104721.7672731599, 104698.23088624846, -187500.02235174447, 0.046, 0.926, 0.352, 192.0, 0.0, 0.0, 0.0, 0.0, 0.0, 0.0, 0.0, 0.0, 0.0, 1.7401439126896088E9, 0.0, 2025-02-21 10:18:32.689
194.0, -143165.04665196498, 104571.80941960924, -169571.50931018704, 104714.48060446748, -182140.16343833966, 104706.56808693029, 104683.0093482744, -187500.02235174447, 0.046, 0.926, 0.352, 192.0, 0.0, 0.0, 0.0, 0.0, 0.0, 0.0, 0.0, 0.0, 0.0, 1.7401439126896396E9, 0.0, 2025-02-21 10:18:32.689
195.0, -142831.64803166964, 104560.92412005951, -169388.47087484252, 104703.64000840664, -182003.92955588456, 104695.6604356361, 104671.94523476902, -187500.02235174447, 0.046, 0.926, 0.352, 192.0, 0.0, 0.0, 0.0, 0.0, 0.0, 0.0, 0.0, 0.0, 0.0, 1.7401439126896648E9, 0.0, 2025-02-21 10:18:32.689
196.0, -143180.71522482816, 104550.01646876532, -169508.8573704788, 104692.82176409027, -182156.4355083031, 104684.81983957528, 104661.21639743047, -187500.02235174447, 0.046, 0.926, 0.352, 192.0, 0.0, 0.0, 0.0, 0.0, 0.0, 0.0, 0.0, 0.0, 0.0, 1.7401439126896896E9, 0.0, 2025-02-21 10:18:32.689
197.0, -143550.77070603022, 104534.90668951353, -169699.96478557168, 104677.84609530523, -182300.29133561748, 104669.82181904577, 104646.30778387879, -187500.02235174447, 0.046, 0.926, 0.352, 192.0, 0.0, 0.0, 0.0, 0.0, 0.0, 0.0, 0.0, 0.0, 0.0, 1.7401439126897144E9, 0.0, 2025-02-21 10:18:32.689
198.0, -143255.5041617756, 104521.16036667352, -169602.533531491, 104663.96566199847, -182164.5491915404, 104656.03079271685, 104632.42735057203, -187500.02235174447, 0.05, 0.932, 0.356, 192.0, 1.0, 144.0, 29.0, 32.0, 11.0, 32.0, 0.0, 0.0, 0.0, 1.740143912689739E9, 0.0, 2025-02-21 10:18:32.689
199.0, -142848.3671365222, 104510.7668055018, -169396.00341272395, 104653.3038798933, -181995.97233485847, 104645.50312107839, 104621.85497544467, -187500.02235174447, 0.05, 0.932, 0.356, 192.0, 0.0, 0.0, 0.0, 0.0, 0.0, 0.0, 0.0, 0.0, 0.0, 1.7401439126897655E9, 0.0, 2025-02-21 10:18:32.689
200.0, -143089.09542430585, 104497.22164836188, -169459.32590476584, 104639.91518496457, -182102.76896986592, 104631.95796393848, 104608.46628051595, -187500.02235174447, 0.05, 0.932, 0.356, 192.0, 0.0, 0.0, 0.0, 0.0, 0.0, 0.0, 0.0, 0.0, 0.0, 1.74014391268979E9, 0.0, 2025-02-21 10:18:32.689
201.0, -143532.2187581323, 104484.10117436662, -169674.3496864259, 104626.97352492495, -182280.64415224126, 104619.08335913222, 104595.5916757097, -187500.02235174447, 0.05, 0.932, 0.356, 192.0, 0.0, 0.0, 0.0, 0.0, 0.0, 0.0, 0.0, 0.0, 0.0, 1.7401439126898143E9, 0.0, 2025-02-21 10:18:32.689
202.0, -143340.3290319835, 104469.75135442632, -169628.41685157025, 104612.40018754009, -182186.2527354065, 104604.62178046964, 104581.04069006929, -187500.02235174447, 0.05, 0.932, 0.356, 192.0, 0.0, 0.0, 0.0, 0.0, 0.0, 0.0, 0.0, 0.0, 0.0, 1.740143912689839E9, 0.0, 2025-02-21 10:18:32.689
203.0, -142886.38745384067, 104457.72611590936, -169410.66615708664, 104600.26319030086, -181995.50294822492, 104592.37302450812, 104568.6801753855, -187500.02235174447, 0.05, 0.932, 0.356, 192.0, 0.0, 0.0, 0.0, 0.0, 0.0, 0.0, 0.0, 0.0, 0.0, 1.7401439126898634E9, 0.0, 2025-02-21 10:18:32.689
204.0, -143002.7059319861, 104444.650345403, -169414.64476759968, 104587.23212328341, -182050.80116400734, 104579.36430923514, 104555.71616360142, -187500.02235174447, 0.05, 0.932, 0.356, 192.0, 0.0, 0.0, 0.0, 0.0, 0.0, 0.0, 0.0, 0.0, 0.0, 1.7401439126898885E9, 0.0, 2025-02-21 10:18:32.689
205.0, -143483.13432730848, 104428.04299927271, -169633.06601441695, 104570.87064634213, -182245.03782332395, 104563.04753578277, 104539.4217418935, -187500.02235174447, 0.05, 0.932, 0.356, 192.0, 0.0, 0.0, 0.0, 0.0, 0.0, 0.0, 0.0, 0.0, 0.0, 1.7401439126899214E9, 0.0, 2025-02-21 10:18:32.689
206.0, -143414.2015474083, 104413.15673746547, -169644.66656978926, 104555.85027406816, -182201.04959023593, 104548.11657048661, 104524.49077659736, -187500.02235174447, 0.05, 0.932, 0.356, 192.0, 0.0, 0.0, 0.0, 0.0, 0.0, 0.0, 0.0, 0.0, 0.0, 1.740143912689946E9, 0.0, 2025-02-21 10:18:32.689
207.0, -142939.9422335556, 104399.85744951457, -169428.56990439535, 104542.30511692824, -181998.78865465985, 104534.61611683562, 104510.81150899071, -187500.02235174447, 0.05, 0.932, 0.356, 192.0, 0.0, 0.0, 0.0, 0.0, 0.0, 0.0, 0.0, 0.0, 0.0, 1.7401439126899707E9, 0.0, 2025-02-21 10:18:32.689
208.0, -142923.91603278113, 104386.98284470831, -169372.51172930142, 104529.51991909981, -181998.43102674856, 104521.74151202936, 104497.95925592892, -187500.02235174447, 0.05, 0.93, 0.36, 192.0, 1.0, 144.0, 29.0, 16.0, 11.0, 64.0, 0.0, 0.0, 0.0, 1.740143912690003E9, 0.0, 2025-02-21 10:18:32.690
209.0, -143416.43672185382, 104373.8847224575, -169586.0826475719, 104516.51120382681, -182202.68126758115, 104508.665741523, 104485.08465112266, -187500.02235174447, 0.05, 0.93, 0.36, 192.0, 0.0, 0.0, 0.0, 0.0, 0.0, 0.0, 0.0, 0.0, 0.0, 1.7401439126900365E9, 0.0, 2025-02-21 10:18:32.690
210.0, -143478.08283306158, 104360.76424846223, -169656.535346095, 104503.39072983155, -182214.41593342018, 104495.54526752773, 104472.03123236075, -187500.02235174447, 0.05, 0.93, 0.36, 192.0, 0.0, 0.0, 0.0, 0.0, 0.0, 0.0, 0.0, 0.0, 0.0, 1.7401439126900618E9, 0.0, 2025-02-21 10:18:32.690
211.0, -143012.47364431305, 104346.30266979965, -169455.3472942528, 104488.79504070223, -182012.8479019222, 104480.97193014288, 104457.32378450916, -187500.02235174447, 0.05, 0.93, 0.36, 192.0, 0.0, 0.0, 0.0, 0.0, 0.0, 0.0, 0.0, 0.0, 0.0, 1.7401439126900868E9, 0.0, 2025-02-21 10:18:32.690
212.0, -142867.79080245385, 104333.2716027822, -169344.03560686536, 104475.69691845143, -181957.3932239286, 104467.94086312543, 104444.31506923618, -187500.02235174447, 0.05, 0.93, 0.36, 192.0, 0.0, 0.0, 0.0, 0.0, 0.0, 0.0, 0.0, 0.0, 0.0, 1.740143912690112E9, 0.0, 2025-02-21 10:18:32.690
213.0, -143337.55741567106, 104319.61468692002, -169535.7241673141, 104462.19646480042, -182155.250865847, 104454.46276121888, 104430.92637430744, -187500.02235174447, 0.05, 0.93, 0.36, 192.0, 0.0, 0.0, 0.0, 0.0, 0.0, 0.0, 0.0, 0.0, 0.0, 1.7401439126901371E9, 0.0, 2025-02-21 10:18:32.690
214.0, -143519.14298762596, 104304.0131692902, -169655.3507036389, 104446.63965065953, -182216.51699739898, 104438.9506505669, 104415.3472084221, -187500.02235174447, 0.05, 0.93, 0.36, 192.0, 0.0, 0.0, 0.0, 0.0, 0.0, 0.0, 0.0, 0.0, 0.0, 1.7401439126901617E9, 0.0, 2025-02-21 10:18:32.690
215.0, -143091.93409585167, 104290.78093657267, -169482.75053295502, 104433.27330747525, -182029.0752683968, 104425.62901087153, 104401.82440302664, -187500.02235174447, 0.05, 0.93, 0.36, 192.0, 0.0, 0.0, 0.0, 0.0, 0.0, 0.0, 0.0, 0.0, 0.0, 1.7401439126901865E9, 0.0, 2025-02-21 10:18:32.690
216.0, -142834.1067235597, 104278.62158758899, -169326.6683014236, 104421.06925500266, -181925.22906365743, 104413.35790316557, 104389.48624008731, -187500.02235174447, 0.05, 0.93, 0.36, 192.0, 0.0, 0.0, 0.0, 0.0, 0.0, 0.0, 0.0, 0.0, 0.0, 1.7401439126902113E9, 0.0, 2025-02-21 10:18:32.690
217.0, -143248.68687971676, 104267.37866012796, -169484.04693413342, 104409.93808626391, -182104.06537104433, 104402.11497570455, 104378.46683007084, -187500.02235174447, 0.05, 0.93, 0.36, 192.0, 0.0, 0.0, 0.0, 0.0, 0.0, 0.0, 0.0, 0.0, 0.0, 1.7401439126902363E9, 0.0, 2025-02-21 10:18:32.690
218.0, -143542.94759547088, 104253.18530239884, -169648.53342158, 104395.83413551262, -182214.751209587, 104388.10043193107, 104364.49698978628, -187500.02235174447, 0.046, 0.934, 0.356, 192.0, 1.0, 112.0, 29.0, 48.0, 11.0, 32.0, 0.0, 0.0, 0.0, 1.740143912690261E9, 0.0, 2025-02-21 10:18:32.690
219.0, -143180.60346610588, 104239.46133130329, -169514.13238217027, 104381.90899871696, -182051.51641982992, 104374.19764687988, 104350.52714950171, -187500.02235174447, 0.046, 0.934, 0.356, 192.0, 0.0, 0.0, 0.0, 0.0, 0.0, 0.0, 0.0, 0.0, 0.0, 1.740143912690287E9, 0.0, 2025-02-21 10:18:32.690
220.0, -142828.29527000134, 104225.69265671882, -169322.53322869938, 104368.20737936585, -181905.60423202565, 104360.49602752877, 104336.60201270605, -187500.02235174447, 0.046, 0.934, 0.356, 192.0, 0.0, 0.0, 0.0, 0.0, 0.0, 0.0, 0.0, 0.0, 0.0, 1.7401439126903217E9, 0.0, 2025-02-21 10:18:32.690
221.0, -143153.0884686814, 104212.7509966792, -169430.11217476276, 104355.3327745596, -182048.45423083953, 104347.66612621142, 104323.88387011098, -187500.02235174447, 0.046, 0.934, 0.356, 192.0, 0.0, 0.0, 0.0, 0.0, 0.0, 0.0, 0.0, 0.0, 0.0, 1.740143912690346E9, 0.0, 2025-02-21 10:18:32.690
222.0, -143539.4383715914, 104199.45170872829, -169627.96981668114, 104341.98878311978, -182200.26727917997, 104334.34448651607, 104310.7186926268, -187500.02235174447, 0.046, 0.934, 0.356, 192.0, 0.0, 0.0, 0.0, 0.0, 0.0, 0.0, 0.0, 0.0, 0.0, 1.7401439126903708E9, 0.0, 2025-02-21 10:18:32.690
223.0, -143266.27770260308, 104184.38663296541, -169540.12746097177, 104326.85665212353, -182070.96243750604, 104319.23470726427, 104295.49715465274, -187500.02235174447, 0.046, 0.934, 0.356, 192.0, 0.0, 0.0, 0.0, 0.0, 0.0, 0.0, 0.0, 0.0, 0.0, 1.7401439126904037E9, 0.0, 2025-02-21 10:18:32.690
224.0, -142847.6071772107, 104171.82495258153, -169328.9705311025, 104314.33967522856, -181896.19414761, 104306.58361990258, 104282.6672533354, -187500.02235174447, 0.046, 0.934, 0.356, 192.0, 0.0, 0.0, 0.0, 0.0, 0.0, 0.0, 0.0, 0.0, 0.0, 1.7401439126904352E9, 0.0, 2025-02-21 10:18:32.690
225.0, -143061.60277862582, 104159.21856870873, -169380.8712817277, 104301.75564310023, -181994.76534065788, 104294.0666430076, 104270.21733167379, -187500.02235174447, 0.046, 0.934, 0.356, 192.0, 0.0, 0.0, 0.0, 0.0, 0.0, 0.0, 0.0, 0.0, 0.0, 1.74014391269046E9, 0.0, 2025-02-21 10:18:32.690
226.0, -143510.35875205504, 104143.57234759002, -169595.31391803193, 104286.17647721487, -182173.8028137449, 104278.5098288667, 104254.86168323299, -187500.02235174447, 0.046, 0.934, 0.356, 192.0, 0.0, 0.0, 0.0, 0.0, 0.0, 0.0, 0.0, 0.0, 0.0, 1.7401439126904848E9, 0.0, 2025-02-21 10:18:32.690
227.0, -143346.0287268196, 104129.580155561, -169561.69689437115, 104272.2066369303, -182088.486205159, 104264.49528509323, 104240.73538073724, -187500.02235174447, 0.046, 0.934, 0.356, 192.0, 0.0, 0.0, 0.0, 0.0, 0.0, 0.0, 0.0, 0.0, 0.0, 1.7401439126905098E9, 0.0, 2025-02-21 10:18:32.690
228.0, -142889.94138120906, 104118.85131822244, -169345.4214150216, 104261.38839261394, -181897.0882173882, 104253.69939252132, 104229.80537769859, -187500.02235174447, 0.048, 0.932, 0.356, 192.0, 1.0, 128.0, 29.0, 32.0, 11.0, 32.0, 0.0, 0.0, 0.0, 1.7401439126905344E9, 0.0, 2025-02-21 10:18:32.690
229.0, -142978.5883997188, 104107.78720471707, -169338.6711881961, 104250.30192736411, -181944.76448831137, 104242.56822378257, 104218.69656070431, -187500.02235174447, 0.048, 0.932, 0.356, 192.0, 0.0, 0.0, 0.0, 0.0, 0.0, 0.0, 0.0, 0.0, 0.0, 1.74014391269056E9, 0.0, 2025-02-21 10:18:32.690
230.0, -143463.5989026545, 104093.30327431003, -169558.70176061415, 104235.97445916825, -182143.06916511885, 104228.1513486089, 104204.41379599736, -187500.02235174447, 0.048, 0.932, 0.356, 192.0, 0.0, 0.0, 0.0, 0.0, 0.0, 0.0, 0.0, 0.0, 0.0, 1.7401439126905847E9, 0.0, 2025-02-21 10:18:32.690
231.0, -143421.5105678452, 104078.46171599171, -169581.522891703, 104220.99879038321, -182107.35107747925, 104213.24273505721, 104189.50518244568, -187500.02235174447, 0.048, 0.932, 0.356, 192.0, 0.0, 0.0, 0.0, 0.0, 0.0, 0.0, 0.0, 0.0, 0.0, 1.7401439126906087E9, 0.0, 2025-02-21 10:18:32.690
232.0, -142950.46990519404, 104064.64833791833, -169367.9296216881, 104206.98424660972, -181905.20190062546, 104199.27289477264, 104175.40123169437, -187500.02235174447, 0.048, 0.932, 0.356, 192.0, 0.0, 0.0, 0.0, 0.0, 0.0, 0.0, 0.0, 0.0, 0.0, 1.7401439126906333E9, 0.0, 2025-02-21 10:18:32.690
233.0, -142906.21345117255, 104052.71250637919, -169300.91909181108, 104195.13782204842, -181895.90357493205, 104187.44882195578, 104163.51010364415, -187500.02235174447, 0.048, 0.932, 0.356, 192.0, 0.0, 0.0, 0.0, 0.0, 0.0, 0.0, 0.0, 0.0, 0.0, 1.7401439126906576E9, 0.0, 2025-02-21 10:18:32.690
234.0, -143394.8002332211, 104039.97201203967, -169511.763097258, 104182.35262421997, -182100.3773332092, 104174.77538284962, 104150.94842326027, -187500.02235174447, 0.048, 0.932, 0.356, 192.0, 0.0, 0.0, 0.0, 0.0, 0.0, 0.0, 0.0, 0.0, 0.0, 1.7401439126906824E9, 0.0, 2025-02-21 10:18:32.690
235.0, -143481.5250017077, 104025.89041303283, -169591.9388046192, 104168.22632172423, -182119.77864739642, 104160.71613558724, 104136.95623123125, -187500.02235174447, 0.048, 0.932, 0.356, 192.0, 0.0, 0.0, 0.0, 0.0, 0.0, 0.0, 0.0, 0.0, 0.0, 1.740143912690721E9, 0.0, 2025-02-21 10:18:32.690
236.0, -143028.18692066515, 104014.80394778299, -169399.3338226478, 104157.13985647439, -181923.95501422347, 104149.49555987067, 104125.66860028132, -187500.02235174447, 0.048, 0.932, 0.356, 192.0, 0.0, 0.0, 0.0, 0.0, 0.0, 0.0, 0.0, 0.0, 0.0, 1.7401439126907456E9, 0.0, 2025-02-21 10:18:32.690
237.0, -142856.5702267373, 104000.63294179834, -169276.80155954382, 104143.01355397864, -181857.95031284695, 104135.39160911938, 104111.40818731883, -187500.02235174447, 0.048, 0.932, 0.356, 192.0, 0.0, 0.0, 0.0, 0.0, 0.0, 0.0, 0.0, 0.0, 0.0, 1.7401439126907704E9, 0.0, 2025-02-21 10:18:32.690
238.0, -143314.11043573744, 103988.04890966999, -169461.94105886712, 104130.4295218503, -182052.83517275276, 104122.89698396887, 104099.00296914614, -187500.02235174447, 0.044, 0.922, 0.354, 192.0, 1.0, 96.0, 28.0, 208.0, 11.0, 16.0, 0.0, 0.0, 0.0, 1.7401439126908019E9, 0.0, 2025-02-21 10:18:32.690
239.0, -143521.8251969606, 103972.84972344038, -169591.9835081081, 104115.23033562068, -182124.31605152084, 104107.65309425035, 104083.78143117207, -187500.02235174447, 0.044, 0.922, 0.354, 192.0, 0.0, 0.0, 0.0, 0.0, 0.0, 0.0, 0.0, 0.0, 0.0, 1.7401439126908348E9, 0.0, 2025-02-21 10:18:32.690
240.0, -143107.80383441495, 103958.74577268909, -169426.2900264609, 104101.10403312494, -181940.45060163148, 104093.39268128785, 104069.43161123176, -187500.02235174447, 0.044, 0.922, 0.354, 192.0, 0.0, 0.0, 0.0, 0.0, 0.0, 0.0, 0.0, 0.0, 0.0, 1.7401439126908596E9, 0.0, 2025-02-21 10:18:32.690
241.0, -142827.55766243432, 103945.84881613837, -169261.08828319173, 104088.1176695964, -181827.03785026525, 104080.40631775932, 104056.44524770323, -187500.02235174447, 0.044, 0.922, 0.354, 192.0, 0.0, 0.0, 0.0, 0.0, 0.0, 0.0, 0.0, 0.0, 0.0, 1.7401439131676624E9, 0.0, 2025-02-21 10:18:33.167
242.0, -143221.39539973682, 103931.6331066648, -169406.06169772884, 104073.92431186727, -181996.77699765886, 104066.43647747475, 104042.43070392976, -187500.02235174447, 0.044, 0.922, 0.354, 192.0, 0.0, 0.0, 0.0, 0.0, 0.0, 0.0, 0.0, 0.0, 0.0, 1.7401439131677413E9, 0.0, 2025-02-21 10:18:33.167
243.0, -143537.56082505712, 103918.3785222028, -169579.39947597976, 104060.7591343831, -182117.36465899524, 104053.24894824612, 104029.3549334234, -187500.02235174447, 0.044, 0.922, 0.354, 192.0, 0.0, 0.0, 0.0, 0.0, 0.0, 0.0, 0.0, 0.0, 0.0, 1.7401439131677792E9, 0.0, 2025-02-21 10:18:33.167
244.0, -143190.9970272776, 103902.39702491726, -169452.41921572917, 104044.73293360866, -181958.443755918, 104037.17804398276, 104013.21697392667, -187500.02235174447, 0.044, 0.922, 0.354, 192.0, 0.0, 0.0, 0.0, 0.0, 0.0, 0.0, 0.0, 0.0, 0.0, 1.7401439131678054E9, 0.0, 2025-02-21 10:18:33.167
245.0, -142823.28847924335, 103890.03651023348, -169256.5508790673, 104032.26066020259, -181806.49659711082, 104024.77282581005, 104000.61059005387, -187500.02235174447, 0.044, 0.922, 0.354, 192.0, 0.0, 0.0, 0.0, 0.0, 0.0, 0.0, 0.0, 0.0, 0.0, 1.7401439131678312E9, 0.0, 2025-02-21 10:18:33.167
246.0, -143126.4228375462, 103877.05014670493, -169352.84219418076, 104019.43075888524, -181940.80822954277, 104011.87586925935, 103987.80304048098, -187500.02235174447, 0.044, 0.922, 0.354, 192.0, 0.0, 0.0, 0.0, 0.0, 0.0, 0.0, 0.0, 0.0, 0.0, 1.7401439131678565E9, 0.0, 2025-02-21 10:18:33.167
247.0, -143526.78728422968, 103861.73920175305, -169554.05259776744, 104004.20922091117, -182098.0751035303, 103996.63197954083, 103972.73796471811, -187500.02235174447, 0.044, 0.922, 0.354, 192.0, 0.0, 0.0, 0.0, 0.0, 0.0, 0.0, 0.0, 0.0, 0.0, 1.7401439131678815E9, 0.0, 2025-02-21 10:18:33.167
248.0, -143275.7771939966, 103847.50114053502, -169478.23548057504, 103989.85940097088, -181978.42621546105, 103982.32686308943, 103958.27638605553, -187500.02235174447, 0.054, 0.92, 0.35000000000000003, 192.0, 1.0, 176.0, 28.0, 192.0, 10.0, 240.0, 0.0, 0.0, 0.0, 1.7401439131679068E9, 0.0, 2025-02-21 10:18:33.167
249.0, -142845.93079637658, 103835.78882644045, -169264.64221056012, 103977.94592117619, -181798.38291387356, 103970.50279027257, 103946.22879579412, -187500.02235174447, 0.054, 0.92, 0.35000000000000003, 192.0, 0.0, 0.0, 0.0, 0.0, 0.0, 0.0, 0.0, 0.0, 0.0, 1.7401439131679337E9, 0.0, 2025-02-21 10:18:33.167
250.0, -143035.33947889085, 103824.61295421279, -169304.78594360186, 103966.85945592636, -181886.69465621648, 103959.41632502274, 103935.27644101101, -187500.02235174447, 0.054, 0.92, 0.35000000000000003, 192.0, 0.0, 0.0, 0.0, 0.0, 0.0, 0.0, 0.0, 0.0, 0.0, 1.7401439131679995E9, 0.0, 2025-02-21 10:18:33.167
251.0, -143497.68531294886, 103811.04544532842, -169524.03420496397, 103953.40370576427, -182073.93521951858, 103945.84881613837, 103921.91009782674, -187500.02235174447, 0.054, 0.92, 0.35000000000000003, 192.0, 0.0, 0.0, 0.0, 0.0, 0.0, 0.0, 0.0, 0.0, 0.0, 1.7401439131680243E9, 0.0, 2025-02-21 10:18:33.168
252.0, -143358.90333162586, 103797.0532532994, -169503.4482483206, 103939.3891619908, -182000.39798026063, 103931.85662410935, 103907.8284988199, -187500.02235174447, 0.054, 0.92, 0.35000000000000003, 192.0, 0.0, 0.0, 0.0, 0.0, 0.0, 0.0, 0.0, 0.0, 0.0, 1.7401439131680493E9, 0.0, 2025-02-21 10:18:33.168
253.0, -142896.13281442318, 103784.80449733789, -169286.01047825938, 103927.028647307, -181804.48494010986, 103919.45140593665, 103895.40092890275, -187500.02235174447, 0.054, 0.92, 0.35000000000000003, 192.0, 0.0, 0.0, 0.0, 0.0, 0.0, 0.0, 0.0, 0.0, 0.0, 1.7401439131680846E9, 0.0, 2025-02-21 10:18:33.168
254.0, -142953.95677732906, 103772.26516869846, -169263.54697508182, 103914.42226343421, -181836.4255829365, 103906.84502206386, 103882.79454502994, -187500.02235174447, 0.054, 0.92, 0.35000000000000003, 192.0, 0.0, 0.0, 0.0, 0.0, 0.0, 0.0, 0.0, 0.0, 0.0, 1.74014391316812E9, 0.0, 2025-02-21 10:18:33.168
255.0, -143443.75055357823, 103759.12234295874, -169483.57754749985, 103901.39119641676, -182038.55240804583, 103893.88101027979, 103869.89758847925, -187500.02235174447, 0.054, 0.92, 0.35000000000000003, 192.0, 0.0, 0.0, 0.0, 0.0, 0.0, 0.0, 0.0, 0.0, 0.0, 1.7401439131681445E9, 0.0, 2025-02-21 10:18:33.168
0.0, -143428.88664351543, 103743.63258405121, -169519.1168211838, 103885.85673402033, -182015.93244265707, 103878.45830660562, 103854.3631260828, -187500.02235174447, 0.054, 0.92, 0.35000000000000003, 192.0, 0.0, 0.0, 0.0, 0.0, 0.0, 0.0, 0.0, 0.0, 0.0, 1.7401439131681688E9, 0.0, 2025-02-21 10:18:33.168
1.0, -142960.12585879874, 103732.233194379, -169310.77621111588, 103874.43499260367, -181815.39259140403, 103866.9695099556, 103842.87432943277, -187500.02235174447, 0.054, 0.92, 0.35000000000000003, 192.0, 0.0, 0.0, 0.0, 0.0, 0.0, 0.0, 0.0, 0.0, 0.0, 1.7401439131681929E9, 0.0, 2025-02-21 10:18:33.168
2.0, -142886.36510209623, 103718.08454013879, -169228.85706768718, 103860.30869010791, -181790.02336144727, 103852.75380048202, 103828.63626821474, -187500.02235174447, 0.052000000000000005, 0.924, 0.35000000000000003, 192.0, 1.0, 160.0, 28.0, 224.0, 10.0, 240.0, 0.0, 0.0, 0.0, 1.7401439131682172E9, 0.0, 2025-02-21 10:18:33.168
3.0, -143366.14529682937, 103702.05833936433, -169430.87213407425, 103844.39424805573, -181989.51268071088, 103836.79465494092, 103812.87828837374, -187500.02235174447, 0.052000000000000005, 0.924, 0.35000000000000003, 192.0, 0.0, 0.0, 0.0, 0.0, 0.0, 0.0, 0.0, 0.0, 0.0, 1.7401439131682436E9, 0.0, 2025-02-21 10:18:33.168
4.0, -143482.0167400857, 103687.39559500165, -169523.49776309702, 103829.61974497077, -182023.3085183273, 103822.1542623227, 103798.21554401107, -187500.02235174447, 0.052000000000000005, 0.924, 0.35000000000000003, 192.0, 0.0, 0.0, 0.0, 0.0, 0.0, 0.0, 0.0, 0.0, 0.0, 1.740143913168268E9, 0.0, 2025-02-21 10:18:33.168
5.0, -143031.85260675583, 103673.73867913947, -169333.99967360494, 103815.89577387522, -181826.65787060952, 103808.47499471606, 103784.31275895987, -187500.02235174447, 0.052000000000000005, 0.924, 0.35000000000000003, 192.0, 0.0, 0.0, 0.0, 0.0, 0.0, 0.0, 0.0, 0.0, 0.0, 1.7401439131682923E9, 0.0, 2025-02-21 10:18:33.168
6.0, -142837.79476139485, 103662.6745656341, -169203.62194819713, 103804.87636385876, -181750.9972156283, 103797.43323295514, 103773.24864545449, -187500.02235174447, 0.052000000000000005, 0.924, 0.35000000000000003, 192.0, 0.0, 0.0, 0.0, 0.0, 0.0, 0.0, 0.0, 0.0, 0.0, 1.7401439131683164E9, 0.0, 2025-02-21 10:18:33.168
7.0, -143285.14257492335, 103649.88936780565, -169381.29596487238, 103792.2029247526, -181941.76935455436, 103784.82684908234, 103760.6422615817, -187500.02235174447, 0.052000000000000005, 0.924, 0.35000000000000003, 192.0, 0.0, 0.0, 0.0, 0.0, 0.0, 0.0, 0.0, 0.0, 0.0, 1.7401439131683407E9, 0.0, 2025-02-21 10:18:33.168
8.0, -143517.46660679183, 103634.53371936486, -169521.5084578405, 103776.86962805624, -182025.3648788172, 103769.44884889708, 103745.39837186318, -187500.02235174447, 0.052000000000000005, 0.924, 0.35000000000000003, 192.0, 0.0, 0.0, 0.0, 0.0, 0.0, 0.0, 0.0, 0.0, 0.0, 1.7401439131683655E9, 0.0, 2025-02-21 10:18:33.168
9.0, -143116.78923568598, 103621.74852153641, -169365.0685983978, 103763.90561627217, -181847.57910341967, 103756.46248536855, 103732.30024961237, -187500.02235174447, 0.052000000000000005, 0.924, 0.35000000000000003, 192.0, 0.0, 0.0, 0.0, 0.0, 0.0, 0.0, 0.0, 0.0, 0.0, 1.7401439131683965E9, 0.0, 2025-02-21 10:18:33.168
10.0, -142812.47023492696, 103606.5046318179, -169189.11566604563, 103748.59467132029, -181721.24704375828, 103741.21859565003, 103716.96695291603, -187500.02235174447, 0.052000000000000005, 0.924, 0.35000000000000003, 192.0, 0.0, 0.0, 0.0, 0.0, 0.0, 0.0, 0.0, 0.0, 0.0, 1.7401439131684203E9, 0.0, 2025-02-21 10:18:33.168
11.0, -143190.52764064405, 103593.49591654491, -169325.1260310562, 103735.65301128066, -181885.19708933798, 103728.32163909932, 103704.09234810977, -187500.02235174447, 0.052000000000000005, 0.924, 0.35000000000000003, 192.0, 0.0, 0.0, 0.0, 0.0, 0.0, 0.0, 0.0, 0.0, 0.0, 1.740143913168445E9, 0.0, 2025-02-21 10:18:33.168
12.0, -143527.41313307444, 103579.5931314937, -169505.9963471885, 103721.77257797391, -182015.3065938123, 103714.39650230367, 103690.43543224758, -187500.02235174447, 0.052000000000000005, 0.916, 0.35000000000000003, 192.0, 1.0, 160.0, 28.0, 160.0, 10.0, 240.0, 0.0, 0.0, 0.0, 1.7401439131684763E9, 0.0, 2025-02-21 10:18:33.168
13.0, -143200.6529808823, 103565.6456429536, -169391.1307324327, 103707.82508943381, -181865.90753387305, 103700.49371725247, 103676.4208884741, -187500.02235174447, 0.052000000000000005, 0.916, 0.35000000000000003, 192.0, 0.0, 0.0, 0.0, 0.0, 0.0, 0.0, 0.0, 0.0, 0.0, 1.7401439131685083E9, 0.0, 2025-02-21 10:18:33.168
14.0, -142818.14757801863, 103553.70981141446, -169190.50147420185, 103695.73279568349, -181706.9419273069, 103688.4237752466, 103664.14978076813, -187500.02235174447, 0.052000000000000005, 0.916, 0.35000000000000003, 192.0, 0.0, 0.0, 0.0, 0.0, 0.0, 0.0, 0.0, 0.0, 0.0, 1.7401439131685328E9, 0.0, 2025-02-21 10:18:33.168
15.0, -143096.53855520947, 103539.62821240762, -169273.29233566433, 103681.62884493219, -181830.01063227782, 103674.34217623976, 103650.22464397248, -187500.02235174447, 0.052000000000000005, 0.916, 0.35000000000000003, 192.0, 0.0, 0.0, 0.0, 0.0, 0.0, 0.0, 0.0, 0.0, 0.0, 1.7401439131685572E9, 0.0, 2025-02-21 10:18:33.168
16.0, -143514.13619686797, 103526.21716573444, -169481.32002130986, 103668.30720523682, -181996.7546459144, 103660.95348131102, 103636.92535602157, -187500.02235174447, 0.052000000000000005, 0.916, 0.35000000000000003, 192.0, 0.0, 0.0, 0.0, 0.0, 0.0, 0.0, 0.0, 0.0, 0.0, 1.7401439131685815E9, 0.0, 2025-02-21 10:18:33.168
17.0, -143283.73441502269, 103511.17444171602, -169415.42707865563, 103653.17507424059, -181885.10768236016, 103645.9107572926, 103621.7038180475, -187500.02235174447, 0.052000000000000005, 0.916, 0.35000000000000003, 192.0, 0.0, 0.0, 0.0, 0.0, 0.0, 0.0, 0.0, 0.0, 0.0, 1.740143913168606E9, 0.0, 2025-02-21 10:18:33.168
18.0, -142845.19318880956, 103498.27748516531, -169199.4868754729, 103640.21106245651, -181700.10229350356, 103632.92439376407, 103608.62804754115, -187500.02235174447, 0.052000000000000005, 0.916, 0.35000000000000003, 192.0, 0.0, 0.0, 0.0, 0.0, 0.0, 0.0, 0.0, 0.0, 0.0, 1.7401439131686304E9, 0.0, 2025-02-21 10:18:33.168
19.0, -143003.86822269778, 103483.23476114689, -169222.66563447306, 103625.213041927, -181773.01368391677, 103617.92637323456, 103593.63002701165, -187500.02235174447, 0.052000000000000005, 0.916, 0.35000000000000003, 192.0, 0.0, 0.0, 0.0, 0.0, 0.0, 0.0, 0.0, 0.0, 0.0, 1.740143913168655E9, 0.0, 2025-02-21 10:18:33.168
