%OpenBCI Raw EXG Data
%Number of channels = 8
%Sample Rate = 250 Hz
%Board = OpenBCI_GUI$BoardCytonSerial
Sample Index, EXG Channel 0, EXG Channel 1, EXG Channel 2, EXG Channel 3, EXG Channel 4, EXG Channel 5, EXG Channel 6, EXG Channel 7, Accel Channel 0, Accel Channel 1, Accel Channel 2, Not Used, Digital Channel 0 (D11), Digital Channel 1 (D12), Digital Channel 2 (D13), Digital Channel 3 (D17), Not Used, Digital Channel 4 (D18), Analog Channel 0, Analog Channel 1, Analog Channel 2, Timestamp, Marker Channel, Timestamp (Formatted)
63.0, 3169.2761980624437, -3642.1497037589197, -7190.064452894266, -4803.479290423309, -6511.487842975598, -4268.758507818998, -4745.655327517429, -4406.512308897056, 0.0, 0.0, 0.0, 192.0, 0.0, 0.0, 0.0, 0.0, 0.0, 0.0, 0.0, 0.0, 0.0, 1.7398203594053688E9, 0.0, 2025-02-17 16:25:59.405
64.0, 3171.8019451858936, -3654.286700998152, -7187.985740659922, -4788.324807682611, -6534.018401386547, -4289.567981906889, -4758.887560234972, -4415.363599701357, -0.124, 0.9380000000000001, 0.23800000000000002, 192.0, 252.0, 32.0, 29.0, 80.0, 7.0, 112.0, 0.0, 0.0, 0.0, 1.7398203594054096E9, 0.0, 2025-02-17 16:25:59.405
65.0, 3171.779593441438, -3672.4139657514056, -7193.707787240481, -4738.614528014008, -6559.141762154313, -4313.372589751791, -4777.104231966046, -4429.378143474834, -0.124, 0.9380000000000001, 0.23800000000000002, 192.0, 0.0, 0.0, 0.0, 0.0, 0.0, 0.0, 0.0, 0.0, 0.0, 1.7398203594054391E9, 0.0, 2025-02-17 16:25:59.405
66.0, 3170.7961166854047, -3672.1680965623973, -7205.800080990802, -4746.527045551186, -6553.307956851478, -4310.891546117252, -4772.209199930335, -4428.573480674444, -0.124, 0.9380000000000001, 0.23800000000000002, 192.0, 0.0, 0.0, 0.0, 0.0, 0.0, 0.0, 0.0, 0.0, 0.0, 1.7398203594054644E9, 0.0, 2025-02-17 16:25:59.405
67.0, 3171.1984480856, -3663.696785413836, -7208.258772880885, -4805.3344852130995, -6538.265232833056, -4296.921705832685, -4763.648481803952, -4422.516157927055, -0.124, 0.9380000000000001, 0.23800000000000002, 192.0, 0.0, 0.0, 0.0, 0.0, 0.0, 0.0, 0.0, 0.0, 0.0, 1.7398203594054894E9, 0.0, 2025-02-17 16:25:59.405
68.0, 3169.6785294626393, -3675.565561719604, -7205.218935634964, -4794.382130429999, -6554.805523729983, -4310.690380417154, -4776.388976143477, -4430.428675464234, -0.124, 0.9380000000000001, 0.23800000000000002, 192.0, 0.0, 0.0, 0.0, 0.0, 0.0, 0.0, 0.0, 0.0, 0.0, 1.7398203594055147E9, 0.0, 2025-02-17 16:25:59.405
69.0, 3170.5055440074857, -3704.756939978235, -7215.768959017869, -4739.553301281131, -6591.104756725402, -4344.307404077936, -4804.529822412708, -4452.065164096972, -0.124, 0.9380000000000001, 0.23800000000000002, 192.0, 0.0, 0.0, 0.0, 0.0, 0.0, 0.0, 0.0, 0.0, 0.0, 1.7398203594055395E9, 0.0, 2025-02-17 16:25:59.405
70.0, 3169.9467503961027, -3724.06884718762, -7238.075999984265, -4719.2802690601675, -6604.7393208431395, -4361.965282197629, -4819.52784294222, -4467.577274748955, -0.124, 0.9380000000000001, 0.23800000000000002, 192.0, 0.0, 0.0, 0.0, 0.0, 0.0, 0.0, 0.0, 0.0, 0.0, 1.7398203594055643E9, 0.0, 2025-02-17 16:25:59.405
71.0, 3169.1867910846227, -3708.2438121132627, -7250.637680368148, -4794.270371707723, -6581.9628932431815, -4341.133456365283, -4807.5026044252645, -4464.112754358382, -0.124, 0.9380000000000001, 0.23800000000000002, 192.0, 0.0, 0.0, 0.0, 0.0, 0.0, 0.0, 0.0, 0.0, 0.0, 1.739820359405589E9, 0.0, 2025-02-17 16:25:59.405
72.0, 3169.097384106801, -3705.0698644006093, -7244.356840176206, -4823.8193778776385, -6585.360358400388, -4342.0275261434945, -4808.173156758923, -4464.783306692041, -0.124, 0.9380000000000001, 0.23800000000000002, 192.0, 0.0, 0.0, 0.0, 0.0, 0.0, 0.0, 0.0, 0.0, 0.0, 1.7398203594056134E9, 0.0, 2025-02-17 16:25:59.405
73.0, 3169.3209015513544, -3722.9289082203995, -7245.027392509865, -4787.676607093407, -6610.886050568349, -4362.479372320101, -4825.987497089804, -4478.328463831957, -0.124, 0.9380000000000001, 0.23800000000000002, 192.0, 0.0, 0.0, 0.0, 0.0, 0.0, 0.0, 0.0, 0.0, 0.0, 1.7398203594056647E9, 0.0, 2025-02-17 16:25:59.405
74.0, 3172.360738797276, -3740.0279927287097, -7261.143000262142, -4764.676662048896, -6623.827710607971, -4378.729090539109, -4841.097276341591, -4492.924152961273, -0.14200000000000002, 0.928, 0.24, 192.0, 251.0, 144.0, 29.0, 0.0, 7.0, 128.0, 0.0, 0.0, 0.0, 1.7398203594056897E9, 0.0, 2025-02-17 16:25:59.405
75.0, 3173.299512064399, -3731.511978091238, -7271.447154456038, -4825.272241267234, -6603.129995242357, -4367.799087500463, -4830.189625047401, -4485.861001713396, -0.14200000000000002, 0.928, 0.24, 192.0, 0.0, 0.0, 0.0, 0.0, 0.0, 0.0, 0.0, 0.0, 0.0, 1.7398203594057436E9, 0.0, 2025-02-17 16:25:59.405
76.0, 3173.031291130935, -3737.8375217720895, -7270.2625119999075, -4844.315927543155, -6618.2397744941445, -4373.275264892014, -4837.275128039733, -4489.347873848424, -0.14200000000000002, 0.928, 0.24, 192.0, 0.0, 0.0, 0.0, 0.0, 0.0, 0.0, 0.0, 0.0, 0.0, 1.739820359405769E9, 0.0, 2025-02-17 16:25:59.405
77.0, 3172.450145775097, -3758.3787749265166, -7275.984558580466, -4806.228554991312, -6647.162931819312, -4397.616314603843, -4859.537465517219, -4507.698656046231, -0.14200000000000002, 0.928, 0.24, 192.0, 0.0, 0.0, 0.0, 0.0, 0.0, 0.0, 0.0, 0.0, 0.0, 1.739820359405795E9, 0.0, 2025-02-17 16:25:59.405
78.0, 3171.086689363324, -3771.007510543765, -7288.792108153357, -4775.092574965069, -6656.550664490541, -4412.323762455436, -4873.462602312876, -4522.629621342376, -0.14200000000000002, 0.928, 0.24, 192.0, 0.0, 0.0, 0.0, 0.0, 0.0, 0.0, 0.0, 0.0, 0.0, 1.7398203594058282E9, 0.0, 2025-02-17 16:25:59.405
79.0, 3171.131392852234, -3751.2038649563633, -7297.330474535284, -4844.919424643448, -6623.380675718865, -4386.306331909458, -4854.038936381214, -4513.644220071343, -0.14200000000000002, 0.928, 0.24, 192.0, 0.0, 0.0, 0.0, 0.0, 0.0, 0.0, 0.0, 0.0, 0.0, 1.7398203594060607E9, 0.0, 2025-02-17 16:25:59.406
80.0, 3172.338387052821, -3739.625661328514, -7287.875686630689, -4895.68023630145, -6618.150367516323, -4376.449212604668, -4844.830017665627, -4506.312847890002, -0.14200000000000002, 0.928, 0.24, 192.0, 0.0, 0.0, 0.0, 0.0, 0.0, 0.0, 0.0, 0.0, 0.0, 1.7398203594060931E9, 0.0, 2025-02-17 16:25:59.406
81.0, 3172.003110885991, -3749.728649822313, -7281.304273760828, -4868.969901677358, -6633.483664212664, -4390.82138428943, -4856.207055593379, -4513.554813093521, -0.14200000000000002, 0.928, 0.24, 192.0, 0.0, 0.0, 0.0, 0.0, 0.0, 0.0, 0.0, 0.0, 0.0, 1.7398203594061203E9, 0.0, 2025-02-17 16:25:59.406
82.0, 3171.7348899525273, -3764.9278360519215, -7286.825154641289, -4822.701790654873, -6648.325222530988, -4405.171204229737, -4870.981558678336, -4524.4624643877105, -0.14200000000000002, 0.928, 0.24, 192.0, 0.0, 0.0, 0.0, 0.0, 0.0, 0.0, 0.0, 0.0, 0.0, 1.7398203594061458E9, 0.0, 2025-02-17 16:25:59.406
83.0, 3173.075994619846, -3753.081411490609, -7296.861087901722, -4863.314910330166, -6627.672210654285, -4388.653265077265, -4856.743497460306, -4515.924098005784, -0.14200000000000002, 0.928, 0.24, 192.0, 0.0, 0.0, 0.0, 0.0, 0.0, 0.0, 0.0, 0.0, 0.0, 1.739820359406171E9, 0.0, 2025-02-17 16:25:59.406
84.0, 3173.8583056757816, -3745.8394462870892, -7291.139041321164, -4907.30314341821, -6622.21838500719, -4383.691177808187, -4848.67451771194, -4507.005751968116, -0.15, 0.93, 0.24, 192.0, 251.0, 80.0, 29.0, 16.0, 7.0, 128.0, 0.0, 0.0, 0.0, 1.7398203594061964E9, 0.0, 2025-02-17 16:25:59.406
85.0, 3174.327692309343, -3765.9113128079553, -7290.177916309585, -4872.5461807902075, -6651.432115010276, -4408.076931008927, -4867.4946865433085, -4520.908537019317, -0.15, 0.93, 0.24, 192.0, 0.0, 0.0, 0.0, 0.0, 0.0, 0.0, 0.0, 0.0, 0.0, 1.7398203594062276E9, 0.0, 2025-02-17 16:25:59.406
86.0, 3175.5346865099295, -3796.5108509672705, -7304.863012416722, -4809.581316659608, -6688.178382894801, -4442.252748281092, -4896.127271190557, -4544.824903586496, -0.15, 0.93, 0.24, 192.0, 0.0, 0.0, 0.0, 0.0, 0.0, 0.0, 0.0, 0.0, 0.0, 1.7398203594062529E9, 0.0, 2025-02-17 16:25:59.406
87.0, 3175.0205963874578, -3798.3883975015165, -7326.007762671443, -4828.893223868993, -6677.449545556253, -4435.279004011036, -4895.948457234915, -4548.065906532515, -0.15, 0.93, 0.24, 192.0, 0.0, 0.0, 0.0, 0.0, 0.0, 0.0, 0.0, 0.0, 0.0, 1.739820359406278E9, 0.0, 2025-02-17 16:25:59.406
88.0, 3175.266465576466, -3786.7654903847565, -7329.047599917365, -4895.948457234915, -6662.093897115457, -4419.699838125687, -4886.940704219425, -4541.51684540711, -0.15, 0.93, 0.24, 192.0, 0.0, 0.0, 0.0, 0.0, 0.0, 0.0, 0.0, 0.0, 0.0, 1.7398203594063025E9, 0.0, 2025-02-17 16:25:59.406
89.0, 3175.266465576466, -3799.304819024184, -7326.521852793915, -4887.678311786451, -6680.3999758243535, -4436.463646467167, -4900.932896248448, -4551.061040289526, -0.15, 0.93, 0.24, 192.0, 0.0, 0.0, 0.0, 0.0, 0.0, 0.0, 0.0, 0.0, 0.0, 1.73982035940635E9, 0.0, 2025-02-17 16:25:59.406
90.0, 3174.7970789429046, -3823.9587931583874, -7334.4790738200045, -4835.017601849747, -6712.0947494619795, -4468.203123593703, -4924.804559326716, -4570.551761454554, -0.15, 0.93, 0.24, 192.0, 0.0, 0.0, 0.0, 0.0, 0.0, 0.0, 0.0, 0.0, 0.0, 1.7398203594064066E9, 0.0, 2025-02-17 16:25:59.406
91.0, 3175.847610932304, -3829.792598461223, -7354.819161274334, -4842.080753097624, -6710.798348283572, -4469.83480093894, -4928.269079717288, -4579.2242383032135, -0.15, 0.93, 0.24, 192.0, 0.0, 0.0, 0.0, 0.0, 0.0, 0.0, 0.0, 0.0, 0.0, 1.7398203594064887E9, 0.0, 2025-02-17 16:25:59.406
92.0, 3176.1381836102228, -3814.615763976069, -7359.736545054501, -4917.495538889831, -6691.195868396267, -4448.421829750756, -4914.053370243713, -4569.076546320503, -0.15, 0.93, 0.24, 192.0, 0.0, 0.0, 0.0, 0.0, 0.0, 0.0, 0.0, 0.0, 0.0, 1.7398203594065151E9, 0.0, 2025-02-17 16:25:59.406
93.0, 3175.981721399036, -3824.919918169966, -7355.199140930074, -4920.825948813671, -6706.238592414688, -4461.721117701664, -4924.066951759691, -4574.306854523045, -0.15, 0.93, 0.24, 192.0, 0.0, 0.0, 0.0, 0.0, 0.0, 0.0, 0.0, 0.0, 0.0, 1.7398203594065664E9, 0.0, 2025-02-17 16:25:59.406
94.0, 3175.4899830210193, -3851.272624882773, -7361.614091588747, -4867.449983054398, -6739.341525952998, -4495.807527996008, -4949.4361817164645, -4593.305837310057, -0.126, 0.968, 0.256, 192.0, 252.0, 16.0, 30.0, 64.0, 8.0, 0.0, 0.0, 0.0, 0.0, 1.7398203594065936E9, 0.0, 2025-02-17 16:25:59.406
95.0, 3178.9545034115918, -3869.042261724742, -7386.424527934138, -4854.262453825767, -6751.322060981043, -4506.961048479206, -4966.244693546855, -4612.036599163604, -0.126, 0.968, 0.256, 192.0, 0.0, 0.0, 0.0, 0.0, 0.0, 0.0, 0.0, 0.0, 0.0, 1.739820359406668E9, 0.0, 2025-02-17 16:25:59.406
96.0, 3179.848573189804, -3852.457267338904, -7396.996903061498, -4931.957117552414, -6727.897432791881, -4485.41396682429, -4950.911396850514, -4604.414654304344, -0.126, 0.968, 0.256, 192.0, 0.0, 0.0, 0.0, 0.0, 0.0, 0.0, 0.0, 0.0, 0.0, 1.7398203594066958E9, 0.0, 2025-02-17 16:25:59.406
97.0, 3179.133317367234, -3853.95483421741, -7390.649007636191, -4953.683013162972, -6735.2288049732215, -4491.359530849401, -4953.683013162972, -4604.302895582067, -0.126, 0.968, 0.256, 192.0, 0.0, 0.0, 0.0, 0.0, 0.0, 0.0, 0.0, 0.0, 0.0, 1.7398203594067256E9, 0.0, 2025-02-17 16:25:59.406
98.0, 3179.7591662119826, -3874.2725699272837, -7393.331216970828, -4915.30506793321, -6761.760325641671, -4516.102911961426, -4974.8501151621485, -4619.949116700783, -0.126, 0.968, 0.256, 192.0, 0.0, 0.0, 0.0, 0.0, 0.0, 0.0, 0.0, 0.0, 0.0, 1.739820359406757E9, 0.0, 2025-02-17 16:25:59.406
99.0, 3180.4744220345524, -3888.9576660344205, -7408.642161922713, -4888.572381564663, -6771.639796690917, -4528.150502222837, -4989.51285952483, -4634.567157574554, -0.126, 0.968, 0.256, 192.0, 0.0, 0.0, 0.0, 0.0, 0.0, 0.0, 0.0, 0.0, 0.0, 1.739820359406785E9, 0.0, 2025-02-17 16:25:59.406
100.0, 3182.0837476353345, -3870.4727733698815, -7419.303944027894, -4961.46142023342, -6746.538787667607, -4504.3235426334795, -4971.296187793754, -4624.285355125112, -0.126, 0.968, 0.256, 192.0, 0.0, 0.0, 0.0, 0.0, 0.0, 0.0, 0.0, 0.0, 0.0, 1.7398203594068108E9, 0.0, 2025-02-17 16:25:59.406
101.0, 3184.4753842920527, -3870.651587325524, -7413.537193958426, -4995.547830527763, -6751.411467958864, -4506.648124056831, -4971.989091871869, -4621.96077370176, -0.126, 0.968, 0.256, 192.0, 0.0, 0.0, 0.0, 0.0, 0.0, 0.0, 0.0, 0.0, 0.0, 1.7398203594068367E9, 0.0, 2025-02-17 16:25:59.406
102.0, 3182.9554656690916, -3891.5281166467807, -7412.151385802196, -4951.224321272889, -6779.172334572356, -4531.3244499354905, -4991.502164781352, -4634.902433741383, -0.126, 0.968, 0.256, 192.0, 0.0, 0.0, 0.0, 0.0, 0.0, 0.0, 0.0, 0.0, 0.0, 1.7398203594068635E9, 0.0, 2025-02-17 16:25:59.406
103.0, 3180.8320499458373, -3914.4163029690153, -7425.629487708747, -4897.06604445768, -6799.981808660246, -4554.905540335839, -5012.736322013894, -4653.4767333837435, -0.126, 0.968, 0.256, 192.0, 0.0, 0.0, 0.0, 0.0, 0.0, 0.0, 0.0, 0.0, 0.0, 1.7398203594068904E9, 0.0, 2025-02-17 16:25:59.406
104.0, 3182.5978377578067, -3905.7661778648117, -7445.455485040604, -4952.096039306645, -6779.552314228095, -4538.097028505448, -5003.7956242317705, -4651.666242082863, -0.07200000000000001, 0.99, 0.276, 192.0, 253.0, 192.0, 30.0, 240.0, 8.0, 160.0, 0.0, 0.0, 0.0, 1.7398203594069176E9, 0.0, 2025-02-17 16:25:59.406
105.0, 3181.7261197240496, -3897.4066254385266, -7440.918080916176, -5000.8004904747595, -6775.506648481685, -4531.011525513116, -4997.023045661813, -4646.614747835964, -0.07200000000000001, 0.99, 0.276, 192.0, 0.0, 0.0, 0.0, 0.0, 0.0, 0.0, 0.0, 0.0, 0.0, 1.7398203594069803E9, 0.0, 2025-02-17 16:25:59.406
106.0, 3180.3850150567314, -3912.1140732901185, -7437.475912270059, -4972.771402927805, -6798.73011097075, -4552.826828101495, -5012.535156313796, -4658.394117163911, -0.07200000000000001, 0.99, 0.276, 192.0, 0.0, 0.0, 0.0, 0.0, 0.0, 0.0, 0.0, 0.0, 0.0, 1.7398203594070065E9, 0.0, 2025-02-17 16:25:59.407
107.0, 3180.876753434748, -3936.678640446501, -7450.037592653942, -4923.061123259202, -6825.440445594842, -4578.866610391929, -5036.160950203055, -4677.884838328939, -0.07200000000000001, 0.99, 0.276, 192.0, 0.0, 0.0, 0.0, 0.0, 0.0, 0.0, 0.0, 0.0, 0.0, 1.739820359407043E9, 0.0, 2025-02-17 16:25:59.407
108.0, 3181.5696575128627, -3925.525119963303, -7467.494305073536, -4970.312711037721, -6800.942933671825, -4559.197075271258, -5025.655630309061, -4674.465021427277, -0.07200000000000001, 0.99, 0.276, 192.0, 0.0, 0.0, 0.0, 0.0, 0.0, 0.0, 0.0, 0.0, 0.0, 1.7398203594070697E9, 0.0, 2025-02-17 16:25:59.407
109.0, 3182.910762180181, -3904.9615150644204, -7460.542912547936, -5042.397086906086, -6783.396814274409, -4541.963880296216, -5008.690656267483, -4662.059803254581, -0.07200000000000001, 0.99, 0.276, 192.0, 0.0, 0.0, 0.0, 0.0, 0.0, 0.0, 0.0, 0.0, 0.0, 1.7398203594070952E9, 0.0, 2025-02-17 16:25:59.407
110.0, 3185.5706197703626, -3910.0577128002305, -7451.624566510269, -5037.211482192455, -6794.483279524241, -4544.914310564317, -5015.8208627487265, -4667.871256812961, -0.07200000000000001, 0.99, 0.276, 192.0, 0.0, 0.0, 0.0, 0.0, 0.0, 0.0, 0.0, 0.0, 0.0, 1.739820359407121E9, 0.0, 2025-02-17 16:25:59.407
111.0, 3186.419986059664, -3918.484320459881, -7449.009412408997, -4995.033740405291, -6803.222811606266, -4561.007566572138, -5026.035609964802, -4675.269684227667, -0.07200000000000001, 0.99, 0.276, 192.0, 0.0, 0.0, 0.0, 0.0, 0.0, 0.0, 0.0, 0.0, 0.0, 1.739820359407157E9, 0.0, 2025-02-17 16:25:59.407
112.0, 3188.878677949748, -3896.3113899602167, -7453.211540366596, -5032.070580967735, -6770.276340279143, -4531.793836569052, -5004.980266687902, -4662.864466054973, -0.07200000000000001, 0.99, 0.276, 192.0, 0.0, 0.0, 0.0, 0.0, 0.0, 0.0, 0.0, 0.0, 0.0, 1.7398203594071827E9, 0.0, 2025-02-17 16:25:59.407
113.0, 3188.6104570162843, -3857.2852441412506, -7431.932679645143, -5107.731235948949, -6730.244365959688, -4490.443109326734, -4967.988129614369, -4630.812064506062, -0.07200000000000001, 0.99, 0.276, 192.0, 0.0, 0.0, 0.0, 0.0, 0.0, 0.0, 0.0, 0.0, 0.0, 1.7398203594072087E9, 0.0, 2025-02-17 16:25:59.407
114.0, 3188.2081256160886, -3847.6069387921025, -7405.490565954515, -5096.0636253432785, -6728.232708958711, -4483.022330167571, -4958.622748687595, -4617.5574800440645, -0.01, 1.018, 0.28400000000000003, 192.0, 255.0, 176.0, 31.0, 208.0, 8.0, 224.0, 0.0, 0.0, 0.0, 1.7398203594072363E9, 0.0, 2025-02-17 16:25:59.407
115.0, 3191.1138523952786, -3858.268720897284, -7395.767557116456, -5033.702258312972, -6744.3259649665315, -4499.048530942026, -4968.837495903671, -4622.005477190671, -0.01, 1.018, 0.28400000000000003, 192.0, 0.0, 0.0, 0.0, 0.0, 0.0, 0.0, 0.0, 0.0, 0.0, 1.739820359407266E9, 0.0, 2025-02-17 16:25:59.407
116.0, 3190.8903349507254, -3849.3503748596163, -7398.248600750995, -5017.988981960891, -6728.925613036825, -4485.771594735575, -4957.7733823982935, -4614.0929596534925, -0.01, 1.018, 0.28400000000000003, 192.0, 0.0, 0.0, 0.0, 0.0, 0.0, 0.0, 0.0, 0.0, 0.0, 1.7398203594072907E9, 0.0, 2025-02-17 16:25:59.407
117.0, 3190.4433000616195, -3819.5778512451475, -7388.279722723928, -5074.024805310346, -6690.748833507161, -4450.142914073815, -4929.140797751045, -4589.707206452752, -0.01, 1.018, 0.28400000000000003, 192.0, 0.0, 0.0, 0.0, 0.0, 0.0, 0.0, 0.0, 0.0, 0.0, 1.7398203594073193E9, 0.0, 2025-02-17 16:25:59.407
118.0, 3190.7785762284493, -3814.0569703646865, -7368.856056792267, -5064.5476656612955, -6693.319284119521, -4449.78528616253, -4922.882309303559, -4580.230066803702, -0.01, 1.018, 0.28400000000000003, 192.0, 0.0, 0.0, 0.0, 0.0, 0.0, 0.0, 0.0, 0.0, 0.0, 1.7398203594073453E9, 0.0, 2025-02-17 16:25:59.407
119.0, 3190.845631461815, -3826.1492641150076, -7360.474152621527, -5001.5604497862405, -6708.250249415666, -4469.141896860826, -4934.192291997944, -4587.2708663071235, -0.01, 1.018, 0.28400000000000003, 192.0, 0.0, 0.0, 0.0, 0.0, 0.0, 0.0, 0.0, 0.0, 0.0, 1.7398203594073727E9, 0.0, 2025-02-17 16:25:59.407
120.0, 3191.1138523952786, -3828.563252516181, -7367.224379447029, -4967.742260425361, -6705.590391825484, -4468.001957893605, -4934.974603053881, -4589.57309598602, -0.01, 1.018, 0.28400000000000003, 192.0, 0.0, 0.0, 0.0, 0.0, 0.0, 0.0, 0.0, 0.0, 0.0, 1.7398203594074104E9, 0.0, 2025-02-17 16:25:59.407
121.0, 3193.0137506739798, -3803.484595237326, -7368.386670158705, -5025.387409375598, -6676.46606880022, -4434.720210399653, -4910.655905086506, -4571.3564242549455, -0.01, 1.018, 0.28400000000000003, 192.0, 0.0, 0.0, 0.0, 0.0, 0.0, 0.0, 0.0, 0.0, 0.0, 1.7398203594074361E9, 0.0, 2025-02-17 16:25:59.407
122.0, 3195.5394977974297, -3797.4719759788486, -7354.103905451764, -5034.931604258014, -6677.941283934269, -4437.380067989835, -4905.023265483769, -4562.9074648508395, -0.01, 1.018, 0.28400000000000003, 192.0, 0.0, 0.0, 0.0, 0.0, 0.0, 0.0, 0.0, 0.0, 0.0, 1.7398203594074676E9, 0.0, 2025-02-17 16:25:59.407
123.0, 3195.1148146527785, -3810.9053743964882, -7347.085457692798, -4981.198010587455, -6695.599162053963, -4447.304242527991, -4918.769588323783, -4571.646996932865, -0.01, 1.018, 0.28400000000000003, 192.0, 0.0, 0.0, 0.0, 0.0, 0.0, 0.0, 0.0, 0.0, 0.0, 1.7398203594074929E9, 0.0, 2025-02-17 16:25:59.407
124.0, 3196.433567575642, -3821.9024326684994, -7355.221492674529, -4935.220472242889, -6706.216240670234, -4459.374184533856, -4928.470245417386, -4580.3418255259785, 0.05, 1.064, 0.296, 192.0, 1.0, 144.0, 33.0, 64.0, 9.0, 64.0, 0.0, 0.0, 0.0, 1.7398203594075167E9, 0.0, 2025-02-17 16:25:59.407
125.0, 3197.752320498505, -3802.791691159212, -7361.703498566569, -4986.27185657881, -6674.096783887957, -4436.620108678354, -4908.487785874341, -4566.081412563492, 0.05, 1.064, 0.296, 192.0, 0.0, 0.0, 0.0, 0.0, 0.0, 0.0, 0.0, 0.0, 0.0, 1.7398203594075432E9, 0.0, 2025-02-17 16:25:59.407
126.0, 3196.724140253561, -3794.8121183886674, -7349.007707715954, -5006.589592288684, -6670.699318730751, -4427.657059151776, -4901.782262537749, -4558.750040382152, 0.05, 1.064, 0.296, 192.0, 0.0, 0.0, 0.0, 0.0, 0.0, 0.0, 0.0, 0.0, 0.0, 1.739820359407599E9, 0.0, 2025-02-17 16:25:59.407
127.0, 3196.5453262979186, -3810.1007115960974, -7343.710344280046, -4958.26512077631, -6696.336769620988, -4448.958271617684, -4916.646172600529, -4569.970616098716, 0.05, 1.064, 0.296, 192.0, 0.0, 0.0, 0.0, 0.0, 0.0, 0.0, 0.0, 0.0, 0.0, 1.7398203594076245E9, 0.0, 2025-02-17 16:25:59.407
128.0, 3197.5958582873177, -3830.463150794882, -7354.685050807602, -4900.664675314984, -6717.839147786993, -4470.617111994876, -4936.4051146990205, -4587.67319770732, 0.05, 1.064, 0.296, 192.0, 0.0, 0.0, 0.0, 0.0, 0.0, 0.0, 0.0, 0.0, 0.0, 1.7398203594076507E9, 0.0, 2025-02-17 16:25:59.407
129.0, 3198.2217071320665, -3814.1910808314183, -7367.380841658216, -4941.657774646017, -6694.548630064563, -4449.3829547623345, -4919.596602868629, -4576.944360368772, 0.05, 1.064, 0.296, 192.0, 0.0, 0.0, 0.0, 0.0, 0.0, 0.0, 0.0, 0.0, 0.0, 1.7398203594076757E9, 0.0, 2025-02-17 16:25:59.407
130.0, 3198.691093765628, -3803.529298726237, -7359.848303776777, -4984.349606555654, -6682.031653169591, -4438.520006957056, -4910.2088701974, -4566.439040474777, 0.05, 1.064, 0.296, 192.0, 0.0, 0.0, 0.0, 0.0, 0.0, 0.0, 0.0, 0.0, 0.0, 1.739820359407701E9, 0.0, 2025-02-17 16:25:59.407
131.0, 3198.467576321075, -3816.13568259903, -7353.12042869573, -4952.7218881513945, -6701.209449912245, -4457.2507688106025, -4923.664620359495, -4576.452621990755, 0.05, 1.064, 0.296, 192.0, 0.0, 0.0, 0.0, 0.0, 0.0, 0.0, 0.0, 0.0, 0.0, 1.7398203594077256E9, 0.0, 2025-02-17 16:25:59.407
132.0, 3199.2722391214656, -3839.2473863658174, -7361.748202055479, -4894.137965934035, -6728.1209502364345, -4483.782289479052, -4945.256405503322, -4595.295142566579, 0.05, 1.064, 0.296, 192.0, 0.0, 0.0, 0.0, 0.0, 0.0, 0.0, 0.0, 0.0, 0.0, 1.739820359407751E9, 0.0, 2025-02-17 16:25:59.407
133.0, 3199.048721676913, -3829.904357183499, -7377.349719685283, -4921.228280213867, -6707.825566271015, -4465.07387936996, -4934.728733864872, -4590.333055297501, 0.05, 1.064, 0.296, 192.0, 0.0, 0.0, 0.0, 0.0, 0.0, 0.0, 0.0, 0.0, 0.0, 1.739820359407776E9, 0.0, 2025-02-17 16:25:59.407
134.0, 3199.495756566019, -3813.788749431223, -7372.231170205018, -4978.851077419648, -6688.692473017272, -4448.064201839471, -4920.960059280403, -4579.090127836482, 0.098, 1.018, 0.32, 192.0, 3.0, 16.0, 31.0, 208.0, 10.0, 0.0, 0.0, 0.0, 0.0, 1.739820359407802E9, 0.0, 2025-02-17 16:25:59.407
135.0, 3201.2391926335326, -3824.7411042143235, -7365.145667212685, -4961.796696400249, -6709.189022682789, -4465.543266003521, -4932.247690230333, -4587.5614389850425, 0.098, 1.018, 0.32, 192.0, 0.0, 0.0, 0.0, 0.0, 0.0, 0.0, 0.0, 0.0, 0.0, 1.7398203594078288E9, 0.0, 2025-02-17 16:25:59.407
136.0, 3201.462710078086, -3845.684688768946, -7369.660719592657, -4903.950381749914, -6739.810912586559, -4487.962065692194, -4953.392440485053, -4605.934572927305, 0.098, 1.018, 0.32, 192.0, 0.0, 0.0, 0.0, 0.0, 0.0, 0.0, 0.0, 0.0, 0.0, 1.739820359407863E9, 0.0, 2025-02-17 16:25:59.407
137.0, 3202.3120763673874, -3841.23669162234, -7385.217533733551, -4916.847338300627, -6721.258964688655, -4480.988321422139, -4947.536283437763, -4605.554593271565, 0.098, 1.018, 0.32, 192.0, 0.0, 0.0, 0.0, 0.0, 0.0, 0.0, 0.0, 0.0, 0.0, 1.739820359407896E9, 0.0, 2025-02-17 16:25:59.407
138.0, 3199.518108310474, -3815.487482009826, -7378.512010396959, -4983.500240266352, -6691.352330607454, -4450.612300707377, -4922.882309303559, -4585.974465128716, 0.098, 1.018, 0.32, 192.0, 0.0, 0.0, 0.0, 0.0, 0.0, 0.0, 0.0, 0.0, 0.0, 1.739820359407927E9, 0.0, 2025-02-17 16:25:59.407
139.0, 3201.9544484561025, -3821.4777495238486, -7367.783173058412, -4980.728623953894, -6705.769205781127, -4459.396536278312, -4929.230204728867, -4589.126061096914, 0.098, 1.018, 0.32, 192.0, 0.0, 0.0, 0.0, 0.0, 0.0, 0.0, 0.0, 0.0, 0.0, 1.7398203594079523E9, 0.0, 2025-02-17 16:25:59.407
140.0, 3203.1167391677786, -3844.9694329463764, -7368.654891092168, -4921.87648080307, -6734.960584039758, -4489.638446526343, -4951.984280584369, -4605.95692467176, 0.098, 1.018, 0.32, 192.0, 0.0, 0.0, 0.0, 0.0, 0.0, 0.0, 0.0, 0.0, 0.0, 1.739820359407977E9, 0.0, 2025-02-17 16:25:59.407
141.0, 3203.58612580134, -3854.0218894507757, -7385.977493045032, -4906.2079079399, -6733.530072394618, -4491.851269227418, -4958.086306820668, -4613.4447590642885, 0.098, 1.018, 0.32, 192.0, 0.0, 0.0, 0.0, 0.0, 0.0, 0.0, 0.0, 0.0, 0.0, 1.739820359408002E9, 0.0, 2025-02-17 16:25:59.408
142.0, 3202.021503689469, -3833.681801996446, -7389.173792502141, -4968.882199392581, -6708.965505238236, -4468.35958580489, -4936.829797843671, -4598.156165856858, 0.098, 1.018, 0.32, 192.0, 0.0, 0.0, 0.0, 0.0, 0.0, 0.0, 0.0, 0.0, 0.0, 1.7398203594080372E9, 0.0, 2025-02-17 16:25:59.408
143.0, 3201.082730422346, -3837.593357276125, -7379.741356342001, -4971.407946516031, -6721.817758300038, -4479.446051054722, -4939.2661379893, -4599.251401335168, 0.098, 1.018, 0.32, 192.0, 0.0, 0.0, 0.0, 0.0, 0.0, 0.0, 0.0, 0.0, 0.0, 1.7398203594080625E9, 0.0, 2025-02-17 16:25:59.408
144.0, 3202.4685385785747, -3864.9965959783312, -7384.211705233062, -4921.11652149159, -6748.61749990195, -4505.1505571783255, -4966.423507502497, -4620.753779501174, 0.052000000000000005, 0.974, 0.34600000000000003, 192.0, 1.0, 160.0, 30.0, 112.0, 10.0, 208.0, 0.0, 0.0, 0.0, 1.7398203594080892E9, 0.0, 2025-02-17 16:25:59.408
145.0, 3203.630829290251, -3879.7934508077446, -7402.383673475227, -4894.87557350106, -6759.48044770723, -4518.025161984582, -4979.9016094090475, -4633.606032562975, 0.052000000000000005, 0.974, 0.34600000000000003, 192.0, 0.0, 0.0, 0.0, 0.0, 0.0, 0.0, 0.0, 0.0, 0.0, 1.7398203594081163E9, 0.0, 2025-02-17 16:25:59.408
146.0, 3205.7542450135047, -3862.135572688052, -7414.051284080897, -4965.685899935473, -6734.960584039758, -4495.204030895714, -4962.847228389648, -4622.921898713338, 0.052000000000000005, 0.974, 0.34600000000000003, 192.0, 0.0, 0.0, 0.0, 0.0, 0.0, 0.0, 0.0, 0.0, 0.0, 1.7398203594081423E9, 0.0, 2025-02-17 16:25:59.408
147.0, 3205.977762458058, -3860.548598831725, -7404.842365365311, -4989.244638591366, -6742.2696044766435, -4498.489737330644, -4962.355490011631, -4620.709076012263, 0.052000000000000005, 0.974, 0.34600000000000003, 192.0, 0.0, 0.0, 0.0, 0.0, 0.0, 0.0, 0.0, 0.0, 0.0, 1.7398203594081676E9, 0.0, 2025-02-17 16:25:59.408
148.0, 3204.256678134999, -3880.106375230119, -7401.9813420750315, -4945.569329925696, -6763.570816942552, -4522.2272899421805, -4981.6673972210165, -4635.260061652668, 0.052000000000000005, 0.974, 0.34600000000000003, 192.0, 0.0, 0.0, 0.0, 0.0, 0.0, 0.0, 0.0, 0.0, 0.0, 1.7398203594082067E9, 0.0, 2025-02-17 16:25:59.408
149.0, 3203.4743670790635, -3898.1889364944623, -7415.437092237126, -4905.1797276949565, -6780.602846217495, -4538.991098283661, -4997.715949739927, -4650.101619970992, 0.052000000000000005, 0.974, 0.34600000000000003, 192.0, 0.0, 0.0, 0.0, 0.0, 0.0, 0.0, 0.0, 0.0, 0.0, 1.7398203594082332E9, 0.0, 2025-02-17 16:25:59.408
150.0, 3202.6697042786723, -3882.565067120203, -7428.6916766991235, -4962.288434778266, -6752.506703437174, -4516.058208472516, -4982.159135599034, -4639.708058799274, 0.052000000000000005, 0.974, 0.34600000000000003, 192.0, 0.0, 0.0, 0.0, 0.0, 0.0, 0.0, 0.0, 0.0, 0.0, 1.7398203594082596E9, 0.0, 2025-02-17 16:25:59.408
151.0, 3204.368436857276, -3878.2288286958733, -7422.187319062629, -4999.057054407246, -6754.540712182607, -4518.360438151412, -4978.292283808266, -4635.2824133971235, 0.052000000000000005, 0.974, 0.34600000000000003, 192.0, 0.0, 0.0, 0.0, 0.0, 0.0, 0.0, 0.0, 0.0, 0.0, 1.739820359408285E9, 0.0, 2025-02-17 16:25:59.408
152.0, 3205.530727568952, -3897.1160527606075, -7420.443882995115, -4967.31757728071, -6782.547447985107, -4533.023182514094, -4997.93946718448, -4651.196855449302, 0.052000000000000005, 0.974, 0.34600000000000003, 192.0, 0.0, 0.0, 0.0, 0.0, 0.0, 0.0, 0.0, 0.0, 0.0, 1.739820359408321E9, 0.0, 2025-02-17 16:25:59.408
153.0, 3207.654143292206, -3919.847776871655, -7433.273784312461, -4922.457626158908, -6804.452157551308, -4558.057136304037, -5020.984115717902, -4672.54277140412, 0.052000000000000005, 0.974, 0.34600000000000003, 192.0, 0.0, 0.0, 0.0, 0.0, 0.0, 0.0, 0.0, 0.0, 0.0, 1.7398203594083564E9, 0.0, 2025-02-17 16:25:59.408
154.0, 3207.6317915477507, -3908.426035454993, -7449.434095553648, -4967.094059836157, -6782.905075896392, -4541.7180111072075, -5009.003580689858, -4666.3960416789105, 0.056, 0.904, 0.374, 192.0, 1.0, 192.0, 28.0, 64.0, 11.0, 176.0, 0.0, 0.0, 0.0, 1.7398203594083893E9, 0.0, 2025-02-17 16:25:59.408
155.0, 3205.262506635488, -3896.3113899602167, -7440.582804749347, -5012.624563291617, -6772.109183324478, -4532.978479025183, -4997.559487528741, -4655.5330938736315, 0.056, 0.904, 0.374, 192.0, 0.0, 0.0, 0.0, 0.0, 0.0, 0.0, 0.0, 0.0, 0.0, 1.739820359408416E9, 0.0, 2025-02-17 16:25:59.408
156.0, 3203.8543467348036, -3908.627201155091, -7432.223252323062, -4987.009464145835, -6792.672788223361, -4550.904578078339, -5008.9588772009465, -4664.183218977835, 0.056, 0.904, 0.374, 192.0, 0.0, 0.0, 0.0, 0.0, 0.0, 0.0, 0.0, 0.0, 0.0, 1.7398203594084413E9, 0.0, 2025-02-17 16:25:59.408
157.0, 3207.6317915477507, -3936.455123001948, -7443.689697228635, -4939.489655433852, -6821.439483337341, -4576.1173458239255, -5036.540929858796, -4689.26187625669, 0.056, 0.904, 0.374, 192.0, 0.0, 0.0, 0.0, 0.0, 0.0, 0.0, 0.0, 0.0, 0.0, 1.7398203594084659E9, 0.0, 2025-02-17 16:25:59.408
158.0, 3208.9505444706137, -3932.744733422367, -7463.135714904752, -4970.268007548811, -6806.597925019018, -4569.791802143073, -5032.4952641123855, -4689.664207656885, 0.056, 0.904, 0.374, 192.0, 0.0, 0.0, 0.0, 0.0, 0.0, 0.0, 0.0, 0.0, 0.0, 1.7398203594084988E9, 0.0, 2025-02-17 16:25:59.408
159.0, 3211.006904960502, -3920.7641983943226, -7461.884017215254, -5031.064752467246, -6798.238372592732, -4557.453639203744, -5022.369923874131, -4681.103489530503, 0.056, 0.904, 0.374, 192.0, 0.0, 0.0, 0.0, 0.0, 0.0, 0.0, 0.0, 0.0, 0.0, 1.7398203594085245E9, 0.0, 2025-02-17 16:25:59.408
160.0, 3210.515166582485, -3932.3424020221714, -7452.675098499668, -5015.977324959913, -6814.130462900456, -4571.5352382105875, -5033.836368779704, -4689.395986723422, 0.056, 0.904, 0.374, 192.0, 0.0, 0.0, 0.0, 0.0, 0.0, 0.0, 0.0, 0.0, 0.0, 1.7398203594085493E9, 0.0, 2025-02-17 16:25:59.408
161.0, 3210.425759604664, -3955.834085444699, -7455.670232256679, -4963.428373745486, -6840.684335313361, -4599.631380990909, -5056.366927190653, -4708.55143172162, 0.056, 0.904, 0.374, 192.0, 0.0, 0.0, 0.0, 0.0, 0.0, 0.0, 0.0, 0.0, 0.0, 1.7398203594085736E9, 0.0, 2025-02-17 16:25:59.408
162.0, 3211.520995082974, -3959.097440135174, -7475.742098777545, -4975.095984351156, -6836.97394573378, -4592.925857654316, -5057.730383602427, -4713.513518990698, 0.056, 0.904, 0.374, 192.0, 0.0, 0.0, 0.0, 0.0, 0.0, 0.0, 0.0, 0.0, 0.0, 1.7398203594085987E9, 0.0, 2025-02-17 16:25:59.408
163.0, 3212.191547416633, -3944.2782335613056, -7478.737232534556, -5041.055982238768, -6817.997314691224, -4576.2291045462025, -5044.788723562804, -4702.851736885516, 0.056, 0.904, 0.374, 192.0, 0.0, 0.0, 0.0, 0.0, 0.0, 0.0, 0.0, 0.0, 0.0, 1.7398203594086232E9, 0.0, 2025-02-17 16:25:59.408
164.0, 3210.6492770492173, -3950.648480731068, -7467.628415540268, -5036.049191480779, -6830.804864264115, -4588.991950630182, -5050.734287587916, -4706.070388087081, 0.09, 0.866, 0.376, 192.0, 2.0, 208.0, 27.0, 16.0, 11.0, 192.0, 0.0, 0.0, 0.0, 1.739820359408648E9, 0.0, 2025-02-17 16:25:59.408
165.0, 3210.11283518229, -3973.3131496087494, -7469.438906841148, -4987.456499034942, -6860.063297756112, -4615.232898620713, -5071.990796564913, -4723.705914462318, 0.09, 0.866, 0.376, 192.0, 0.0, 0.0, 0.0, 0.0, 0.0, 0.0, 0.0, 0.0, 0.0, 1.7398203594086745E9, 0.0, 2025-02-17 16:25:59.408
166.0, 3212.102140438812, -3983.6620072915566, -7489.778994295478, -4983.70140596645, -6863.728983846782, -4623.43598883581, -5080.462107713474, -4733.115998878003, 0.09, 0.866, 0.376, 192.0, 0.0, 0.0, 0.0, 0.0, 0.0, 0.0, 0.0, 0.0, 0.0, 1.7398203594086993E9, 0.0, 2025-02-17 16:25:59.408
167.0, 3213.2420794060326, -3969.289835606794, -7499.6584653447235, -5054.265863211855, -6842.897158014436, -4600.346636813479, -5066.805191851281, -4723.3929900399435, 0.09, 0.866, 0.376, 192.0, 0.0, 0.0, 0.0, 0.0, 0.0, 0.0, 0.0, 0.0, 0.0, 1.7398203594087236E9, 0.0, 2025-02-17 16:25:59.408
168.0, 3214.650239306717, -3975.0118821873525, -7492.237686185562, -5066.33580521772, -6852.463704641307, -4610.069645651537, -5073.153087276589, -4727.528062764176, 0.09, 0.866, 0.376, 192.0, 0.0, 0.0, 0.0, 0.0, 0.0, 0.0, 0.0, 0.0, 0.0, 1.7398203594087548E9, 0.0, 2025-02-17 16:25:59.408
169.0, 3212.772692772471, -3994.971989985942, -7490.67306407369, -5019.173624417022, -6881.632731155483, -4636.243538408701, -5092.979084608446, -4743.554263538631, 0.09, 0.866, 0.376, 192.0, 0.0, 0.0, 0.0, 0.0, 0.0, 0.0, 0.0, 0.0, 0.0, 1.7398203594087875E9, 0.0, 2025-02-17 16:25:59.408
170.0, 3210.7386840270383, -4007.5336703698244, -7507.05689275943, -4992.418586304019, -6891.847478371558, -4649.118143214959, -5105.071378358767, -4755.490095077765, 0.09, 0.866, 0.376, 192.0, 0.0, 0.0, 0.0, 0.0, 0.0, 0.0, 0.0, 0.0, 0.0, 1.739820359408812E9, 0.0, 2025-02-17 16:25:59.408
171.0, 3210.6716287936724, -3990.9486759839865, -7520.132663265785, -5061.57488364874, -6864.488943158262, -4625.7158667702515, -5087.681721172538, -4742.570786782598, 0.09, 0.866, 0.376, 192.0, 0.0, 0.0, 0.0, 0.0, 0.0, 0.0, 0.0, 0.0, 0.0, 1.7398203594088364E9, 0.0, 2025-02-17 16:25:59.408
172.0, 3212.0127334609906, -3993.0497399627857, -7513.293029462461, -5088.866363628669, -6872.759088606726, -4628.219262149246, -5090.00630259589, -4743.50956004972, 0.09, 0.866, 0.376, 192.0, 0.0, 0.0, 0.0, 0.0, 0.0, 0.0, 0.0, 0.0, 0.0, 1.739820359408861E9, 0.0, 2025-02-17 16:25:59.408
173.0, 3211.0516084494125, -4014.6191733621567, -7514.164747496217, -5049.840217809703, -6902.039873843179, -4655.667204340363, -5114.123834863167, -4763.581426570586, 0.09, 0.866, 0.376, 192.0, 0.0, 0.0, 0.0, 0.0, 0.0, 0.0, 0.0, 0.0, 0.0, 1.7398203594088924E9, 0.0, 2025-02-17 16:25:59.408
174.0, 3207.5423845699293, -4031.740609614922, -7530.325058737405, -5008.84711847867, -6923.095217120078, -4680.723509874762, -5134.0615909173, -4781.70869132384, 0.10200000000000001, 0.922, 0.36, 192.0, 3.0, 48.0, 28.0, 208.0, 11.0, 64.0, 0.0, 0.0, 0.0, 1.7398203594089172E9, 0.0, 2025-02-17 16:25:59.408
175.0, 3209.5093380819962, -4022.4646356659696, -7549.145227568773, -5066.134639517622, -6901.6375424429825, -4663.155038732892, -5122.058704144801, -4774.511429609231, 0.10200000000000001, 0.922, 0.36, 192.0, 0.0, 0.0, 0.0, 0.0, 0.0, 0.0, 0.0, 0.0, 0.0, 1.7398203594089437E9, 0.0, 2025-02-17 16:25:59.408
176.0, 3211.6998090386164, -4026.867929323665, -7549.927538624709, -5103.283238802343, -6908.164251823932, -4665.300806200601, -5127.803102469815, -4779.18294420039, 0.10200000000000001, 0.922, 0.36, 192.0, 0.0, 0.0, 0.0, 0.0, 0.0, 0.0, 0.0, 0.0, 0.0, 1.7398203594089684E9, 0.0, 2025-02-17 16:25:59.408
177.0, 3208.5705648148737, -4046.8280371222545, -7554.911977638242, -5070.806154108782, -6940.618984773038, -4695.520364704176, -5153.0605737043115, -4801.937020055892, 0.10200000000000001, 0.922, 0.36, 192.0, 0.0, 0.0, 0.0, 0.0, 0.0, 0.0, 0.0, 0.0, 0.0, 1.7398203594089935E9, 0.0, 2025-02-17 16:25:59.408
178.0, 3212.2809543944545, -4063.033051852352, -7571.586379001901, -5047.04624975279, -6953.80651400167, -4710.987771867249, -5170.0255477458895, -4821.315982498644, 0.10200000000000001, 0.922, 0.36, 192.0, 0.0, 0.0, 0.0, 0.0, 0.0, 0.0, 0.0, 0.0, 0.0, 1.7398203594090185E9, 0.0, 2025-02-17 16:25:59.409
179.0, 3215.656067807206, -4032.455865437492, -7580.460021550659, -5127.020791413879, -6908.857155902047, -4673.012158037682, -5141.884701476658, -4802.227592733811, 0.10200000000000001, 0.922, 0.36, 192.0, 0.0, 0.0, 0.0, 0.0, 0.0, 0.0, 0.0, 0.0, 0.0, 1.7398203594090436E9, 0.0, 2025-02-17 16:25:59.409
180.0, 3221.9816114880578, -4007.623077347646, -7561.863370163843, -5201.765024872426, -6879.844591599059, -4641.58560533352, -5117.364837809186, -4780.725214567807, 0.10200000000000001, 0.922, 0.36, 192.0, 0.0, 0.0, 0.0, 0.0, 0.0, 0.0, 0.0, 0.0, 0.0, 1.7398203594090683E9, 0.0, 2025-02-17 16:25:59.409
181.0, 3222.4509981216193, -3997.318923153749, -7538.170521041217, -5194.79128060237, -6877.140030519967, -4634.947137230294, -5108.670009216072, -4772.052737719147, 0.10200000000000001, 0.922, 0.36, 192.0, 0.0, 0.0, 0.0, 0.0, 0.0, 0.0, 0.0, 0.0, 0.0, 1.739820359409093E9, 0.0, 2025-02-17 16:25:59.409
182.0, 3222.4509981216193, -3986.5006788373807, -7523.127797022796, -5164.9740534989905, -6867.774649593192, -4627.079323182025, -5100.1763463230545, -4765.727194038295, 0.10200000000000001, 0.922, 0.36, 192.0, 0.0, 0.0, 0.0, 0.0, 0.0, 0.0, 0.0, 0.0, 0.0, 1.7398203594091177E9, 0.0, 2025-02-17 16:25:59.409
183.0, 3222.9650882440915, -3945.909910906543, -7511.7731108395, -5204.871917351713, -6816.186823390344, -4581.258247048646, -5061.351366204187, -4733.965365167304, 0.10200000000000001, 0.922, 0.36, 192.0, 0.0, 0.0, 0.0, 0.0, 0.0, 0.0, 0.0, 0.0, 0.0, 1.7398203594091496E9, 0.0, 2025-02-17 16:25:59.409
184.0, 3224.105027211312, -3907.2413929988616, -7481.1065174468185, -5252.816409208347, -6778.479430494241, -4542.075639018493, -5022.794607018782, -4696.280324015656, 0.114, 0.962, 0.354, 192.0, 3.0, 144.0, 30.0, 16.0, 11.0, 16.0, 0.0, 0.0, 0.0, 1.739820359409174E9, 0.0, 2025-02-17 16:25:59.409
185.0, 3226.429608634664, -3905.788529609267, -7453.166836877685, -5212.471510466517, -6784.536753241629, -4545.629566386887, -5017.407836605053, -4685.3056174881, 0.114, 0.962, 0.354, 192.0, 0.0, 0.0, 0.0, 0.0, 0.0, 0.0, 0.0, 0.0, 0.0, 1.7398203594092076E9, 0.0, 2025-02-17 16:25:59.409
0.0, 0.0, 0.0, 0.0, 0.0, 0.0, 0.0, 0.0, 0.0, 0.08, 0.9560000000000001, 0.342, 192.0, 2.0, 128.0, 29.0, 224.0, 10.0, 176.0, 0.0, 0.0, 0.0, 1.7398203594921577E9, 0.0, 2025-02-17 16:25:59.492
1.0, 3250.7706583464933, -3912.7175703904118, -7427.194109820618, -5018.458368594453, -6803.625143006461, -4556.4478107032555, -5015.306772626254, -4670.821687081062, 0.08, 0.9560000000000001, 0.342, 192.0, 0.0, 0.0, 0.0, 0.0, 0.0, 0.0, 0.0, 0.0, 0.0, 1.73982035997635E9, 0.0, 2025-02-17 16:25:59.976
2.0, 3251.530617657974, -3899.7982620952444, -7449.791723464933, -5038.127903715123, -6779.127631083445, -4531.235042957669, -5007.573069044718, -4661.8139340655725, 0.08, 0.9560000000000001, 0.342, 192.0, 0.0, 0.0, 0.0, 0.0, 0.0, 0.0, 0.0, 0.0, 0.0, 1.739820359976416E9, 0.0, 2025-02-17 16:25:59.976
3.0, 3252.6035013918286, -3883.2803229427727, -7442.259185583495, -5081.356177491686, -6756.0606308055685, -4515.745284050141, -4992.619752004118, -4647.508817614176, 0.08, 0.9560000000000001, 0.342, 192.0, 0.0, 0.0, 0.0, 0.0, 0.0, 0.0, 0.0, 0.0, 0.0, 1.7398203599765713E9, 0.0, 2025-02-17 16:25:59.976
4.0, 3251.0835827688675, -3897.6748463719905, -7428.334048787839, -5050.622528865639, -6779.418203761364, -4534.587804625965, -5001.269877108321, -4654.4155066508665, 0.08, 0.9560000000000001, 0.342, 192.0, 0.0, 0.0, 0.0, 0.0, 0.0, 0.0, 0.0, 0.0, 0.0, 1.7398203599766138E9, 0.0, 2025-02-17 16:25:59.976
5.0, 3248.5131321565073, -3926.1062653191407, -7432.178548834151, -4986.405967045542, -6814.085759411545, -4565.992005585672, -5025.655630309061, -4675.113222016481, 0.08, 0.9560000000000001, 0.342, 192.0, 0.0, 0.0, 0.0, 0.0, 0.0, 0.0, 0.0, 0.0, 0.0, 1.7398203599766545E9, 0.0, 2025-02-17 16:25:59.976
6.0, 3249.004870534524, -3922.7311519063896, -7458.195979380129, -4994.765519471827, -6802.5522592726065, -4558.124191537403, -5027.667287310039, -4678.845963340516, 0.08, 0.9560000000000001, 0.342, 192.0, 0.0, 0.0, 0.0, 0.0, 0.0, 0.0, 0.0, 0.0, 0.0, 1.7398203599766965E9, 0.0, 2025-02-17 16:25:59.976
7.0, 3248.7366496010604, -3898.948895805943, -7457.14544739073, -5055.38345043462, -6776.3113112820765, -4532.956127280728, -5008.198917889466, -4662.484486399232, 0.08, 0.9560000000000001, 0.342, 192.0, 0.0, 0.0, 0.0, 0.0, 0.0, 0.0, 0.0, 0.0, 0.0, 1.7398203599767783E9, 0.0, 2025-02-17 16:25:59.976
8.0, 3248.8037048344263, -3906.660247643024, -7442.6615169836905, -5049.907273043069, -6790.504669011196, -4545.271938475602, -5012.199880146966, -4666.060765512081, 0.052000000000000005, 0.9380000000000001, 0.33, 192.0, 1.0, 160.0, 29.0, 80.0, 10.0, 80.0, 0.0, 0.0, 0.0, 1.739820359976803E9, 0.0, 2025-02-17 16:25:59.976
9.0, 3251.3518037023314, -3939.360849781138, -7445.611947251791, -4998.386502073587, -6829.039076452145, -4583.091090093982, -5038.686697326505, -4688.792489623129, 0.052000000000000005, 0.9380000000000001, 0.33, 192.0, 0.0, 0.0, 0.0, 0.0, 0.0, 0.0, 0.0, 0.0, 0.0, 1.7398203599768295E9, 0.0, 2025-02-17 16:25:59.976
10.0, 3250.4130304352084, -3947.072201618219, -7470.042403941442, -4985.869525178615, -6828.3238206295755, -4584.163973827836, -5049.057906753767, -4699.096643817025, 0.052000000000000005, 0.9380000000000001, 0.33, 192.0, 0.0, 0.0, 0.0, 0.0, 0.0, 0.0, 0.0, 0.0, 0.0, 1.739820359976854E9, 0.0, 2025-02-17 16:25:59.976
11.0, 3248.781353089971, -3914.2821925022836, -7474.758622021512, -5057.126886502134, -6791.1528696004, -4547.551816410043, -5025.320354142232, -4681.282303486145, 0.052000000000000005, 0.9380000000000001, 0.33, 192.0, 0.0, 0.0, 0.0, 0.0, 0.0, 0.0, 0.0, 0.0, 0.0, 1.7398203599769037E9, 0.0, 2025-02-17 16:25:59.976
12.0, 3249.653071123728, -3900.6252766400908, -7454.28442410045, -5087.167631050066, -6784.313235797076, -4540.1310372508815, -5012.937487713992, -4672.833344082039, 0.052000000000000005, 0.9380000000000001, 0.33, 192.0, 0.0, 0.0, 0.0, 0.0, 0.0, 0.0, 0.0, 0.0, 0.0, 1.7398203599769282E9, 0.0, 2025-02-17 16:25:59.976
13.0, 3249.6754228681834, -3908.1131110326187, -7438.839368681833, -5063.877113327636, -6789.498840510708, -4547.305947221034, -5017.005505204857, -4677.057823784092, 0.052000000000000005, 0.9380000000000001, 0.33, 192.0, 0.0, 0.0, 0.0, 0.0, 0.0, 0.0, 0.0, 0.0, 0.0, 1.7398203599769824E9, 0.0, 2025-02-17 16:25:59.976
14.0, 3249.809533334915, -3904.402721453038, -7443.197958850617, -5049.974328276436, -6781.787488673626, -4540.511016906621, -5014.256240636854, -4675.336739461033, 0.052000000000000005, 0.9380000000000001, 0.33, 192.0, 0.0, 0.0, 0.0, 0.0, 0.0, 0.0, 0.0, 0.0, 0.0, 1.7398203599770288E9, 0.0, 2025-02-17 16:25:59.977
15.0, 3250.837713579859, -3868.4611163689037, -7440.761618704989, -5108.088863860234, -6742.336659710009, -4501.171946665281, -4984.573124000207, -4648.246425181202, 0.052000000000000005, 0.9380000000000001, 0.33, 192.0, 0.0, 0.0, 0.0, 0.0, 0.0, 0.0, 0.0, 0.0, 0.0, 1.7398203599770749E9, 0.0, 2025-02-17 16:25:59.977
16.0, 3251.0612310244123, -3859.0510319532195, -7415.213574792573, -5112.7380267069375, -6740.1908922423, -4496.120452418381, -4971.832629660682, -4633.941308729805, 0.052000000000000005, 0.9380000000000001, 0.33, 192.0, 0.0, 0.0, 0.0, 0.0, 0.0, 0.0, 0.0, 0.0, 0.0, 1.7398203599771E9, 0.0, 2025-02-17 16:25:59.977
17.0, 3250.524789157485, -3875.077232727675, -7402.294266497406, -5059.80909583677, -6759.078116307034, -4514.985324738661, -4982.673225721505, -4640.915052999861, 0.052000000000000005, 0.9380000000000001, 0.33, 192.0, 0.0, 0.0, 0.0, 0.0, 0.0, 0.0, 0.0, 0.0, 0.0, 1.7398203599771247E9, 0.0, 2025-02-17 16:25:59.977
18.0, 3250.2789199684767, -3884.934352032465, -7411.547888701903, -5015.977324959913, -6768.91288386737, -4524.350705665434, -4992.4632897929305, -4649.095791470503, 0.026000000000000002, 0.9540000000000001, 0.316, 192.0, 0.0, 208.0, 29.0, 208.0, 9.0, 224.0, 0.0, 0.0, 0.0, 1.7398203599771492E9, 0.0, 2025-02-17 16:25:59.977
19.0, 3249.0495740234346, -3848.2104358923957, -7416.912307371177, -5068.928607574536, -6721.437778644297, -4481.390652822334, -4964.009519101324, -4626.207605148269, 0.026000000000000002, 0.9540000000000001, 0.316, 192.0, 0.0, 0.0, 0.0, 0.0, 0.0, 0.0, 0.0, 0.0, 0.0, 1.739820359977184E9, 0.0, 2025-02-17 16:25:59.977
20.0, 3250.234216479566, -3832.072476395664, -7393.420623948649, -5094.275485786854, -6706.529165092607, -4464.35862354739, -4947.8492078601375, -4610.516680540643, 0.026000000000000002, 0.9540000000000001, 0.316, 192.0, 0.0, 0.0, 0.0, 0.0, 0.0, 0.0, 0.0, 0.0, 0.0, 1.739820359977208E9, 0.0, 2025-02-17 16:25:59.977
21.0, 3248.6919461121497, -3843.181293389952, -7376.053318506875, -5047.493284641896, -6725.729313579716, -4481.2565423556025, -4951.537245695263, -4612.014247419149, 0.026000000000000002, 0.9540000000000001, 0.316, 192.0, 0.0, 0.0, 0.0, 0.0, 0.0, 0.0, 0.0, 0.0, 0.0, 1.7398203599772325E9, 0.0, 2025-02-17 16:25:59.977
22.0, 3249.4072019347195, -3859.788639520245, -7382.714138354557, -4993.804394460249, -6744.884758577915, -4499.495565831133, -4964.970644112903, -4623.257174880168, 0.026000000000000002, 0.9540000000000001, 0.316, 192.0, 0.0, 0.0, 0.0, 0.0, 0.0, 0.0, 0.0, 0.0, 0.0, 1.7398203599772568E9, 0.0, 2025-02-17 16:25:59.977
23.0, 3249.586015890362, -3835.0899618971307, -7395.27581873844, -5029.343668144187, -6708.697284304772, -4467.577274748955, -4946.351640981632, -4607.521546783632, 0.026000000000000002, 0.9540000000000001, 0.316, 192.0, 0.0, 0.0, 0.0, 0.0, 0.0, 0.0, 0.0, 0.0, 0.0, 1.739820359977281E9, 0.0, 2025-02-17 16:25:59.977
24.0, 3249.250739723532, -3819.2202233338626, -7377.282664451917, -5055.42815392353, -6694.928609720303, -4453.518027486566, -4930.414847184998, -4591.763566942641, 0.026000000000000002, 0.9540000000000001, 0.316, 192.0, 0.0, 0.0, 0.0, 0.0, 0.0, 0.0, 0.0, 0.0, 0.0, 1.7398203599773052E9, 0.0, 2025-02-17 16:25:59.977
25.0, 3248.8931118122473, -3833.1230083850633, -7364.519818367937, -5015.306772626254, -6715.402807641364, -4472.561713762488, -4939.132027522567, -4597.3067995675565, 0.026000000000000002, 0.9540000000000001, 0.316, 192.0, 0.0, 0.0, 0.0, 0.0, 0.0, 0.0, 0.0, 0.0, 0.0, 1.739820359977329E9, 0.0, 2025-02-17 16:25:59.977
26.0, 3247.26143446701, -3850.9597004603984, -7367.559655613859, -4959.896798121548, -6738.648621874884, -4492.387711094345, -4953.683013162972, -4610.360218329456, 0.026000000000000002, 0.9540000000000001, 0.316, 192.0, 0.0, 0.0, 0.0, 0.0, 0.0, 0.0, 0.0, 0.0, 0.0, 1.7398203599773529E9, 0.0, 2025-02-17 16:25:59.977
27.0, 3247.7978763339374, -3832.452456051404, -7384.502277910981, -4987.478850779396, -6710.552479094563, -4465.319748558968, -4941.434257201464, -4601.575982758521, 0.026000000000000002, 0.9540000000000001, 0.316, 192.0, 0.0, 0.0, 0.0, 0.0, 0.0, 0.0, 0.0, 0.0, 0.0, 1.7398203599773767E9, 0.0, 2025-02-17 16:25:59.977
28.0, 3246.5461786444403, -3810.234822062829, -7370.130106226219, -5030.7965315337815, -6681.94224619177, -4445.40434424929, -4922.144701736534, -4582.197020315769, 0.012, 0.9440000000000001, 0.294, 192.0, 0.0, 96.0, 29.0, 128.0, 9.0, 48.0, 0.0, 0.0, 0.0, 1.7398203599774008E9, 0.0, 2025-02-17 16:25:59.977
29.0, 3245.316832699398, -3819.622554734058, -7354.21566417404, -5003.572106787218, -6699.175441166812, -4458.323652544457, -4925.162187238001, -4583.135793582892, 0.012, 0.9440000000000001, 0.294, 192.0, 0.0, 0.0, 0.0, 0.0, 0.0, 0.0, 0.0, 0.0, 0.0, 1.7398203599774337E9, 0.0, 2025-02-17 16:25:59.977
30.0, 3245.5179983994963, -3841.035525922242, -7356.719059553035, -4951.157266039523, -6724.879947290415, -4477.389690564834, -4943.401210713531, -4599.743139713185, 0.012, 0.9440000000000001, 0.294, 192.0, 0.0, 0.0, 0.0, 0.0, 0.0, 0.0, 0.0, 0.0, 0.0, 1.7398203599774575E9, 0.0, 2025-02-17 16:25:59.977
31.0, 3245.003908277024, -3827.3115548266837, -7372.320577182839, -4962.98133885638, -6704.964542980736, -4458.368356033368, -4934.952251309425, -4594.222258832724, 0.012, 0.9440000000000001, 0.294, 192.0, 0.0, 0.0, 0.0, 0.0, 0.0, 0.0, 0.0, 0.0, 0.0, 1.739820359977488E9, 0.0, 2025-02-17 16:25:59.977
32.0, 3245.2050739771216, -3798.2542870347843, -7363.469286378538, -5020.246508150877, -6669.4252692967975, -4431.278041753536, -4910.633553342051, -4574.306854523045, 0.012, 0.9440000000000001, 0.294, 192.0, 0.0, 0.0, 0.0, 0.0, 0.0, 0.0, 0.0, 0.0, 0.0, 1.7398203599775124E9, 0.0, 2025-02-17 16:25:59.977
33.0, 3245.1827222326665, -3801.3388277696167, -7343.866806491234, -5006.209612632944, -6681.696377002761, -4439.078800568438, -4909.337152163644, -4571.3787759994, 0.012, 0.9440000000000001, 0.294, 192.0, 0.0, 0.0, 0.0, 0.0, 0.0, 0.0, 0.0, 0.0, 0.0, 1.739820359977536E9, 0.0, 2025-02-17 16:25:59.977
34.0, 3244.9592047881133, -3821.8577291795887, -7340.402286100661, -4952.855998618126, -6705.65744705885, -4463.576312491455, -4925.564518638196, -4583.314607538535, 0.012, 0.9440000000000001, 0.294, 192.0, 0.0, 0.0, 0.0, 0.0, 0.0, 0.0, 0.0, 0.0, 0.0, 1.7398203599775598E9, 0.0, 2025-02-17 16:25:59.977
35.0, 3240.6453181082393, -3813.4758250088485, -7351.399344372671, -4942.328326979677, -6690.570019551518, -4447.572463461454, -4921.0271145137685, -4580.297122037068, 0.012, 0.9440000000000001, 0.294, 192.0, 0.0, 0.0, 0.0, 0.0, 0.0, 0.0, 0.0, 0.0, 0.0, 1.7398203599775908E9, 0.0, 2025-02-17 16:25:59.977
36.0, 3239.3489169298314, -3779.076490292131, -7346.772533270423, -5001.22517361941, -6651.543873732552, -4409.686256609709, -4892.886268244537, -4556.537217681077, 0.012, 0.9440000000000001, 0.294, 192.0, 0.0, 0.0, 0.0, 0.0, 0.0, 0.0, 0.0, 0.0, 0.0, 1.739820359977615E9, 0.0, 2025-02-17 16:25:59.977
37.0, 3240.6453181082393, -3778.137717025008, -7327.058294660842, -4999.951124185458, -6657.780010435583, -4413.553108400477, -4889.06411994268, -4550.524598422599, 0.012, 0.9440000000000001, 0.294, 192.0, 0.0, 0.0, 0.0, 0.0, 0.0, 0.0, 0.0, 0.0, 0.0, 1.7398203599776397E9, 0.0, 2025-02-17 16:25:59.977
38.0, 3240.3547454303202, -3795.03563583322, -7319.458701546037, -4949.9055683500255, -6681.405804324842, -4434.049658065994, -4902.385759638043, -4560.292310749568, 0.012, 0.922, 0.268, 192.0, 0.0, 96.0, 28.0, 208.0, 8.0, 96.0, 0.0, 0.0, 0.0, 1.739820359977664E9, 0.0, 2025-02-17 16:25:59.977
39.0, 3238.141922729245, -3796.5332027117256, -7329.159358639641, -4922.681143603461, -6679.684720001784, -4434.45198946619, -4905.112672461591, -4563.801534629051, 0.012, 0.922, 0.268, 192.0, 0.0, 0.0, 0.0, 0.0, 0.0, 0.0, 0.0, 0.0, 0.0, 1.7398203599776895E9, 0.0, 2025-02-17 16:25:59.977
40.0, 3237.0243355064795, -3764.4137459294498, -7330.7239807515125, -4977.822897174704, -6636.121170058391, -4397.102224481371, -4879.095241915613, -4543.103819263437, 0.012, 0.922, 0.268, 192.0, 0.0, 0.0, 0.0, 0.0, 0.0, 0.0, 0.0, 0.0, 0.0, 1.739820359977713E9, 0.0, 2025-02-17 16:25:59.977
41.0, 3238.298384940432, -3759.205789471363, -7310.585058997281, -4986.495374023363, -6636.344687502943, -4396.208154703159, -4870.3110063446775, -4533.179644725281, 0.012, 0.922, 0.268, 192.0, 0.0, 0.0, 0.0, 0.0, 0.0, 0.0, 0.0, 0.0, 0.0, 1.7398203599777365E9, 0.0, 2025-02-17 16:25:59.977
42.0, 3238.6783645961723, -3777.489516435804, -7301.890230404167, -4938.819103100193, -6660.395164536854, -4419.141044514304, -4883.789108251227, -4543.528502408088, 0.012, 0.922, 0.268, 192.0, 0.0, 0.0, 0.0, 0.0, 0.0, 0.0, 0.0, 0.0, 0.0, 1.7398203599777603E9, 0.0, 2025-02-17 16:25:59.977
43.0, 3238.0525157514235, -3788.4195194744493, -7311.836756686778, -4898.2059834249, -6672.822734454005, -4431.725076642642, -4893.936800233937, -4551.083392033982, 0.012, 0.922, 0.268, 192.0, 0.0, 0.0, 0.0, 0.0, 0.0, 0.0, 0.0, 0.0, 0.0, 1.7398203599777844E9, 0.0, 2025-02-17 16:25:59.977
44.0, 3238.9912890185465, -3760.949225538877, -7322.92322193661, -4952.252501517833, -6631.628469422873, -4390.150831955771, -4874.289616857722, -4535.727743593186, 0.012, 0.922, 0.268, 192.0, 0.0, 0.0, 0.0, 0.0, 0.0, 0.0, 0.0, 0.0, 0.0, 1.7398203599778087E9, 0.0, 2025-02-17 16:25:59.977
45.0, 3240.9805942750686, -3748.745173066279, -7304.68419846108, -4980.214533831422, -6624.587669919452, -4380.651340562265, -4861.035032395725, -4523.747208565141, 0.012, 0.922, 0.268, 192.0, 0.0, 0.0, 0.0, 0.0, 0.0, 0.0, 0.0, 0.0, 0.0, 1.7398203599778392E9, 0.0, 2025-02-17 16:25:59.977
46.0, 3240.6453181082393, -3760.815115072145, -7290.736709920969, -4942.8647688466035, -6642.290251528055, -4396.811651803452, -4867.897017943504, -4528.396371411845, 0.012, 0.922, 0.268, 192.0, 0.0, 0.0, 0.0, 0.0, 0.0, 0.0, 0.0, 0.0, 0.0, 1.7398203599778633E9, 0.0, 2025-02-17 16:25:59.977
47.0, 3241.092352997345, -3774.516734423248, -7295.58703846777, -4899.144756692023, -6654.628414467385, -4412.63668687781, -4880.9951401943135, -4540.153388995336, 0.012, 0.922, 0.268, 192.0, 0.0, 0.0, 0.0, 0.0, 0.0, 0.0, 0.0, 0.0, 0.0, 1.739820359977894E9, 0.0, 2025-02-17 16:25:59.977
48.0, 3239.3042134409206, -3744.185417197397, -7303.8348321717785, -4938.662640889006, -6616.898669826826, -4376.67273004922, -4857.302291071688, -4520.729723063675, 0.012, 0.922, 0.268, 192.0, 0.0, 0.0, 29.0, 80.0, 8.0, 48.0, 0.0, 0.0, 0.0, 1.739820359977918E9, 0.0, 2025-02-17 16:25:59.977
49.0, 3239.617137863295, -3724.2476611432626, -7285.081718573776, -4973.732527939383, -6599.754881829605, -4357.785505984486, -4837.856273395571, -4502.244830399136, 0.012, 0.922, 0.268, 192.0, 0.0, 0.0, 0.0, 0.0, 0.0, 0.0, 0.0, 0.0, 0.0, 1.7398203599779434E9, 0.0, 2025-02-17 16:25:59.977
50.0, 3238.901882040725, -3732.3836961249945, -7268.094392787742, -4938.975565311381, -6618.642105894341, -4373.38702361429, -4840.985517619314, -4502.133071676859, 0.012, 0.922, 0.268, 192.0, 0.0, 0.0, 0.0, 0.0, 0.0, 0.0, 0.0, 0.0, 0.0, 1.7398203599779816E9, 0.0, 2025-02-17 16:25:59.977
51.0, 3237.3372599288537, -3749.661594588947, -7268.29555848784, -4883.230314639844, -6634.489492713153, -4391.201363945171, -4856.117648615557, -4513.957144493716, 0.012, 0.922, 0.268, 192.0, 0.0, 0.0, 0.0, 0.0, 0.0, 0.0, 0.0, 0.0, 0.0, 1.7398203599780128E9, 0.0, 2025-02-17 16:25:59.978
52.0, 3235.1467889722335, -3729.7461902792684, -7280.410203982617, -4902.855146271604, -6603.957009787204, -4362.233503131092, -4842.058401353169, -4504.0329699555605, 0.012, 0.922, 0.268, 192.0, 0.0, 0.0, 0.0, 0.0, 0.0, 0.0, 0.0, 0.0, 0.0, 1.7398203599780376E9, 0.0, 2025-02-17 16:25:59.978
53.0, 3235.25854769451, -3706.1650998789196, -7267.6250061541805, -4947.357469482121, -6577.380785629844, -4338.115970863816, -4820.913651098448, -4485.302208102013, 0.012, 0.922, 0.268, 192.0, 0.0, 0.0, 0.0, 0.0, 0.0, 0.0, 0.0, 0.0, 0.0, 1.7398203599780624E9, 0.0, 2025-02-17 16:25:59.978
54.0, 3237.2478529510327, -3715.217556383319, -7252.62698562467, -4924.379876182065, -6595.508050383098, -4352.309328592936, -4824.489930211298, -4485.726891246663, 0.012, 0.922, 0.268, 192.0, 0.0, 0.0, 0.0, 0.0, 0.0, 0.0, 0.0, 0.0, 0.0, 1.739820359978087E9, 0.0, 2025-02-17 16:25:59.978
55.0, 3236.6667075951946, -3735.5352920931928, -7252.112895502198, -4867.539390032219, -6620.050265795025, -4374.124631181316, -4841.790180419705, -4499.3391036199455, 0.012, 0.922, 0.268, 192.0, 0.0, 0.0, 0.0, 0.0, 0.0, 0.0, 0.0, 0.0, 0.0, 1.7398203599781113E9, 0.0, 2025-02-17 16:25:59.978
56.0, 3235.616175605795, -3724.7393995212797, -7266.82034335379, -4871.138020889523, -6601.788890575039, -4361.831171730897, -4834.592918705096, -4494.4664233286885, 0.012, 0.922, 0.268, 192.0, 0.0, 0.0, 0.0, 0.0, 0.0, 0.0, 0.0, 0.0, 0.0, 1.7398203599781356E9, 0.0, 2025-02-17 16:25:59.978
57.0, 3234.275070938477, -3696.2185735963076, -7258.371383949684, -4922.882309303559, -6570.898779737804, -4333.958546395129, -4809.626020148518, -4472.382899806846, 0.012, 0.922, 0.268, 192.0, 0.0, 0.0, 0.0, 0.0, 0.0, 0.0, 0.0, 0.0, 0.0, 1.7398203599781597E9, 0.0, 2025-02-17 16:25:59.978
58.0, 3233.582166860362, -3701.7618062212237, -7241.160540719097, -4907.459605629398, -6581.337044398433, -4336.260776074026, -4811.592973660586, -4471.377071306357, -0.006, 0.9420000000000001, 0.26, 192.0, 255.0, 208.0, 29.0, 112.0, 8.0, 32.0, 0.0, 0.0, 0.0, 1.7398203599781835E9, 0.0, 2025-02-17 16:25:59.978
59.0, 3234.6326988497617, -3723.9347367208884, -7239.998250007421, -4854.418916036954, -6609.500242412119, -4363.306386864947, -4830.614308192052, -4487.425623825267, -0.006, 0.9420000000000001, 0.26, 192.0, 0.0, 0.0, 0.0, 0.0, 0.0, 0.0, 0.0, 0.0, 0.0, 1.7398203599782095E9, 0.0, 2025-02-17 16:25:59.978
60.0, 3234.252719194021, -3723.398294853961, -7255.443305426038, -4842.259567053266, -6604.113471998391, -4363.284035120491, -4832.022468092736, -4489.83961222644, -0.006, 0.9420000000000001, 0.26, 192.0, 0.0, 0.0, 0.0, 0.0, 0.0, 0.0, 0.0, 0.0, 0.0, 1.7398203599782395E9, 0.0, 2025-02-17 16:25:59.978
61.0, 3232.8669110377923, -3693.9386956618664, -7255.309194959306, -4900.262343914788, -6568.887122736826, -4326.0013253690395, -4806.832052091605, -4468.896027671817, -0.006, 0.9420000000000001, 0.26, 192.0, 0.0, 0.0, 0.0, 0.0, 0.0, 0.0, 0.0, 0.0, 0.0, 1.739820359978264E9, 0.0, 2025-02-17 16:25:59.978
62.0, 3233.7609808160046, -3695.4586142848275, -7238.031296495355, -4901.089358459635, -6573.3351198834325, -4331.209281827126, -4804.865098579538, -4466.727908459653, -0.006, 0.9420000000000001, 0.26, 192.0, 0.0, 0.0, 0.0, 0.0, 0.0, 0.0, 0.0, 0.0, 0.0, 1.7398203599782946E9, 0.0, 2025-02-17 16:25:59.978
63.0, 3232.6657453376947, -3714.949335449855, -7232.018677236877, -4852.429610780431, -6595.843326549927, -4355.14800013876, -4819.371380731032, -4478.21670510968, -0.006, 0.9420000000000001, 0.26, 192.0, 0.0, 0.0, 0.0, 0.0, 0.0, 0.0, 0.0, 0.0, 0.0, 1.7398203599783187E9, 0.0, 2025-02-17 16:25:59.978
64.0, 3231.0564197369126, -3720.693733774869, -7245.116799487687, -4825.540462200697, -6598.391425417832, -4357.2267123731035, -4827.038029079203, -4485.123394146371, -0.006, 0.9420000000000001, 0.26, 192.0, 0.0, 0.0, 0.0, 0.0, 0.0, 0.0, 0.0, 0.0, 0.0, 1.7398203599783425E9, 0.0, 2025-02-17 16:25:59.978
65.0, 3232.241062193044, -3690.9212101604, -7251.509398401904, -4885.10786117409, -6565.690823279718, -4325.308421290925, -4803.702807867862, -4466.616149737376, -0.006, 0.9420000000000001, 0.26, 192.0, 0.0, 0.0, 0.0, 0.0, 0.0, 0.0, 0.0, 0.0, 0.0, 1.7398203599783664E9, 0.0, 2025-02-17 16:25:59.978
66.0, 3230.9223092701804, -3684.618018224003, -7231.661049325592, -4896.864878757582, -6564.305015123488, -4322.469749745101, -4794.3597786855435, -4456.289643799025, -0.006, 0.9420000000000001, 0.26, 192.0, 0.0, 0.0, 0.0, 0.0, 0.0, 0.0, 0.0, 0.0, 0.0, 1.739820359978397E9, 0.0, 2025-02-17 16:25:59.978
67.0, 3228.9330040136583, -3700.979495165288, -7222.563889332282, -4852.429610780431, -6584.39923338881, -4340.529959264989, -4807.435549191899, -4465.498562514611, -0.006, 0.9420000000000001, 0.26, 192.0, 0.0, 0.0, 0.0, 0.0, 0.0, 0.0, 0.0, 0.0, 0.0, 1.739820359978421E9, 0.0, 2025-02-17 16:25:59.978
68.0, 3227.3236784128762, -3713.608230782537, -7232.510415614894, -4812.419988205432, -6596.06684399448, -4352.219921615115, -4819.617249920041, -4477.07676614246, -0.002, 0.9480000000000001, 0.28, 192.0, 255.0, 240.0, 29.0, 160.0, 8.0, 192.0, 0.0, 0.0, 0.0, 1.739820359978445E9, 0.0, 2025-02-17 16:25:59.978
69.0, 3228.061285979901, -3690.0941956155534, -7245.6085378657035, -4862.733764974328, -6560.795791244005, -4322.134473578271, -4801.020598533225, -4463.3527950469015, -0.002, 0.9480000000000001, 0.28, 192.0, 0.0, 0.0, 0.0, 0.0, 0.0, 0.0, 0.0, 0.0, 0.0, 1.7398203599784708E9, 0.0, 2025-02-17 16:25:59.978
70.0, 3226.87664352377, -3678.6277507099812, -7227.9059562571, -4886.784242008239, -6555.856055719382, -4314.445473485645, -4788.436566404887, -4450.2099693071805, -0.002, 0.9480000000000001, 0.28, 192.0, 0.0, 0.0, 0.0, 0.0, 0.0, 0.0, 0.0, 0.0, 0.0, 1.7398203599784942E9, 0.0, 2025-02-17 16:25:59.978
71.0, 3224.172082444678, -3692.441128783361, -7216.19364216252, -4847.065192111158, -6577.693710052217, -4332.304517305436, -4797.690188609385, -4455.909664143284, -0.002, 0.9480000000000001, 0.28, 192.0, 0.0, 0.0, 0.0, 0.0, 0.0, 0.0, 0.0, 0.0, 0.0, 1.7398203599785175E9, 0.0, 2025-02-17 16:25:59.978
72.0, 3224.3285446558652, -3712.892974959967, -7226.028409722854, -4800.819432833127, -6596.245657950122, -4351.86229370383, -4817.203261518867, -4472.069975384471, -0.002, 0.9480000000000001, 0.28, 192.0, 0.0, 0.0, 0.0, 0.0, 0.0, 0.0, 0.0, 0.0, 0.0, 1.739820359978541E9, 0.0, 2025-02-17 16:25:59.978
73.0, 3221.534576598952, -3690.9212101604, -7239.7970843073235, -4835.375229761032, -6564.684994779229, -4324.280241045981, -4800.417101432932, -4459.552998489499, -0.002, 0.9480000000000001, 0.28, 192.0, 0.0, 0.0, 0.0, 0.0, 0.0, 0.0, 0.0, 0.0, 0.0, 1.739820359978564E9, 0.0, 2025-02-17 16:25:59.978
74.0, 3221.9816114880578, -3675.9902448642547, -7227.682438812547, -4874.5354860467305, -6551.877445206338, -4315.071322330395, -4786.380205914999, -4446.365469260868, -0.002, 0.9480000000000001, 0.28, 192.0, 0.0, 0.0, 0.0, 0.0, 0.0, 0.0, 0.0, 0.0, 0.0, 1.7398203599785876E9, 0.0, 2025-02-17 16:25:59.978
75.0, 3220.193471931633, -3689.4459950263495, -7215.299572384307, -4844.830017665627, -6572.932788483237, -4329.7564184375315, -4794.158612985446, -4451.774591419053, -0.002, 0.9480000000000001, 0.28, 192.0, 0.0, 0.0, 0.0, 0.0, 0.0, 0.0, 0.0, 0.0, 0.0, 1.7398203599786112E9, 0.0, 2025-02-17 16:25:59.978
76.0, 3219.7911405314376, -3712.915326704422, -7222.09450269872, -4794.6503513634625, -6597.273838195067, -4349.403601813746, -4815.348066729077, -4470.818277694974, -0.002, 0.9480000000000001, 0.28, 192.0, 0.0, 0.0, 0.0, 0.0, 0.0, 0.0, 0.0, 0.0, 0.0, 1.739820359978641E9, 0.0, 2025-02-17 16:25:59.978
77.0, 3219.902899253714, -3701.046550398654, -7241.406409908106, -4818.119683041535, -6573.670396050263, -4334.9196714067075, -4808.821357348127, -4467.398460793312, -0.002, 0.9480000000000001, 0.28, 192.0, 0.0, 0.0, 0.0, 0.0, 0.0, 0.0, 0.0, 0.0, 0.0, 1.7398203599786646E9, 0.0, 2025-02-17 16:25:59.978
78.0, 3219.9923062315356, -3682.4722507562938, -7234.834997038245, -4867.9640731768695, -6556.571311541952, -4315.652467686233, -4792.035197262192, -4452.109867585882, -0.002, 0.9480000000000001, 0.272, 192.0, 255.0, 240.0, 29.0, 160.0, 8.0, 128.0, 0.0, 0.0, 0.0, 1.739820359978695E9, 0.0, 2025-02-17 16:25:59.978
79.0, 3218.0253527194686, -3693.82693693959, -7221.3121916427845, -4845.8358461661155, -6573.357471627888, -4332.013944627517, -4799.165403743435, -4455.954367632195, -0.002, 0.9480000000000001, 0.272, 192.0, 0.0, 0.0, 0.0, 0.0, 0.0, 0.0, 0.0, 0.0, 0.0, 1.7398203599787204E9, 0.0, 2025-02-17 16:25:59.978
80.0, 3215.8795852517587, -3718.6820767738914, -7224.530842844349, -4791.118775739525, -6603.8005475760165, -4357.204360628648, -4819.885470853505, -4473.165210862781, -0.002, 0.9480000000000001, 0.272, 192.0, 0.0, 0.0, 0.0, 0.0, 0.0, 0.0, 0.0, 0.0, 0.0, 1.739820359978744E9, 0.0, 2025-02-17 16:25:59.978
81.0, 3216.7736550299715, -3717.83271048459, -7247.128456488665, -4797.064339764636, -6597.363245172888, -4352.465790804123, -4821.561851687652, -4477.300283587013, -0.002, 0.9480000000000001, 0.272, 192.0, 0.0, 0.0, 0.0, 0.0, 0.0, 0.0, 0.0, 0.0, 0.0, 1.7398203599787676E9, 0.0, 2025-02-17 16:25:59.978
82.0, 3216.5501375854183, -3697.8278991970897, -7247.329622188762, -4855.29063407071, -6569.49061983712, -4330.561081237922, -4804.552174157164, -4463.3527950469015, -0.002, 0.9480000000000001, 0.272, 192.0, 0.0, 0.0, 0.0, 0.0, 0.0, 0.0, 0.0, 0.0, 0.0, 1.7398203599787977E9, 0.0, 2025-02-17 16:25:59.978
83.0, 3216.2372131630436, -3708.176756879897, -7235.282031927351, -4846.416991521954, -6588.646064835319, -4345.156770367238, -4810.877717838016, -4467.4655160266775, -0.002, 0.9480000000000001, 0.272, 192.0, 0.0, 0.0, 0.0, 0.0, 0.0, 0.0, 0.0, 0.0, 0.0, 1.7398203599788215E9, 0.0, 2025-02-17 16:25:59.978
84.0, 3216.9301172411583, -3738.1280944500086, -7240.937023274544, -4797.109043253547, -6623.000696063125, -4376.046881204472, -4837.409238506465, -4488.856135470407, -0.002, 0.9480000000000001, 0.272, 192.0, 0.0, 0.0, 0.0, 0.0, 0.0, 0.0, 0.0, 0.0, 0.0, 1.7398203599788456E9, 0.0, 2025-02-17 16:25:59.978
85.0, 3217.310096896899, -3748.655766088458, -7264.652224141625, -4786.290798937178, -6626.465216453697, -4382.752404541065, -4848.428648522931, -4500.3896356093455, -0.002, 0.9480000000000001, 0.272, 192.0, 0.0, 0.0, 0.0, 0.0, 0.0, 0.0, 0.0, 0.0, 0.0, 1.7398203599788692E9, 0.0, 2025-02-17 16:25:59.978
86.0, 3217.9582974861023, -3729.4556176013493, -7274.062308557309, -4848.741572945306, -6601.297152197022, -4360.914750208229, -4832.424799492932, -4488.632618025854, -0.002, 0.9480000000000001, 0.272, 192.0, 0.0, 0.0, 0.0, 0.0, 0.0, 0.0, 0.0, 0.0, 0.0, 1.739820359978893E9, 0.0, 2025-02-17 16:25:59.978
87.0, 3217.287745152443, -3738.083390961098, -7263.5122851744045, -4851.7590584467725, -6617.50216692712, -4374.616369559332, -4837.275128039733, -4491.2924756160355, -0.002, 0.9480000000000001, 0.272, 192.0, 0.0, 0.0, 0.0, 0.0, 0.0, 0.0, 0.0, 0.0, 0.0, 1.739820359978923E9, 0.0, 2025-02-17 16:25:59.978
88.0, 3215.9913439740353, -3769.666405876447, -7267.58030266527, -4805.110967768546, -6650.850969654438, -4406.467605408145, -4863.426669052443, -4512.03489447056, -0.002, 0.9480000000000001, 0.272, 192.0, 0.0, 0.0, 29.0, 208.0, 8.0, 64.0, 0.0, 0.0, 0.0, 1.7398203599789472E9, 0.0, 2025-02-17 16:25:59.978
89.0, 3217.265393407988, -3791.727577653835, -7294.089471589265, -4780.881676778994, -6670.118173374913, -4425.287774239513, -4886.113689674579, -4533.604327869932, -0.002, 0.9480000000000001, 0.272, 192.0, 0.0, 0.0, 0.0, 0.0, 0.0, 0.0, 0.0, 0.0, 0.0, 1.7398203599789965E9, 0.0, 2025-02-17 16:25:59.978
90.0, 3219.9252509981693, -3777.5789234136255, -7314.630724743692, -4843.734782187317, -6655.36602203441, -4407.20521297517, -4876.189515136423, -4528.619888856398, -0.002, 0.9480000000000001, 0.272, 192.0, 0.0, 0.0, 0.0, 0.0, 0.0, 0.0, 0.0, 0.0, 0.0, 1.7398203599790206E9, 0.0, 2025-02-17 16:25:59.979
91.0, 3219.0758847088678, -3787.0337113182204, -7308.148718851652, -4860.722107973351, -6663.658519227329, -4419.319858469947, -4882.224486139356, -4532.956127280728, -0.002, 0.9480000000000001, 0.272, 192.0, 0.0, 0.0, 0.0, 0.0, 0.0, 0.0, 0.0, 0.0, 0.0, 1.739820359979045E9, 0.0, 2025-02-17 16:25:59.979
92.0, 3216.4160271186865, -3819.6002029896026, -7312.306143320339, -4818.790235375194, -6697.99079871068, -4454.9038356427955, -4909.605373097107, -4555.553740925043, -0.002, 0.9480000000000001, 0.272, 192.0, 0.0, 0.0, 0.0, 0.0, 0.0, 0.0, 0.0, 0.0, 0.0, 1.7398203599790769E9, 0.0, 2025-02-17 16:25:59.979
93.0, 3213.2867828949434, -3848.433953336949, -7335.8872337206885, -4780.5016971232535, -6726.578679869018, -4482.329426089457, -4936.02513504328, -4580.587694714987, -0.002, 0.9480000000000001, 0.272, 192.0, 0.0, 0.0, 0.0, 0.0, 0.0, 0.0, 0.0, 0.0, 0.0, 1.7398203599791012E9, 0.0, 2025-02-17 16:25:59.979
94.0, 3212.9515067281136, -3837.012211920287, -7363.424582889626, -4838.9068053849705, -6707.80321452656, -4463.866885169374, -4930.124274507079, -4579.291293536579, -0.002, 0.9480000000000001, 0.272, 192.0, 0.0, 0.0, 0.0, 0.0, 0.0, 0.0, 0.0, 0.0, 0.0, 1.7398203599791431E9, 0.0, 2025-02-17 16:25:59.979
95.0, 3212.9962102170243, -3836.006383419798, -7360.340042154795, -4883.006797195291, -6710.70894130575, -4468.739565460631, -4929.006687284314, -4577.749023169163, -0.002, 0.9480000000000001, 0.272, 192.0, 0.0, 0.0, 0.0, 0.0, 0.0, 0.0, 0.0, 0.0, 0.0, 1.7398203599791684E9, 0.0, 2025-02-17 16:25:59.979
96.0, 3211.297477638421, -3860.6603575540016, -7360.250635176973, -4862.48789578532, -6740.928499809325, -4491.27012387158, -4949.257367760822, -4595.675122222319, -0.002, 0.9480000000000001, 0.272, 192.0, 0.0, 0.0, 0.0, 0.0, 0.0, 0.0, 0.0, 0.0, 0.0, 1.7398203599791925E9, 0.0, 2025-02-17 16:25:59.979
97.0, 3209.844614248826, -3886.6107328666135, -7375.4498214065825, -4828.289726768699, -6768.488200722719, -4521.243813186146, -4974.336025039676, -4619.345619600489, -0.002, 0.9480000000000001, 0.272, 192.0, 0.0, 0.0, 0.0, 0.0, 0.0, 0.0, 0.0, 0.0, 0.0, 1.7398203599792185E9, 0.0, 2025-02-17 16:25:59.979
98.0, 3208.8611374927927, -3874.4066803940154, -7399.075615295842, -4878.178820392945, -6744.3259649665315, -4502.98243796616, -4967.474039491897, -4618.138625399903, 0.008, 0.98, 0.28600000000000003, 192.0, 0.0, 64.0, 30.0, 160.0, 8.0, 240.0, 0.0, 0.0, 0.0, 1.7398203599792497E9, 0.0, 2025-02-17 16:25:59.979
99.0, 3209.0623031928903, -3866.5388663457475, -7395.007597804975, -4933.633498386562, -6734.915880550848, -4493.147670405826, -4960.187370799466, -4610.203756118269, 0.008, 0.98, 0.28600000000000003, 192.0, 0.0, 0.0, 0.0, 0.0, 0.0, 0.0, 0.0, 0.0, 0.0, 1.7398203599792755E9, 0.0, 2025-02-17 16:25:59.979
100.0, 3207.6988467811166, -3887.7283200893785, -7390.246676235995, -4914.880384788559, -6761.67091866385, -4516.3040776615235, -4976.124164596101, -4622.273698124135, 0.008, 0.98, 0.28600000000000003, 192.0, 0.0, 0.0, 0.0, 0.0, 0.0, 0.0, 0.0, 0.0, 0.0, 1.7398203599792995E9, 0.0, 2025-02-17 16:25:59.979
101.0, 3205.530727568952, -3916.226794269895, -7402.137804286219, -4869.416936566465, -6796.517288269674, -4549.339955966468, -5001.582801530695, -4644.334869901522, 0.008, 0.98, 0.28600000000000003, 192.0, 0.0, 0.0, 0.0, 0.0, 0.0, 0.0, 0.0, 0.0, 0.0, 1.739820359979324E9, 0.0, 2025-02-17 16:25:59.979
102.0, 3206.268335135977, -3912.6952186459566, -7430.233947066539, -4900.798785781716, -6785.162602086378, -4538.275842461091, -5002.812147475737, -4649.989861248715, 0.008, 0.98, 0.28600000000000003, 192.0, 0.0, 0.0, 0.0, 0.0, 0.0, 0.0, 0.0, 0.0, 0.0, 1.7398203599793482E9, 0.0, 2025-02-17 16:25:59.979
103.0, 3206.7377217695384, -3897.272514971795, -7430.301002299906, -4966.378804013587, -6766.633005932928, -4523.836615542962, -4991.345702570165, -4641.764419289162, 0.008, 0.98, 0.28600000000000003, 192.0, 0.0, 0.0, 0.0, 0.0, 0.0, 0.0, 0.0, 0.0, 0.0, 1.739820359979372E9, 0.0, 2025-02-17 16:25:59.979
104.0, 3203.876698479259, -3910.594154667158, -7420.510938228481, -4955.180580041478, -6787.1519073429, -4543.461447174722, -5001.471042808419, -4649.274605426145, 0.008, 0.98, 0.28600000000000003, 192.0, 0.0, 0.0, 0.0, 0.0, 0.0, 0.0, 0.0, 0.0, 0.0, 1.7398203599793959E9, 0.0, 2025-02-17 16:25:59.979
105.0, 3205.1283961687564, -3943.0488876162635, -7431.932679645143, -4911.393512653532, -6825.753370017215, -4577.570209213521, -5030.751828044871, -4674.576780149553, 0.008, 0.98, 0.28600000000000003, 192.0, 0.0, 0.0, 0.0, 0.0, 0.0, 0.0, 0.0, 0.0, 0.0, 1.7398203599794197E9, 0.0, 2025-02-17 16:25:59.979
106.0, 3204.8601752352924, -3945.3734690396154, -7457.838351468844, -4921.608259869607, -6824.63578279445, -4579.291293536579, -5036.205653691966, -4682.958684320293, 0.008, 0.98, 0.28600000000000003, 192.0, 0.0, 0.0, 0.0, 0.0, 0.0, 0.0, 0.0, 0.0, 0.0, 1.7398203599794433E9, 0.0, 2025-02-17 16:25:59.979
107.0, 3203.9214019681694, -3927.6932391754676, -7462.800438737922, -4991.32335082571, -6795.9808464027465, -4555.240816502669, -5021.922888985025, -4673.459192926788, 0.008, 0.98, 0.28600000000000003, 192.0, 0.0, 0.0, 0.0, 0.0, 0.0, 0.0, 0.0, 0.0, 0.0, 1.7398203599794676E9, 0.0, 2025-02-17 16:25:59.979
108.0, 3203.9884572015358, -3940.7019544484565, -7454.597348522824, -4994.005560160346, -6813.504614055707, -4570.350595754457, -5031.869415267636, -4680.969379063771, 0.008, 0.982, 0.3, 192.0, 0.0, 64.0, 30.0, 176.0, 9.0, 96.0, 0.0, 0.0, 0.0, 1.7398203599795008E9, 0.0, 2025-02-17 16:25:59.979
109.0, 3204.524899068463, -3971.3014926077717, -7461.884017215254, -4951.716059650906, -6852.754277319226, -4606.4039595608665, -5058.535046402818, -4704.304600275112, 0.008, 0.982, 0.3, 192.0, 0.0, 0.0, 0.0, 0.0, 0.0, 0.0, 0.0, 0.0, 0.0, 1.7398203599795263E9, 0.0, 2025-02-17 16:25:59.979
110.0, 3206.290686880432, -3985.6066090591685, -7489.086090217364, -4947.31276599321, -6858.49867564424, -4614.450587564777, -5075.0529855552895, -4721.180167338868, 0.008, 0.982, 0.3, 192.0, 0.0, 0.0, 0.0, 0.0, 0.0, 0.0, 0.0, 0.0, 0.0, 1.7398203599795575E9, 0.0, 2025-02-17 16:25:59.979
111.0, 3208.458806092597, -3964.998300671375, -7501.156032223229, -5021.90053724057, -6832.905928242913, -4593.328189054512, -5060.256130725877, -4711.323048034078, 0.008, 0.982, 0.3, 192.0, 0.0, 0.0, 0.0, 0.0, 0.0, 0.0, 0.0, 0.0, 0.0, 1.7398203599795818E9, 0.0, 2025-02-17 16:25:59.979
112.0, 3208.592916559329, -3971.972044941431, -7490.985988496064, -5036.228005436422, -6845.936995260357, -4602.157128114358, -5063.743002860904, -4713.1782428238685, 0.008, 0.982, 0.3, 192.0, 0.0, 0.0, 0.0, 0.0, 0.0, 0.0, 0.0, 0.0, 0.0, 1.739820359979606E9, 0.0, 2025-02-17 16:25:59.979
113.0, 3208.838785748337, -4000.224649932939, -7496.10453797633, -4997.358321828642, -6883.845553856559, -4633.270756396146, -5089.0228258398565, -4734.79237971215, 0.008, 0.982, 0.3, 192.0, 0.0, 0.0, 0.0, 0.0, 0.0, 0.0, 0.0, 0.0, 0.0, 1.7398203599796367E9, 0.0, 2025-02-17 16:25:59.979
114.0, 3206.6930182806277, -4017.100216996696, -7518.143358009263, -4972.994920372358, -6896.988379596279, -4649.63223333743, -5109.385265038642, -4753.769010754706, 0.008, 0.982, 0.3, 192.0, 0.0, 0.0, 0.0, 0.0, 0.0, 0.0, 0.0, 0.0, 0.0, 1.7398203599796607E9, 0.0, 2025-02-17 16:25:59.979
115.0, 3206.6706665361726, -3996.0895772087074, -7532.023791316008, -5038.843159537692, -6866.478248414785, -4624.285355125112, -5091.883849130136, -4742.056696660125, 0.008, 0.982, 0.3, 192.0, 0.0, 0.0, 0.0, 0.0, 0.0, 0.0, 0.0, 0.0, 0.0, 1.739820359979686E9, 0.0, 2025-02-17 16:25:59.979
116.0, 3205.7989485024154, -3993.4073678740706, -7520.691456877167, -5068.928607574536, -6867.729946104282, -4622.586622546509, -5087.324093261253, -4738.212196613812, 0.008, 0.982, 0.3, 192.0, 0.0, 0.0, 0.0, 0.0, 0.0, 0.0, 0.0, 0.0, 0.0, 1.7398203599797103E9, 0.0, 2025-02-17 16:25:59.979
117.0, 3203.653181034706, -4011.5346326273243, -7517.763378353522, -5038.7761043043265, -6895.98255109579, -4647.8440937810055, -5105.227840569954, -4753.366679354511, 0.008, 0.982, 0.3, 192.0, 0.0, 0.0, 0.0, 0.0, 0.0, 0.0, 0.0, 0.0, 0.0, 1.739820359979735E9, 0.0, 2025-02-17 16:25:59.979
118.0, 3199.9651431995803, -4027.493778168414, -7532.4708262051145, -5005.315542854732, -6914.89212690498, -4668.631216124441, -5124.137416379144, -4770.9351504963815, 0.002, 0.9540000000000001, 0.278, 192.0, 0.0, 16.0, 29.0, 208.0, 8.0, 176.0, 0.0, 0.0, 0.0, 1.7398203599797585E9, 0.0, 2025-02-17 16:25:59.979
119.0, 3204.882526979748, -4012.6298681056346, -7551.514512481036, -5066.782840106826, -6882.370338722509, -4647.01707923616, -5112.447454029018, -4764.319034137611, 0.002, 0.9540000000000001, 0.278, 192.0, 0.0, 0.0, 0.0, 0.0, 0.0, 0.0, 0.0, 0.0, 0.0, 1.739820359979784E9, 0.0, 2025-02-17 16:25:59.979
120.0, 3206.7600735139936, -4005.6337720911233, -7540.875082120309, -5108.670009216072, -6878.615245654017, -4634.276584896635, -5104.825509169759, -4758.03819394567, 0.002, 0.9540000000000001, 0.278, 192.0, 0.0, 0.0, 0.0, 0.0, 0.0, 0.0, 0.0, 0.0, 0.0, 1.739820359979808E9, 0.0, 2025-02-17 16:25:59.979
121.0, 3204.323733368365, -4022.1517112435954, -7535.085980306385, -5079.791555379815, -6905.124414578011, -4656.695384585308, -5120.158805866099, -4769.906970251438, 0.002, 0.9540000000000001, 0.278, 192.0, 0.0, 0.0, 0.0, 0.0, 0.0, 0.0, 0.0, 0.0, 0.0, 1.7398203604556863E9, 0.0, 2025-02-17 16:26:00.455
122.0, 3199.9874949440355, -4040.770714374866, -7547.535901967991, -5035.9597845029575, -6932.5723567691275, -4685.573838421565, -5142.756419510415, -4790.180002472402, 0.002, 0.9540000000000001, 0.278, 192.0, 0.0, 0.0, 0.0, 0.0, 0.0, 0.0, 0.0, 0.0, 0.0, 1.7398203604557617E9, 0.0, 2025-02-17 16:26:00.455
123.0, 3204.1896229016334, -4029.863063080676, -7569.0382801339965, -5078.9868925794235, -6909.058321602145, -4665.233750967235, -5134.508625806407, -4786.201391959356, 0.002, 0.9540000000000001, 0.278, 192.0, 0.0, 0.0, 0.0, 0.0, 0.0, 0.0, 0.0, 0.0, 0.0, 1.7398203604558256E9, 0.0, 2025-02-17 16:26:00.455
124.0, 3208.324695625865, -4018.0166385193634, -7561.170466085729, -5133.078114161267, -6893.367396994519, -4652.269739183157, -5121.924593678069, -4774.80200228715, 0.002, 0.9540000000000001, 0.278, 192.0, 0.0, 0.0, 0.0, 0.0, 0.0, 0.0, 0.0, 0.0, 0.0, 1.7398203604558516E9, 0.0, 2025-02-17 16:26:00.455
125.0, 3207.4529775921083, -4032.612327648679, -7554.375535771315, -5114.34735230772, -6917.909612406446, -4674.73324236074, -5135.335640351253, -4785.508487881242, 0.002, 0.9540000000000001, 0.278, 192.0, 0.0, 0.0, 0.0, 0.0, 0.0, 0.0, 0.0, 0.0, 0.0, 1.739820360456128E9, 0.0, 2025-02-17 16:26:00.456
126.0, 3205.9554107136028, -4057.3333570162486, -7563.0480126199745, -5065.262921483865, -6950.207883144365, -4704.617524697486, -5159.363765640708, -4806.116796269035, 0.002, 0.9540000000000001, 0.278, 192.0, 0.0, 0.0, 0.0, 0.0, 0.0, 0.0, 0.0, 0.0, 0.0, 1.739820360456157E9, 0.0, 2025-02-17 16:26:00.456
127.0, 3207.4082741031975, -4051.834827880243, -7584.5950942748905, -5087.681721172538, -6932.997039913779, -4689.552448934609, -5155.943948739046, -4806.250906735767, 0.002, 0.9540000000000001, 0.278, 192.0, 0.0, 0.0, 0.0, 0.0, 0.0, 0.0, 0.0, 0.0, 0.0, 1.7398203604561827E9, 0.0, 2025-02-17 16:26:00.456
128.0, 3208.101178181312, -4031.762961359377, -7580.281207595016, -5149.864274247203, -6909.997094869268, -4667.759498090684, -5137.637870030149, -4791.722272839817, 0.014, 0.9500000000000001, 0.294, 192.0, 0.0, 112.0, 29.0, 176.0, 9.0, 48.0, 0.0, 0.0, 0.0, 1.7398203604562087E9, 0.0, 2025-02-17 16:26:00.456
129.0, 3207.140053169734, -4042.156522531095, -7570.379384801315, -5139.202492142021, -6928.191414855888, -4684.813879110084, -5147.405582357119, -4799.3442176990775, 0.014, 0.9500000000000001, 0.294, 192.0, 0.0, 0.0, 0.0, 0.0, 0.0, 0.0, 0.0, 0.0, 0.0, 1.7398203604562778E9, 0.0, 2025-02-17 16:26:00.456
130.0, 3211.2080706606, -4073.6501304686226, -7576.54846627098, -5089.894543873614, -6962.478990850329, -4718.095626604036, -5172.439536147062, -4820.220747020334, 0.014, 0.9500000000000001, 0.294, 192.0, 0.0, 0.0, 0.0, 0.0, 0.0, 0.0, 0.0, 0.0, 0.0, 1.7398203604563038E9, 0.0, 2025-02-17 16:26:00.456
131.0, 3214.11379743979, -4078.1875345930503, -7599.302542126482, -5093.493174730918, -6958.388621615008, -4713.580574224064, -5176.865181549213, -4826.769808145739, 0.014, 0.9500000000000001, 0.294, 192.0, 0.0, 0.0, 0.0, 0.0, 0.0, 0.0, 0.0, 0.0, 0.0, 1.739820360456329E9, 0.0, 2025-02-17 16:26:00.456
132.0, 3208.9505444706137, -4046.6268714221565, -7601.269495638549, -5162.73887905346, -6926.4032752994635, -4684.098623287514, -5157.463867362007, -4812.040008549691, 0.014, 0.9500000000000001, 0.294, 192.0, 0.0, 0.0, 0.0, 0.0, 0.0, 0.0, 0.0, 0.0, 0.0, 1.739820360456365E9, 0.0, 2025-02-17 16:26:00.456
133.0, 3208.592916559329, -4050.3372610017377, -7589.557181543968, -5168.326815167286, -6938.361458583053, -4695.341550748533, -5161.375422641686, -4814.409293461954, 0.014, 0.9500000000000001, 0.294, 192.0, 0.0, 0.0, 0.0, 0.0, 0.0, 0.0, 0.0, 0.0, 0.0, 1.7398203604563906E9, 0.0, 2025-02-17 16:26:00.456
134.0, 3212.191547416633, -4079.550991004824, -7587.8808007098205, -5118.907108176602, -6969.765659542759, -4723.951783651327, -5180.843792062258, -4830.010811091758, 0.014, 0.9500000000000001, 0.294, 192.0, 0.0, 0.0, 0.0, 0.0, 0.0, 0.0, 0.0, 0.0, 0.0, 1.7398203604564157E9, 0.0, 2025-02-17 16:26:00.456
135.0, 3217.421855619175, -4095.0183981678965, -7608.042074208507, -5099.885773645136, -6976.225313690343, -4731.350211066033, -5192.086719523278, -4842.259567053266, 0.014, 0.9500000000000001, 0.294, 192.0, 0.0, 0.0, 0.0, 0.0, 0.0, 0.0, 0.0, 0.0, 0.0, 1.7398203604564416E9, 0.0, 2025-02-17 16:26:00.456
136.0, 3213.0185619614795, -4060.686118684545, -7617.630972579834, -5172.663053591616, -6940.484874306307, -4700.482451973254, -5170.897265779647, -4826.747456401284, 0.014, 0.9500000000000001, 0.294, 192.0, 0.0, 0.0, 0.0, 0.0, 0.0, 0.0, 0.0, 0.0, 0.0, 1.7398203604564672E9, 0.0, 2025-02-17 16:26:00.456
137.0, 3213.756169528505, -4059.0097378503965, -7601.180088660728, -5192.287885223375, -6942.4294760739185, -4700.057768828603, -5166.985710499967, -4821.00305807627, 0.014, 0.9500000000000001, 0.294, 192.0, 0.0, 0.0, 0.0, 0.0, 0.0, 0.0, 0.0, 0.0, 0.0, 1.7398203604564931E9, 0.0, 2025-02-17 16:26:00.456
138.0, 3218.070056208379, -4087.485860286458, -7595.279228124527, -5146.869140490191, -6971.442040376907, -4724.465873773798, -5184.442422919563, -4835.084657083114, 0.022, 0.9420000000000001, 0.28400000000000003, 192.0, 0.0, 176.0, 29.0, 112.0, 8.0, 224.0, 0.0, 0.0, 0.0, 1.7398203604565187E9, 0.0, 2025-02-17 16:26:00.456
139.0, 3219.9252509981693, -4107.065988429307, -7611.327780643437, -5109.832299927748, -6987.021206262256, -4740.626185014986, -5201.072120794311, -4851.736706702317, 0.022, 0.9420000000000001, 0.28400000000000003, 192.0, 0.0, 0.0, 0.0, 0.0, 0.0, 0.0, 0.0, 0.0, 0.0, 1.7398203604565568E9, 0.0, 2025-02-17 16:26:00.456
140.0, 3219.6346783202507, -4079.573342749279, -7626.79518780651, -5175.188800715066, -6951.548987811683, -4710.384274766955, -5181.603751373738, -4838.191549562401, 0.022, 0.9420000000000001, 0.28400000000000003, 192.0, 0.0, 0.0, 0.0, 0.0, 0.0, 0.0, 0.0, 0.0, 0.0, 1.7398203604565823E9, 0.0, 2025-02-17 16:26:00.456
141.0, 3218.651201564217, -4070.1409065891394, -7610.523117843047, -5208.537603442383, -6945.46931331984, -4702.762329907695, -5170.830210546281, -4825.719276156339, 0.022, 0.9420000000000001, 0.28400000000000003, 192.0, 0.0, 0.0, 0.0, 0.0, 0.0, 0.0, 0.0, 0.0, 0.0, 1.7398203604566164E9, 0.0, 2025-02-17 16:26:00.456
142.0, 3222.361591143798, -4094.1466801341394, -7603.2588008950715, -5171.724280324493, -6972.894903766502, -4725.449350529832, -5186.767004342914, -4837.6774594399285, 0.022, 0.9420000000000001, 0.28400000000000003, 192.0, 0.0, 0.0, 0.0, 0.0, 0.0, 0.0, 0.0, 0.0, 0.0, 1.739820360456641E9, 0.0, 2025-02-17 16:26:00.456
143.0, 3223.814454533393, -4118.398322868147, -7615.306391156482, -5122.9527739230125, -6995.917200555468, -4749.3210136081, -5207.442367964073, -4855.849427682094, 0.022, 0.9420000000000001, 0.28400000000000003, 192.0, 0.0, 0.0, 0.0, 0.0, 0.0, 0.0, 0.0, 0.0, 0.0, 1.7398203604566667E9, 0.0, 2025-02-17 16:26:00.456
144.0, 3222.6968673106276, -4094.928991190075, -7632.405475664792, -5171.858390791224, -6960.869665249546, -4720.040228371648, -5190.812670089325, -4845.05353511018, 0.022, 0.9420000000000001, 0.28400000000000003, 192.0, 0.0, 0.0, 0.0, 0.0, 0.0, 0.0, 0.0, 0.0, 0.0, 1.739820360456692E9, 0.0, 2025-02-17 16:26:00.456
145.0, 3220.886376009748, -4076.3099880588043, -7618.145062702306, -5218.059446580344, -6945.961051697856, -4703.656399685908, -5174.250027447943, -4829.496720969287, 0.022, 0.9420000000000001, 0.28400000000000003, 192.0, 0.0, 0.0, 0.0, 0.0, 0.0, 0.0, 0.0, 0.0, 0.0, 1.7398203604567285E9, 0.0, 2025-02-17 16:26:00.456
146.0, 3222.3839428882534, -4092.7608719779105, -7606.835080007921, -5188.845716577258, -6972.067889221656, -4723.013010384204, -5183.973036286001, -4835.6210989500405, 0.022, 0.9420000000000001, 0.28400000000000003, 192.0, 0.0, 0.0, 0.0, 0.0, 0.0, 0.0, 0.0, 0.0, 0.0, 1.7398203604567547E9, 0.0, 2025-02-17 16:26:00.456
147.0, 3225.714352812094, -4122.332229892281, -7616.7592545460775, -5136.028544429368, -6998.375892445552, -4753.366679354511, -5209.834004620791, -4857.905788171982, 0.022, 0.9420000000000001, 0.28400000000000003, 192.0, 0.0, 0.0, 0.0, 0.0, 0.0, 0.0, 0.0, 0.0, 0.0, 1.7398203604567811E9, 0.0, 2025-02-17 16:26:00.456
148.0, 3224.6638208226946, -4104.9425727060525, -7635.691182099722, -5167.2092279445205, -6971.822020032647, -4731.238452343757, -5198.546373670862, -4852.206093335878, 0.024, 0.964, 0.268, 192.0, 0.0, 192.0, 30.0, 32.0, 8.0, 96.0, 0.0, 0.0, 0.0, 1.7398203604568064E9, 0.0, 2025-02-17 16:26:00.456
149.0, 3225.267317922988, -4081.584999750257, -7628.113940729373, -5227.380124018207, -6951.481932578317, -4712.284173045656, -5179.972074028501, -4836.448113494887, 0.024, 0.964, 0.268, 192.0, 0.0, 0.0, 0.0, 0.0, 0.0, 0.0, 0.0, 0.0, 0.0, 1.7398203604568336E9, 0.0, 2025-02-17 16:26:00.456
150.0, 3225.3343731563536, -4094.1466801341394, -7613.6970655557, -5207.487071452984, -6968.581017086628, -4723.862376673505, -5186.923466554102, -4839.934985629915, 0.024, 0.964, 0.268, 192.0, 0.0, 0.0, 0.0, 0.0, 0.0, 0.0, 0.0, 0.0, 0.0, 1.73982036045686E9, 0.0, 2025-02-17 16:26:00.456
151.0, 3226.004925490013, -4121.14758743615, -7617.496862113102, -5149.841922502747, -7000.029921535244, -4751.064449675614, -5210.817481376825, -4860.386831806521, 0.024, 0.964, 0.268, 192.0, 0.0, 0.0, 0.0, 0.0, 0.0, 0.0, 0.0, 0.0, 0.0, 1.7398203604568863E9, 0.0, 2025-02-17 16:26:00.456
152.0, 3224.7085243116053, -4111.469282087002, -7636.339382688926, -5159.944910996546, -6981.209752703876, -4740.782647226172, -5206.615353419227, -4859.649224239495, 0.024, 0.964, 0.268, 192.0, 0.0, 0.0, 0.0, 0.0, 0.0, 0.0, 0.0, 0.0, 0.0, 1.739820360456914E9, 0.0, 2025-02-17 16:26:00.456
153.0, 3225.200262689622, -4083.775470706877, -7633.880690798842, -5228.27419379642, -6954.097086679589, -4710.898364889427, -5184.688292108571, -4841.4325525084205, 0.024, 0.964, 0.268, 192.0, 0.0, 0.0, 0.0, 0.0, 0.0, 0.0, 0.0, 0.0, 0.0, 1.7398203604569404E9, 0.0, 2025-02-17 16:26:00.456
154.0, 3229.692963325139, -4094.7501772344326, -7621.1625482037725, -5224.183824561099, -6970.0785839651335, -4724.845853429539, -5190.432690433585, -4844.606500221074, 0.024, 0.964, 0.268, 192.0, 0.0, 0.0, 0.0, 0.0, 0.0, 0.0, 0.0, 0.0, 0.0, 1.7398203604569752E9, 0.0, 2025-02-17 16:26:00.456
155.0, 3230.296460425432, -4121.371104880704, -7620.760216803577, -5167.633911089171, -7001.996875047312, -4754.305452621634, -5212.784434888892, -4862.979634163336, 0.024, 0.964, 0.268, 192.0, 0.0, 0.0, 0.0, 0.0, 0.0, 0.0, 0.0, 0.0, 0.0, 1.7398203604570265E9, 0.0, 2025-02-17 16:26:00.457
156.0, 3229.8494255363257, -4122.041657214362, -7639.423923423758, -5157.776791784381, -6996.1407180000215, -4752.539664809664, -5216.450120979563, -4868.567570277163, 0.024, 0.964, 0.268, 192.0, 0.0, 0.0, 0.0, 0.0, 0.0, 0.0, 0.0, 0.0, 0.0, 1.7398203604570525E9, 0.0, 2025-02-17 16:26:00.457
157.0, 3229.5812046028623, -4090.5480492768347, -7641.301469958004, -5228.98944961899, -6960.936720482912, -4719.7496556937285, -5191.55027765635, -4848.428648522931, 0.024, 0.964, 0.268, 192.0, 0.0, 0.0, 0.0, 0.0, 0.0, 0.0, 0.0, 0.0, 0.0, 1.739820360457086E9, 0.0, 2025-02-17 16:26:00.457
158.0, 3230.363515658798, -4092.7608719779105, -7624.448254638703, -5234.957365388556, -6966.837581019114, -4723.594155740042, -5190.03035903339, -4845.522921743742, 0.006, 0.96, 0.264, 192.0, 0.0, 48.0, 30.0, 0.0, 8.0, 64.0, 0.0, 0.0, 0.0, 1.7398203604571114E9, 0.0, 2025-02-17 16:26:00.457
159.0, 3231.9281377706693, -4118.2642124014155, -7621.497824370602, -5183.011911274423, -6997.48182266734, -4752.673775276396, -5211.465681966029, -4862.979634163336, 0.006, 0.96, 0.264, 192.0, 0.0, 0.0, 0.0, 0.0, 0.0, 0.0, 0.0, 0.0, 0.0, 1.7398203604571407E9, 0.0, 2025-02-17 16:26:00.457
160.0, 3234.4762366385744, -4130.24474742946, -7640.720324602166, -5156.92742549508, -7006.400168705007, -4762.709708536829, -5225.41317050614, -4876.614198281074, 0.006, 0.96, 0.264, 192.0, 0.0, 0.0, 0.0, 0.0, 0.0, 0.0, 0.0, 0.0, 0.0, 1.739820360457167E9, 0.0, 2025-02-17 16:26:00.457
161.0, 3236.242024450544, -4100.963962193008, -7650.443333440225, -5227.000144362467, -6969.47508686484, -4727.863338931005, -5203.0167225619225, -4860.319776573155, 0.006, 0.96, 0.264, 192.0, 0.0, 0.0, 0.0, 0.0, 0.0, 0.0, 0.0, 0.0, 0.0, 1.7398203604572024E9, 0.0, 2025-02-17 16:26:00.457
162.0, 3235.3703064167867, -4094.5937150232453, -7631.153777975295, -5246.602624249772, -6967.239912419309, -4726.74575170824, -5194.187783502077, -4851.088506113113, 0.006, 0.96, 0.264, 192.0, 0.0, 0.0, 0.0, 0.0, 0.0, 0.0, 0.0, 0.0, 0.0, 1.739820360457229E9, 0.0, 2025-02-17 16:26:00.457
163.0, 3235.035030249957, -4115.984334466974, -7624.269440683061, -5199.88747833818, -6996.00660753329, -4748.98573744127, -5210.437501721085, -4861.951453918392, 0.006, 0.96, 0.264, 192.0, 0.0, 0.0, 0.0, 0.0, 0.0, 0.0, 0.0, 0.0, 0.0, 1.7398203604572604E9, 0.0, 2025-02-17 16:26:00.457
164.0, 3236.264376194999, -4133.731619564488, -7638.8874815568315, -5157.888550506657, -7013.083340297144, -4769.594045829063, -5227.715400185037, -4877.798840737205, 0.006, 0.96, 0.264, 192.0, 0.0, 0.0, 0.0, 0.0, 0.0, 0.0, 0.0, 0.0, 0.0, 1.7398203604572904E9, 0.0, 2025-02-17 16:26:00.457
165.0, 3237.493722140041, -4108.362389607714, -7653.483170686147, -5218.215908791532, -6976.582941601628, -4733.115998878003, -5207.7105888975375, -4864.253683597289, 0.006, 0.96, 0.264, 192.0, 0.0, 0.0, 0.0, 0.0, 0.0, 0.0, 0.0, 0.0, 0.0, 1.7398203604573169E9, 0.0, 2025-02-17 16:26:00.457
166.0, 3238.4771988960742, -4097.253572613427, -7638.105170500895, -5254.604548764772, -6967.910464752968, -4724.868205173994, -5196.355902714241, -4852.429610780431, 0.006, 0.96, 0.264, 192.0, 0.0, 0.0, 0.0, 0.0, 0.0, 0.0, 0.0, 0.0, 0.0, 1.7398203604573452E9, 0.0, 2025-02-17 16:26:00.457
167.0, 3238.1195709847893, -4114.397360610647, -7627.555147117991, -5216.316010512831, -6991.133927242033, -4746.214121128813, -5209.141100542677, -4862.264378340767, 0.006, 0.96, 0.264, 192.0, 0.0, 0.0, 0.0, 0.0, 0.0, 0.0, 0.0, 0.0, 0.0, 1.739820360457373E9, 0.0, 2025-02-17 16:26:00.457
168.0, 3238.208977962611, -4135.273889931905, -7637.076990255951, -5163.387079642664, -7015.743197887326, -4770.197542929357, -5229.235318807998, -4880.034015182736, -0.002, 0.9480000000000001, 0.254, 192.0, 255.0, 240.0, 29.0, 160.0, 7.0, 240.0, 0.0, 0.0, 0.0, 1.7398203604574018E9, 0.0, 2025-02-17 16:26:00.457
169.0, 3239.8853587967587, -4114.062084443818, -7655.003089309108, -5208.9399348425795, -6983.71314808287, -4744.068353661103, -5214.46081572304, -4870.6015790225965, -0.002, 0.9480000000000001, 0.254, 192.0, 0.0, 0.0, 0.0, 0.0, 0.0, 0.0, 0.0, 0.0, 0.0, 1.7398203604574294E9, 0.0, 2025-02-17 16:26:00.457
170.0, 3240.2206349635885, -4095.3760260791814, -7642.307298458493, -5258.292586599897, -6967.642243819505, -4726.164606352402, -5196.825289347803, -4854.620081737052, -0.002, 0.9480000000000001, 0.254, 192.0, 0.0, 0.0, 0.0, 0.0, 0.0, 0.0, 0.0, 0.0, 0.0, 1.7398203604574556E9, 0.0, 2025-02-17 16:26:00.457
171.0, 3241.2488152085325, -4109.8152529973095, -7630.170301219261, -5230.352906030763, -6989.770470830259, -4744.493036805754, -5207.799995875358, -4862.063212640669, -0.002, 0.9480000000000001, 0.254, 192.0, 0.0, 0.0, 0.0, 0.0, 0.0, 0.0, 0.0, 0.0, 0.0, 1.7398203604575908E9, 0.0, 2025-02-17 16:26:00.457
172.0, 3241.651146608728, -4135.542110865368, -7636.31703094447, -5171.679576835582, -7018.403055477507, -4771.829220274594, -5231.112865342244, -4881.39747159451, -0.002, 0.9480000000000001, 0.254, 192.0, 0.0, 0.0, 0.0, 0.0, 0.0, 0.0, 0.0, 0.0, 0.0, 1.7398203604576297E9, 0.0, 2025-02-17 16:26:00.457
173.0, 3242.098181497834, -4121.460511858525, -7656.455952698702, -5198.322856226308, -6992.0503487647, -4749.946862452849, -5221.948650115568, -4877.374157592554, -0.002, 0.9480000000000001, 0.254, 192.0, 0.0, 0.0, 0.0, 0.0, 0.0, 0.0, 0.0, 0.0, 0.0, 1.7398203604576552E9, 0.0, 2025-02-17 16:26:00.457
174.0, 3241.6064431198174, -4095.1301568901727, -7646.9341095607415, -5259.23135986702, -6966.345842641097, -4725.628164485474, -5199.485146937985, -4858.48693352782, -0.002, 0.9480000000000001, 0.254, 192.0, 0.0, 0.0, 0.0, 0.0, 0.0, 0.0, 0.0, 0.0, 0.0, 1.7398203604576993E9, 0.0, 2025-02-17 16:26:00.457
175.0, 3240.6676698526944, -4103.869688972198, -7630.147949474806, -5240.232377080009, -6981.589732359616, -4738.480417547276, -5204.402530718152, -4859.760982961772, -0.002, 0.9480000000000001, 0.254, 192.0, 0.0, 0.0, 0.0, 0.0, 0.0, 0.0, 0.0, 0.0, 0.0, 1.7398203604577262E9, 0.0, 2025-02-17 16:26:00.457
176.0, 3245.383887932764, -4134.536282364879, -7636.495844900113, -5184.420071175107, -7017.844261866125, -4771.8739237635045, -5231.783417675903, -4881.978616950348, -0.002, 0.9480000000000001, 0.254, 192.0, 0.0, 0.0, 0.0, 0.0, 0.0, 0.0, 0.0, 0.0, 0.0, 1.739820360457762E9, 0.0, 2025-02-17 16:26:00.457
177.0, 3248.0213937784906, -4131.339982907771, -7658.936996333242, -5192.578457901294, -7004.120290770566, -4762.262673647723, -5231.783417675903, -4885.241971640822, -0.002, 0.9480000000000001, 0.254, 192.0, 0.0, 0.0, 0.0, 0.0, 0.0, 0.0, 0.0, 0.0, 0.0, 1.7398203604577887E9, 0.0, 2025-02-17 16:26:00.457
178.0, 3248.5131321565073, -4102.550936049335, -7655.695993387222, -5261.80181047938, -6972.224351432843, -4730.389086054455, -5206.727112141503, -4864.700718486395, -0.014, 0.9420000000000001, 0.246, 192.0, 255.0, 144.0, 29.0, 112.0, 7.0, 176.0, 0.0, 0.0, 0.0, 1.7398203604578152E9, 0.0, 2025-02-17 16:26:00.457
179.0, 3247.26143446701, -4106.1719186510945, -7637.0099350225855, -5254.828066209325, -6983.243761449309, -4737.675754746885, -5205.967152830023, -4861.571474262652, -0.014, 0.9420000000000001, 0.246, 192.0, 0.0, 0.0, 0.0, 0.0, 0.0, 0.0, 0.0, 0.0, 0.0, 1.7398203604578447E9, 0.0, 2025-02-17 16:26:00.457
180.0, 3246.0544402664236, -4130.0659334738175, -7633.411304165281, -5195.305370724842, -7012.301029241208, -4767.984720228282, -5225.770798417425, -4877.038881425725, -0.014, 0.9420000000000001, 0.246, 192.0, 0.0, 0.0, 0.0, 0.0, 0.0, 0.0, 0.0, 0.0, 0.0, 1.7398203604578764E9, 0.0, 2025-02-17 16:26:00.457
181.0, 3245.0933152548455, -4132.949308508552, -7651.091534029429, -5179.54739088385, -7008.300066983708, -4763.693185292863, -5230.218795564031, -4883.163259406479, -0.014, 0.9420000000000001, 0.246, 192.0, 0.0, 0.0, 0.0, 0.0, 0.0, 0.0, 0.0, 0.0, 0.0, 1.7398203604579012E9, 0.0, 2025-02-17 16:26:00.457
182.0, 3244.0874867543566, -4100.561630792812, -7653.013784052585, -5249.284833584408, -6970.123287454044, -4725.874033674483, -5203.6649231511265, -4861.347956818099, -0.014, 0.9420000000000001, 0.246, 192.0, 0.0, 0.0, 0.0, 0.0, 0.0, 0.0, 0.0, 0.0, 0.0, 1.7398203604579265E9, 0.0, 2025-02-17 16:26:00.457
183.0, 3246.8367513223593, -4101.925087204586, -7637.233452467139, -5259.633691267216, -6976.672348579449, -4732.065466888603, -5202.860260350735, -4858.844561439105, -0.014, 0.9420000000000001, 0.246, 192.0, 0.0, 0.0, 0.0, 0.0, 0.0, 0.0, 0.0, 0.0, 0.0, 1.7398203604579525E9, 0.0, 2025-02-17 16:26:00.457
184.0, 3249.362498445809, -4127.316668905815, -7634.551243132501, -5208.604658675749, -7011.317552485175, -4762.508542836731, -5223.625030949715, -4876.055404669691, -0.014, 0.9420000000000001, 0.246, 192.0, 0.0, 0.0, 0.0, 0.0, 0.0, 0.0, 0.0, 0.0, 0.0, 1.7398203604579775E9, 0.0, 2025-02-17 16:26:00.457
185.0, 3249.0272222789795, -4137.889044033175, -7649.705725873199, -5175.188800715066, -7017.6207444215715, -4773.997339486759, -5235.069124110833, -4886.739538519328, -0.014, 0.9420000000000001, 0.246, 192.0, 0.0, 0.0, 0.0, 0.0, 0.0, 0.0, 0.0, 0.0, 0.0, 1.739820360458003E9, 0.0, 2025-02-17 16:26:00.458
186.0, 3250.6365478797616, -4109.301162874837, -7659.920473089275, -5242.959289903556, -6978.661653835971, -4735.977022168282, -5212.203289533054, -4868.232294110334, -0.014, 0.9420000000000001, 0.246, 192.0, 0.0, 0.0, 0.0, 0.0, 0.0, 0.0, 0.0, 0.0, 0.0, 1.7398203604580405E9, 0.0, 2025-02-17 16:26:00.458
187.0, 3250.8600653243143, -4100.807499981821, -7640.809731579988, -5265.489848314506, -6973.788973544714, -4728.779760453673, -5202.524984183906, -4857.078773627135, -0.014, 0.9420000000000001, 0.246, 192.0, 0.0, 0.0, 0.0, 0.0, 0.0, 0.0, 0.0, 0.0, 0.0, 1.7398203604580655E9, 0.0, 2025-02-17 16:26:00.458
188.0, 3250.904768813225, -4119.113578690717, -7631.489054142125, -5217.880632624702, -6999.761700601781, -4752.874940976494, -5216.740693657482, -4867.695852243406, -0.028, 0.96, 0.246, 192.0, 255.0, 32.0, 30.0, 0.0, 7.0, 176.0, 0.0, 0.0, 0.0, 1.7398203604580967E9, 0.0, 2025-02-17 16:26:00.458
189.0, 3250.0330507794683, -4135.475055632002, -7642.486112414135, -5169.0867744787665, -7015.318514742675, -4771.248074918756, -5232.297507798375, -4882.15743090599, -0.028, 0.96, 0.246, 192.0, 0.0, 0.0, 0.0, 0.0, 0.0, 0.0, 0.0, 0.0, 0.0, 1.7398203604581249E9, 0.0, 2025-02-17 16:26:00.458
190.0, 3248.7590013455156, -4105.903697717631, -7653.952557319708, -5223.021533849423, -6977.566418357661, -4732.89248143345, -5208.98463833149, -4865.170105119956, -0.028, 0.96, 0.246, 192.0, 0.0, 0.0, 0.0, 0.0, 0.0, 0.0, 0.0, 0.0, 0.0, 1.7398203604581497E9, 0.0, 2025-02-17 16:26:00.458
191.0, 3250.0330507794683, -4092.8502789557315, -7638.261632712082, -5261.578293034827, -6966.56936008565, -4722.633030728463, -5196.825289347803, -4852.6978317138955, -0.028, 0.96, 0.246, 192.0, 0.0, 0.0, 0.0, 0.0, 0.0, 0.0, 0.0, 0.0, 0.0, 1.7398203604581745E9, 0.0, 2025-02-17 16:26:00.458
192.0, 3250.457733924119, -4110.23993614196, -7627.286926184527, -5223.803844905358, -6989.993988274812, -4744.470685061298, -5209.1187487982215, -4861.258549840278, -0.028, 0.96, 0.246, 192.0, 0.0, 0.0, 0.0, 0.0, 0.0, 0.0, 0.0, 0.0, 0.0, 1.739820360458207E9, 0.0, 2025-02-17 16:26:00.458
193.0, 3249.518960656996, -4131.541148607868, -7634.685353599233, -5166.605730844228, -7013.932706586445, -4766.062470205125, -5228.765932174437, -4878.402337837499, -0.028, 0.96, 0.246, 192.0, 0.0, 0.0, 0.0, 0.0, 0.0, 0.0, 0.0, 0.0, 0.0, 1.7398203604582317E9, 0.0, 2025-02-17 16:26:00.458
194.0, 3250.748306602038, -4111.066950686807, -7652.410286952292, -5207.867051108725, -6982.506153882284, -4738.145141380446, -5214.259650022942, -4868.567570277163, -0.028, 0.96, 0.246, 192.0, 0.0, 0.0, 0.0, 0.0, 0.0, 0.0, 0.0, 0.0, 0.0, 1.7398203604582567E9, 0.0, 2025-02-17 16:26:00.458
195.0, 3252.849370580837, -4091.799746966332, -7641.837911824931, -5261.0642029123555, -6965.295310651697, -4721.26957431669, -5197.518193425917, -4852.921349158448, -0.028, 0.96, 0.246, 192.0, 0.0, 0.0, 0.0, 0.0, 0.0, 0.0, 0.0, 0.0, 0.0, 1.7398203604582815E9, 0.0, 2025-02-17 16:26:00.458
196.0, 3253.3411089588535, -4105.14373840615, -7628.113940729373, -5233.526853743417, -6983.511982382773, -4740.55912978162, -5205.855394107747, -4858.621043994552, -0.028, 0.96, 0.246, 192.0, 0.0, 0.0, 0.0, 0.0, 0.0, 0.0, 0.0, 0.0, 0.0, 1.739820360458313E9, 0.0, 2025-02-17 16:26:00.458
197.0, 3252.268225224999, -4128.993049739963, -7631.824330308954, -5171.83603904677, -7015.519680442772, -4764.6543103044405, -5226.039019350889, -4875.898942458504, -0.028, 0.96, 0.246, 192.0, 0.0, 0.0, 0.0, 0.0, 0.0, 0.0, 0.0, 0.0, 0.0, 1.7398203604583385E9, 0.0, 2025-02-17 16:26:00.458
198.0, 3249.4519054236303, -4112.944497221052, -7647.291737472026, -5190.410338689129, -6984.674273094449, -4744.202464127835, -5214.527870956406, -4868.656977254985, -0.03, 0.9580000000000001, 0.256, 192.0, 255.0, 16.0, 29.0, 240.0, 8.0, 0.0, 0.0, 0.0, 0.0, 1.7398203604583635E9, 0.0, 2025-02-17 16:26:00.458
199.0, 3250.4800856685742, -4088.37993006467, -7640.787379835532, -5253.486961542006, -6958.433325103918, -4715.256955058212, -5194.12072826871, -4851.803761935683, -0.03, 0.9580000000000001, 0.256, 192.0, 0.0, 0.0, 0.0, 0.0, 0.0, 0.0, 0.0, 0.0, 0.0, 1.7398203604583907E9, 0.0, 2025-02-17 16:26:00.458
200.0, 3252.9164258142027, -4098.8405464697535, -7626.839891295421, -5238.84656892378, -6975.733575312326, -4729.204443598323, -5200.826251605303, -4855.8717794265485, -0.03, 0.9580000000000001, 0.256, 192.0, 0.0, 0.0, 0.0, 0.0, 0.0, 0.0, 0.0, 0.0, 0.0, 1.7398203604584157E9, 0.0, 2025-02-17 16:26:00.458
201.0, 3253.363460703309, -4123.919203748608, -7628.337458173926, -5178.698024594549, -7008.4118257059845, -4759.401650357443, -5222.328629771308, -4873.507305801786, -0.03, 0.9580000000000001, 0.256, 192.0, 0.0, 0.0, 0.0, 0.0, 0.0, 0.0, 0.0, 0.0, 0.0, 1.7398203604584408E9, 0.0, 2025-02-17 16:26:00.458
202.0, 3253.810495592415, -4119.113578690717, -7647.314089216482, -5179.88266705068, -6995.939552299924, -4754.774839255195, -5220.316972770331, -4874.468430813365, -0.03, 0.9580000000000001, 0.256, 192.0, 0.0, 0.0, 0.0, 0.0, 0.0, 0.0, 0.0, 0.0, 0.0, 1.7398203604584725E9, 0.0, 2025-02-17 16:26:00.458
203.0, 3254.8833793262697, -4090.972732421486, -7645.727115360155, -5248.435467295107, -6962.590749572605, -4724.845853429539, -5196.713530625526, -4854.620081737052, -0.03, 0.9580000000000001, 0.256, 192.0, 0.0, 0.0, 0.0, 0.0, 0.0, 0.0, 0.0, 0.0, 0.0, 1.7398203604584975E9, 0.0, 2025-02-17 16:26:00.458
204.0, 3257.8561613388256, -4098.438215069558, -7631.913737286775, -5247.608452750261, -6974.995967745301, -4728.042152886647, -5202.055597550345, -4856.564683504664, -0.03, 0.9580000000000001, 0.256, 192.0, 0.0, 0.0, 0.0, 0.0, 0.0, 0.0, 0.0, 0.0, 0.0, 1.7398203604585288E9, 0.0, 2025-02-17 16:26:00.458
205.0, 3261.320681729398, -4125.550881093845, -7633.187786720728, -5195.037149791378, -7008.43417745044, -4758.507580579231, -5226.240185050987, -4876.68125351444, -0.03, 0.9580000000000001, 0.256, 192.0, 0.0, 0.0, 0.0, 0.0, 0.0, 0.0, 0.0, 0.0, 0.0, 1.739820360458554E9, 0.0, 2025-02-17 16:26:00.458
206.0, 3262.192399763155, -4130.289450918371, -7650.778609607055, -5177.982768771979, -7007.204831505398, -4762.821467259106, -5232.006935120456, -4884.593771051618, -0.03, 0.9580000000000001, 0.256, 192.0, 0.0, 0.0, 0.0, 0.0, 0.0, 0.0, 0.0, 0.0, 0.0, 1.7398203604585793E9, 0.0, 2025-02-17 16:26:00.458
207.0, 3257.967920061102, -4095.800709223832, -7649.571615406468, -5240.679411969115, -6967.016394974756, -4724.6223359849855, -5202.614391161727, -4860.543294017708, -0.03, 0.9580000000000001, 0.256, 192.0, 0.0, 0.0, 0.0, 0.0, 0.0, 0.0, 0.0, 0.0, 0.0, 1.7398203604586053E9, 0.0, 2025-02-17 16:26:00.458
208.0, 3255.7327456155713, -4091.352712077226, -7629.6785628412445, -5247.764914961447, -6969.050403720189, -4723.281231317667, -5195.439481191574, -4851.736706702317, -0.032, 0.9540000000000001, 0.268, 192.0, 255.0, 0.0, 29.0, 208.0, 8.0, 96.0, 0.0, 0.0, 0.0, 1.7398203604586558E9, 0.0, 2025-02-17 16:26:00.458
209.0, 3257.722050872094, -4114.307953632826, -7625.677600583745, -5199.440443449073, -6999.046444779211, -4751.243263631256, -5213.946725600568, -4866.421802809454, -0.032, 0.9540000000000001, 0.268, 192.0, 0.0, 0.0, 0.0, 0.0, 0.0, 0.0, 0.0, 0.0, 0.0, 1.7398203604586823E9, 0.0, 2025-02-17 16:26:00.458
210.0, 3260.0913357843565, -4127.495482861457, -7641.927318802753, -5167.298634922342, -7010.714055384881, -4766.75537428324, -5227.782455418403, -4879.743442504817, -0.032, 0.9540000000000001, 0.268, 192.0, 0.0, 0.0, 0.0, 0.0, 0.0, 0.0, 0.0, 0.0, 0.0, 1.7398203604587073E9, 0.0, 2025-02-17 16:26:00.458
211.0, 3260.9854055625688, -4099.689912759056, -7651.1585892627945, -5230.330554286308, -6971.710261310371, -4733.674792489385, -5205.050731307356, -4862.1526196184905, -0.032, 0.9540000000000001, 0.268, 192.0, 0.0, 0.0, 0.0, 0.0, 0.0, 0.0, 0.0, 0.0, 0.0, 1.739820360458732E9, 0.0, 2025-02-17 16:26:00.458
212.0, 3258.8843415837696, -4090.5480492768347, -7632.897214042809, -5252.302319085875, -6965.138848440511, -4718.587364982052, -5195.372425958208, -4852.250796824789, -0.032, 0.9540000000000001, 0.268, 192.0, 0.0, 0.0, 0.0, 0.0, 0.0, 0.0, 0.0, 0.0, 0.0, 1.7398203604587567E9, 0.0, 2025-02-17 16:26:00.458
213.0, 3258.5043619280295, -4108.34003786326, -7623.93416451623, -5208.425844720107, -6989.85987780808, -4741.900234448938, -5209.1187487982215, -4862.711413229873, -0.032, 0.9540000000000001, 0.268, 192.0, 0.0, 0.0, 0.0, 0.0, 0.0, 0.0, 0.0, 0.0, 0.0, 1.7398203604587812E9, 0.0, 2025-02-17 16:26:00.458
214.0, 3259.1749142616886, -4126.176729938595, -7635.400609421803, -5162.850637775736, -7008.657694894993, -4762.3073771366335, -5226.441350751084, -4878.089413415124, -0.032, 0.9540000000000001, 0.268, 192.0, 0.0, 0.0, 0.0, 0.0, 0.0, 0.0, 0.0, 0.0, 0.0, 1.7398203604588065E9, 0.0, 2025-02-17 16:26:00.458
215.0, 3258.8396380948593, -4100.226354625983, -7647.9846415501415, -5214.147891300666, -6973.185476444421, -4732.534853522165, -5205.609524918738, -4863.069041141158, -0.032, 0.9540000000000001, 0.268, 192.0, 0.0, 0.0, 0.0, 0.0, 0.0, 0.0, 0.0, 0.0, 0.0, 1.739820360458831E9, 0.0, 2025-02-17 16:26:00.458
216.0, 3259.1749142616886, -4085.9212381745865, -7633.433655909736, -5252.70465048607, -6963.28365365072, -4719.973173138282, -5191.326760211798, -4849.5909392346075, -0.032, 0.9540000000000001, 0.268, 192.0, 0.0, 0.0, 0.0, 0.0, 0.0, 0.0, 0.0, 0.0, 0.0, 1.7398203604588559E9, 0.0, 2025-02-17 16:26:00.458
217.0, 3261.812420107415, -4104.204965139028, -7625.074103483451, -5220.451083237062, -6986.171839972954, -4739.933280936871, -5205.430710963096, -4859.738631217317, -0.032, 0.9540000000000001, 0.268, 192.0, 0.0, 0.0, 0.0, 0.0, 0.0, 0.0, 0.0, 0.0, 0.0, 1.7398203604588861E9, 0.0, 2025-02-17 16:26:00.458
218.0, 3264.002891064035, -4127.897814261653, -7634.394780921314, -5169.064422734311, -7010.267020495775, -4765.4142696159215, -5227.916565885135, -4879.072890171157, -0.034, 0.9440000000000001, 0.268, 192.0, 254.0, 240.0, 29.0, 128.0, 8.0, 96.0, 0.0, 0.0, 0.0, 1.739820360458928E9, 0.0, 2025-02-17 16:26:00.458
219.0, 3263.7570218750266, -4108.518851818902, -7649.705725873199, -5204.581344673794, -6980.852124792591, -4740.626185014986, -5213.186766289087, -4869.81926796666, -0.034, 0.9440000000000001, 0.268, 192.0, 0.0, 0.0, 0.0, 0.0, 0.0, 0.0, 0.0, 0.0, 0.0, 1.7398203604589608E9, 0.0, 2025-02-17 16:26:00.458
220.0, 3263.712318386116, -4088.514040531402, -7638.440446667725, -5254.13516213121, -6963.5071710952725, -4721.604850483519, -5194.701873624548, -4853.547198003197, -0.034, 0.9440000000000001, 0.268, 192.0, 0.0, 0.0, 0.0, 0.0, 0.0, 0.0, 0.0, 0.0, 0.0, 1.7398203604589863E9, 0.0, 2025-02-17 16:26:00.458
221.0, 3264.874609097792, -4101.47805231548, -7626.616373850868, -5230.062333352845, -6981.992063759812, -4735.5970425125415, -5203.977847573501, -4859.649224239495, -0.034, 0.9440000000000001, 0.268, 192.0, 0.0, 0.0, 0.0, 0.0, 0.0, 0.0, 0.0, 0.0, 0.0, 1.7398203604590113E9, 0.0, 2025-02-17 16:26:00.459
222.0, 3264.785202119971, -4124.321535148804, -7630.259708197083, -5173.557123369828, -7010.781110618247, -4761.525066080698, -5224.295583283375, -4876.122459903057, -0.034, 0.9440000000000001, 0.268, 192.0, 0.0, 0.0, 0.0, 0.0, 0.0, 0.0, 0.0, 0.0, 0.0, 1.7398203604590373E9, 0.0, 2025-02-17 16:26:00.459
223.0, 3264.516981186507, -4112.475110587491, -7647.8728828278645, -5191.326760211798, -6989.055215007689, -4743.621318771997, -5216.405417490651, -4872.456773812387, -0.034, 0.9440000000000001, 0.268, 192.0, 0.0, 0.0, 0.0, 0.0, 0.0, 0.0, 0.0, 0.0, 0.0, 1.7398203604590683E9, 0.0, 2025-02-17 16:26:00.459
224.0, 3262.6617863967167, -4085.3177410742933, -7638.976888534652, -5248.748391717481, -6960.243816404798, -4719.2802690601675, -5193.874859079702, -4852.4072590359765, -0.034, 0.9440000000000001, 0.268, 192.0, 0.0, 0.0, 0.0, 0.0, 0.0, 0.0, 0.0, 0.0, 0.0, 1.739820360459093E9, 0.0, 2025-02-17 16:26:00.459
225.0, 3265.165181775711, -4094.6607702566116, -7625.521138372557, -5236.097304355777, -6975.33124391213, -4734.010068656215, -5199.105167282244, -4854.597729992596, -0.034, 0.9440000000000001, 0.268, 192.0, 0.0, 0.0, 0.0, 0.0, 0.0, 0.0, 0.0, 0.0, 0.0, 1.739820360459118E9, 0.0, 2025-02-17 16:26:00.459
226.0, 3266.126306787289, -4119.135930435173, -7626.281097684038, -5181.402585673641, -7001.86276458058, -4760.586292813575, -5219.422902992118, -4870.556875533685, -0.034, 0.9440000000000001, 0.268, 192.0, 0.0, 0.0, 0.0, 0.0, 0.0, 0.0, 0.0, 0.0, 0.0, 1.7398203604591424E9, 0.0, 2025-02-17 16:26:00.459
227.0, 3267.221542265599, -4116.699590289544, -7644.520121159569, -5182.0731380073, -6992.452680164895, -4747.801094985139, -5219.288792525386, -4873.887285457527, -0.034, 0.9440000000000001, 0.268, 192.0, 0.0, 0.0, 0.0, 0.0, 0.0, 0.0, 0.0, 0.0, 0.0, 1.7398203604591672E9, 0.0, 2025-02-17 16:26:00.459
228.0, 3266.863914354314, -4087.642322497645, -7642.195539736216, -5246.557920760861, -6960.914368738458, -4715.234603313756, -5195.417129447118, -4855.156523603979, -0.042, 0.9480000000000001, 0.264, 192.0, 254.0, 176.0, 29.0, 160.0, 8.0, 64.0, 0.0, 0.0, 0.0, 1.739820360459192E9, 0.0, 2025-02-17 16:26:00.459
229.0, 3269.9261033446915, -4092.604409766723, -7627.778664562544, -5246.0438306383885, -6976.113554968066, -4725.739923207751, -5196.355902714241, -4853.547198003197, -0.042, 0.9480000000000001, 0.264, 192.0, 0.0, 0.0, 0.0, 0.0, 0.0, 0.0, 0.0, 0.0, 0.0, 1.739820360459218E9, 0.0, 2025-02-17 16:26:00.459
230.0, 3273.345920246353, -4119.6723723021, -7628.315106429471, -5195.350074213752, -7003.226220992354, -4754.484266577276, -5219.668772181127, -4871.920331945459, -0.042, 0.9480000000000001, 0.264, 192.0, 0.0, 0.0, 0.0, 0.0, 0.0, 0.0, 0.0, 0.0, 0.0, 1.7398203604592426E9, 0.0, 2025-02-17 16:26:00.459
231.0, 3273.100051057345, -4124.05331421534, -7643.380182192348, -5175.859353048725, -6998.845279079113, -4758.351118368044, -5225.591984461783, -4879.072890171157, -0.042, 0.9480000000000001, 0.264, 192.0, 0.0, 0.0, 0.0, 0.0, 0.0, 0.0, 0.0, 0.0, 0.0, 1.7398203604592671E9, 0.0, 2025-02-17 16:26:00.459
232.0, 3268.4732399550967, -4088.961075420508, -7642.776685092054, -5236.499635755973, -6963.3283571396305, -4719.414379526899, -5196.802937603347, -4855.625910237541, -0.042, 0.9480000000000001, 0.264, 192.0, 0.0, 0.0, 0.0, 0.0, 0.0, 0.0, 0.0, 0.0, 0.0, 1.7398203604592917E9, 0.0, 2025-02-17 16:26:00.459
233.0, 3267.6685771547054, -4085.4294997965694, -7624.671772083256, -5245.999127149478, -6962.724860039337, -4718.609716726508, -5191.483222422984, -4848.853331667582, -0.042, 0.9480000000000001, 0.264, 192.0, 0.0, 0.0, 0.0, 0.0, 0.0, 0.0, 0.0, 0.0, 0.0, 1.739820360459329E9, 0.0, 2025-02-17 16:26:00.459
234.0, 3268.6744056551943, -4106.060159928818, -7618.837966780421, -5199.283981237886, -6986.730633584337, -4743.241339116256, -5207.218850519521, -4860.900921928993, -0.042, 0.9480000000000001, 0.264, 192.0, 0.0, 0.0, 0.0, 0.0, 0.0, 0.0, 0.0, 0.0, 0.0, 1.7398203604593542E9, 0.0, 2025-02-17 16:26:00.459
235.0, 3269.4120132222192, -4116.788997267366, -7631.958440775686, -5167.49980062244, -6997.124194756055, -4754.551321810642, -5217.165376802132, -4869.975730177847, -0.042, 0.9480000000000001, 0.264, 192.0, 0.0, 0.0, 0.0, 0.0, 0.0, 0.0, 0.0, 0.0, 0.0, 1.739820360459385E9, 0.0, 2025-02-17 16:26:00.459
236.0, 3267.556818432429, -4088.290523086849, -7638.865129812376, -5224.049714094367, -6962.2107699168655, -4720.442559771844, -5194.567763157816, -4853.077811369635, -0.042, 0.9480000000000001, 0.264, 192.0, 0.0, 0.0, 0.0, 0.0, 0.0, 0.0, 0.0, 0.0, 0.0, 1.7398203604594097E9, 0.0, 2025-02-17 16:26:00.459
237.0, 3264.0922980418563, -4078.1651828485947, -7620.268478425561, -5241.349964302774, -6956.1087436805665, -4712.440635256843, -5184.509478152929, -4842.416029264454, -0.042, 0.9480000000000001, 0.264, 192.0, 0.0, 0.0, 0.0, 0.0, 0.0, 0.0, 0.0, 0.0, 0.0, 1.739820360459436E9, 0.0, 2025-02-17 16:26:00.459
238.0, 3264.4052224642305, -4095.7560057349215, -7612.646533566301, -5199.17222251561, -6978.594598602605, -4729.584423254064, -5197.31702772582, -4851.423782279942, -0.05, 0.9500000000000001, 0.25, 192.0, 254.0, 112.0, 29.0, 176.0, 7.0, 208.0, 0.0, 0.0, 0.0, 1.7398203604594607E9, 0.0, 2025-02-17 16:26:00.459
239.0, 3265.3886992202642, -4112.1621861651165, -7622.79422554901, -5158.156771440122, -6992.162107486976, -4745.945900195348, -5211.800958132859, -4864.723070230851, -0.05, 0.9500000000000001, 0.25, 192.0, 0.0, 0.0, 0.0, 0.0, 0.0, 0.0, 0.0, 0.0, 0.0, 1.7398203604594948E9, 0.0, 2025-02-17 16:26:00.459
240.0, 3264.3381672308647, -4086.6141422527007, -7634.215966965672, -5207.844699364269, -6960.892016994002, -4718.6320684709635, -5192.779623601392, -4850.8202851796495, -0.05, 0.9500000000000001, 0.25, 192.0, 0.0, 0.0, 0.0, 0.0, 0.0, 0.0, 0.0, 0.0, 0.0, 1.73982036045952E9, 0.0, 2025-02-17 16:26:00.459
241.0, 3262.304158485432, -4072.0184531233854, -7618.949725502697, -5240.500598013473, -6949.447923832885, -4708.193803810335, -5180.441460662063, -4837.453941995375, -0.05, 0.9500000000000001, 0.25, 192.0, 0.0, 0.0, 0.0, 0.0, 0.0, 0.0, 0.0, 0.0, 0.0, 1.739820360936578E9, 0.0, 2025-02-17 16:26:00.936
242.0, 3263.220580008099, -4087.1729358640837, -7608.399702119792, -5205.229545262998, -6969.989176987312, -4726.343420308044, -5189.672731122105, -4843.757133931772, -0.05, 0.9500000000000001, 0.25, 192.0, 0.0, 0.0, 0.0, 0.0, 0.0, 0.0, 0.0, 0.0, 0.0, 1.7398203609366388E9, 0.0, 2025-02-17 16:26:00.936
243.0, 3267.802687621437, -4111.268116386905, -7619.553222602991, -5159.654338318627, -6994.330226699141, -4746.482342062276, -5210.616315676727, -4862.420840551954, -0.05, 0.9500000000000001, 0.25, 192.0, 0.0, 0.0, 0.0, 0.0, 0.0, 0.0, 0.0, 0.0, 0.0, 1.7398203609366815E9, 0.0, 2025-02-17 16:26:00.936
244.0, 3268.3167777439094, -4092.4702992999914, -7635.847644310909, -5196.758234114437, -6968.692775808904, -4722.185995839357, -5198.725187626504, -4855.603558493085, -0.05, 0.9500000000000001, 0.25, 192.0, 0.0, 0.0, 0.0, 0.0, 0.0, 0.0, 0.0, 0.0, 0.0, 1.7398203609367087E9, 0.0, 2025-02-17 16:26:00.936
245.0, 3266.3051207429316, -4070.856162411709, -7623.50948137158, -5243.652193981671, -6949.492627321795, -4708.260859043701, -5182.006082773934, -4841.253738552778, -0.05, 0.9500000000000001, 0.25, 192.0, 0.0, 0.0, 0.0, 0.0, 0.0, 0.0, 0.0, 0.0, 0.0, 1.7398203609367335E9, 0.0, 2025-02-17 16:26:00.936
246.0, 3267.9591498326245, -4083.8201741957873, -7611.394835876804, -5217.9253361136125, -6968.6704240644485, -4720.867242916494, -5189.426861933096, -4845.321756043644, -0.05, 0.9500000000000001, 0.25, 192.0, 0.0, 0.0, 0.0, 0.0, 0.0, 0.0, 0.0, 0.0, 0.0, 1.7398203609367585E9, 0.0, 2025-02-17 16:26:00.936
247.0, 3269.8590481113256, -4107.401264596137, -7616.066350467962, -5165.286977921364, -6991.066872008667, -4747.711688007318, -5208.917583098124, -4860.073907384147, -0.05, 0.9500000000000001, 0.25, 192.0, 0.0, 0.0, 0.0, 0.0, 0.0, 0.0, 0.0, 0.0, 0.0, 1.7398203609367826E9, 0.0, 2025-02-17 16:26:00.936
248.0, 3268.4061847217304, -4096.38185457967, -7632.159606475784, -5182.922504296602, -6968.625720575538, -4727.975097653281, -5201.183879516588, -4856.944663160403, -0.042, 0.9460000000000001, 0.25, 192.0, 254.0, 176.0, 29.0, 144.0, 7.0, 208.0, 0.0, 0.0, 0.0, 1.7398203609368067E9, 0.0, 2025-02-17 16:26:00.936
249.0, 3268.4732399550967, -4072.3760810346703, -7627.219870951161, -5241.75229570297, -6949.112647666055, -4705.735111920251, -5182.5872281297725, -4841.812532164161, -0.042, 0.9460000000000001, 0.25, 192.0, 0.0, 0.0, 0.0, 0.0, 0.0, 0.0, 0.0, 0.0, 0.0, 1.7398203609368656E9, 0.0, 2025-02-17 16:26:00.936
250.0, 3269.680234155683, -4080.266246827394, -7612.490071355113, -5226.46370249554, -6963.864799006557, -4717.939164392849, -5185.35884444223, -4842.192511819901, -0.042, 0.9460000000000001, 0.25, 192.0, 0.0, 0.0, 0.0, 0.0, 0.0, 0.0, 0.0, 0.0, 0.0, 1.7398203609368904E9, 0.0, 2025-02-17 16:26:00.936
251.0, 3269.6578824112275, -4101.455700571025, -7611.864222510365, -5171.724280324493, -6989.792822574714, -4741.006164670725, -5202.055597550345, -4855.20122709289, -0.042, 0.9460000000000001, 0.25, 192.0, 0.0, 0.0, 0.0, 0.0, 0.0, 0.0, 0.0, 0.0, 0.0, 1.7398203609369364E9, 0.0, 2025-02-17 16:26:00.936
252.0, 3269.6578824112275, -4099.645209270145, -7628.516272129568, -5171.411355902119, -6977.164086957466, -4734.010068656215, -5202.122652783711, -4857.302291071688, -0.042, 0.9460000000000001, 0.25, 192.0, 0.0, 0.0, 0.0, 0.0, 0.0, 0.0, 0.0, 0.0, 0.0, 1.7398203609369607E9, 0.0, 2025-02-17 16:26:00.936
253.0, 3268.6967573996494, -4073.09133685724, -7628.225699451649, -5234.085647354799, -6948.643261032494, -4707.880879387961, -5182.631931618683, -4842.14780833099, -0.042, 0.9460000000000001, 0.25, 192.0, 0.0, 0.0, 0.0, 0.0, 0.0, 0.0, 0.0, 0.0, 0.0, 1.7398203609369848E9, 0.0, 2025-02-17 16:26:00.936
254.0, 3271.8707051123033, -4079.7298049604665, -7614.367617889359, -5233.0127636209445, -6956.801647758681, -4716.352190536522, -5184.800050830848, -4843.3100990426665, -0.042, 0.9460000000000001, 0.25, 192.0, 0.0, 0.0, 0.0, 0.0, 0.0, 0.0, 0.0, 0.0, 0.0, 1.7398203609370089E9, 0.0, 2025-02-17 16:26:00.937
255.0, 3273.032995823979, -4100.293409859349, -7611.372484132348, -5183.391890930163, -6981.612084104072, -4739.84387395905, -5201.161527772132, -4856.698793971395, -0.042, 0.9460000000000001, 0.25, 192.0, 0.0, 0.0, 0.0, 0.0, 0.0, 0.0, 0.0, 0.0, 0.0, 1.739820360937049E9, 0.0, 2025-02-17 16:26:00.937
0.0, 3274.1058795578338, -4105.724883761988, -7627.443388395714, -5166.963358755513, -6984.2272382053425, -4740.3579640815215, -5207.576478430806, -4862.443192296409, -0.042, 0.9460000000000001, 0.25, 192.0, 0.0, 0.0, 0.0, 0.0, 0.0, 0.0, 0.0, 0.0, 0.0, 1.7398203609370737E9, 0.0, 2025-02-17 16:26:00.937
1.0, 3270.753117889538, -4075.8853049141535, -7630.125597730351, -5226.821330406825, -6951.571339556139, -4710.831309656061, -5184.084795008278, -4842.997174620292, -0.042, 0.9460000000000001, 0.25, 192.0, 0.0, 0.0, 0.0, 0.0, 0.0, 0.0, 0.0, 0.0, 0.0, 1.739820360937098E9, 0.0, 2025-02-17 16:26:00.937
2.0, 3268.6073504218284, -4071.839639167743, -7612.423016121747, -5233.213929321043, -6953.985327957312, -4711.211289311801, -5178.765079827915, -4836.224596050334, -0.024, 0.962, 0.254, 192.0, 255.0, 64.0, 30.0, 16.0, 7.0, 240.0, 0.0, 0.0, 0.0, 1.7398203609371228E9, 0.0, 2025-02-17 16:26:00.937
3.0, 3271.714242901116, -4093.677293500578, -7609.182013175728, -5189.270399721909, -6979.868648036558, -4730.612603499008, -5194.925391069101, -4848.138075845012, -0.024, 0.962, 0.254, 192.0, 0.0, 0.0, 0.0, 0.0, 0.0, 0.0, 0.0, 0.0, 0.0, 1.7398203609371488E9, 0.0, 2025-02-17 16:26:00.937
4.0, 3273.994120835557, -4106.663657029111, -7622.883632526831, -5160.391945885653, -6987.423537662451, -4741.386144326466, -5207.934106342091, -4859.96214866187, -0.024, 0.962, 0.254, 192.0, 0.0, 0.0, 0.0, 0.0, 0.0, 0.0, 0.0, 0.0, 0.0, 1.7398203609371731E9, 0.0, 2025-02-17 16:26:00.937
5.0, 3271.7589463900267, -4078.3663485486927, -7631.153777975295, -5216.740693657482, -6955.326432624631, -4712.731207934762, -5187.6387223766715, -4845.679383954929, -0.024, 0.962, 0.254, 192.0, 0.0, 0.0, 0.0, 0.0, 0.0, 0.0, 0.0, 0.0, 0.0, 1.739820360937197E9, 0.0, 2025-02-17 16:26:00.937
6.0, 3272.1612777902224, -4071.839639167743, -7616.98277199063, -5239.226548579521, -6951.2360633893095, -4710.451330000321, -5181.1790682290875, -4838.839750151605, -0.024, 0.962, 0.254, 192.0, 0.0, 0.0, 0.0, 0.0, 0.0, 0.0, 0.0, 0.0, 0.0, 1.7398203609372213E9, 0.0, 2025-02-17 16:26:00.937
7.0, 3275.64814992525, -4092.582058022268, -7611.394835876804, -5202.010894061434, -6975.398299145496, -4729.249147087235, -5196.311199225331, -4849.657994467973, -0.024, 0.962, 0.254, 192.0, 0.0, 0.0, 0.0, 0.0, 0.0, 0.0, 0.0, 0.0, 0.0, 1.7398203609372456E9, 0.0, 2025-02-17 16:26:00.937
8.0, 3278.3750627487975, -4110.731674519977, -7622.637763337822, -5162.02362323089, -6993.279694709742, -4749.119847908002, -5212.851490122258, -4864.454849297386, -0.024, 0.962, 0.254, 192.0, 0.0, 0.0, 0.0, 0.0, 0.0, 0.0, 0.0, 0.0, 0.0, 1.7398203609372752E9, 0.0, 2025-02-17 16:26:00.937
9.0, 3274.2399900245655, -4083.9542846625195, -7632.1372547313285, -5205.788338874381, -6959.685022793416, -4722.878899917472, -5192.846678834758, -4849.367421790054, -0.024, 0.962, 0.254, 192.0, 0.0, 0.0, 0.0, 0.0, 0.0, 0.0, 0.0, 0.0, 0.0, 1.7398203609372988E9, 0.0, 2025-02-17 16:26:00.937
10.0, 3270.686062656172, -4066.586979220746, -7617.832138279932, -5240.098266613277, -6950.2972901221865, -4705.4892427312425, -5178.943893783557, -4836.314003028155, -0.024, 0.962, 0.254, 192.0, 0.0, 0.0, 0.0, 0.0, 0.0, 0.0, 0.0, 0.0, 0.0, 1.7398203609373283E9, 0.0, 2025-02-17 16:26:00.937
11.0, 3273.8600103688254, -4084.133098618162, -7608.846737008898, -5209.297562753864, -6969.4303833759295, -4724.085894118059, -5190.253876477942, -4845.120590343546, -0.024, 0.962, 0.254, 192.0, 0.0, 0.0, 0.0, 0.0, 0.0, 0.0, 0.0, 0.0, 0.0, 1.739820360937352E9, 0.0, 2025-02-17 16:26:00.937
12.0, 3277.5703999484062, -4109.055293685829, -7618.0556557244845, -5161.442477875052, -6993.6149708765715, -4745.588272284063, -5211.8233098773135, -4863.873703941548, -0.014, 0.9520000000000001, 0.258, 192.0, 255.0, 144.0, 29.0, 192.0, 8.0, 16.0, 0.0, 0.0, 0.0, 1.7398203609373765E9, 0.0, 2025-02-17 16:26:00.937
13.0, 3275.357577247331, -4090.5033457879244, -7632.807807064987, -5191.438518934074, -6966.547008341195, -4723.482397017765, -5199.261629493431, -4855.4023927929875, -0.014, 0.9520000000000001, 0.258, 192.0, 0.0, 0.0, 0.0, 0.0, 0.0, 0.0, 0.0, 0.0, 0.0, 1.7398203609374027E9, 0.0, 2025-02-17 16:26:00.937
14.0, 3271.803649878937, -4065.357633275704, -7622.07896972644, -5241.059391624855, -6948.106819165567, -4704.259896786201, -5179.50268739494, -4838.035087351213, -0.014, 0.9520000000000001, 0.258, 192.0, 0.0, 0.0, 0.0, 0.0, 0.0, 0.0, 0.0, 0.0, 0.0, 1.739820360937433E9, 0.0, 2025-02-17 16:26:00.937
15.0, 3275.7822603919817, -4080.065081127296, -7611.059559709974, -5221.188690804087, -6967.865761264058, -4718.922641148883, -5187.102280509745, -4842.080753097624, -0.014, 0.9520000000000001, 0.258, 192.0, 0.0, 0.0, 0.0, 0.0, 0.0, 0.0, 0.0, 0.0, 0.0, 1.7398203609374907E9, 0.0, 2025-02-17 16:26:00.937
16.0, 3278.196248793155, -4106.57425005129, -7614.5911353339125, -5167.2092279445205, -6989.301084196697, -4745.990603684259, -5208.783472631392, -4859.448058539398, -0.014, 0.9520000000000001, 0.258, 192.0, 0.0, 0.0, 0.0, 0.0, 0.0, 0.0, 0.0, 0.0, 0.0, 1.7398203609375207E9, 0.0, 2025-02-17 16:26:00.937
