%OpenBCI Raw EXG Data
%Number of channels = 8
%Sample Rate = 250 Hz
%Board = OpenBCI_GUI$BoardCytonSerial
Sample Index, EXG Channel 0, EXG Channel 1, EXG Channel 2, EXG Channel 3, EXG Channel 4, EXG Channel 5, EXG Channel 6, EXG Channel 7, Accel Channel 0, Accel Channel 1, Accel Channel 2, Not Used, Digital Channel 0 (D11), Digital Channel 1 (D12), Digital Channel 2 (D13), Digital Channel 3 (D17), Not Used, Digital Channel 4 (D18), Analog Channel 0, Analog Channel 1, Analog Channel 2, Timestamp, Marker Channel, Timestamp (Formatted)
163.0, 3235.6608790947057, -3827.0209821487647, -7395.052301293887, -5080.015072824368, -6713.167633195834, -4464.872713669863, -4938.170902510989, -4610.248459607179, 0.0, 0.0, 0.0, 192.0, 0.0, 0.0, 0.0, 0.0, 0.0, 0.0, 0.0, 0.0, 0.0, 1.7398204250038812E9, 0.0, 2025-02-17 16:27:05.003
164.0, 3233.8280360493704, -3868.7963925357335, -7392.615961148258, -5003.192127131478, -6765.694232665805, -4512.75015029313, -4971.4526500049415, -4631.929651728828, 0.0, 0.0, 0.0, 192.0, 0.0, 0.0, 0.0, 0.0, 0.0, 0.0, 0.0, 0.0, 0.0, 1.7398204250039396E9, 0.0, 2025-02-17 16:27:05.003
165.0, 3233.358649415809, -3898.8594888281214, -7421.963801618076, -4938.774399611282, -6793.879782423947, -4542.746191352152, -5002.812147475737, -4661.411602665377, 0.0, 0.0, 0.0, 192.0, 0.0, 0.0, 0.0, 0.0, 0.0, 0.0, 0.0, 0.0, 0.0, 1.739820425003981E9, 0.0, 2025-02-17 16:27:05.003
166.0, 3231.7940273039376, -3839.6050142771023, -7425.607135964291, -5032.115284456645, -6717.861499531448, -4473.992225407627, -4954.532379452274, -4630.208567405769, 0.0, 0.0, 0.0, 192.0, 0.0, 0.0, 0.0, 0.0, 0.0, 0.0, 0.0, 0.0, 0.0, 1.7398204250040426E9, 0.0, 2025-02-17 16:27:05.004
167.0, 3232.1516552152225, -3820.2260518343514, -7394.0017693044865, -5081.780860636337, -6703.154051679856, -4456.1331815878375, -4930.839530329648, -4604.727578726719, 0.0, 0.0, 0.0, 192.0, 0.0, 0.0, 0.0, 0.0, 0.0, 0.0, 0.0, 0.0, 0.0, 1.7398204250040843E9, 0.0, 2025-02-17 16:27:05.004
168.0, 3232.4198761486864, -3858.4028313640156, -7388.682054124124, -5019.039513950291, -6751.8361511035155, -4499.897897231329, -4960.187370799466, -4622.5419190575985, 0.0, 0.0, 0.0, 192.0, 0.0, 0.0, 0.0, 0.0, 0.0, 0.0, 0.0, 0.0, 0.0, 1.7398204250041373E9, 0.0, 2025-02-17 16:27:05.004
169.0, 3230.9223092701804, -3898.6359713835686, -7413.537193958426, -4936.293355976743, -6794.192706846322, -4541.963880296216, -4999.191164873978, -4655.44368689581, 0.0, 0.0, 0.0, 192.0, 0.0, 0.0, 0.0, 0.0, 0.0, 0.0, 0.0, 0.0, 0.0, 1.739820425004178E9, 0.0, 2025-02-17 16:27:05.004
170.0, 3233.0457249934348, -3851.5408458162365, -7429.675153455157, -5012.289287124788, -6731.004325271168, -4485.726891246663, -4964.7024231794385, -4637.025849464637, 0.0, 0.0, 0.0, 192.0, 0.0, 0.0, 0.0, 0.0, 0.0, 0.0, 0.0, 0.0, 0.0, 1.7398204250042188E9, 0.0, 2025-02-17 16:27:05.004
171.0, 3233.3810011602645, -3818.0579326221864, -7399.008560062476, -5083.77016589286, -6699.868345244926, -4452.35573677489, -4930.146626251534, -4604.839337448995, -0.012, 0.892, 0.434, 192.0, 255.0, 160.0, 27.0, 224.0, 13.0, 144.0, 0.0, 0.0, 0.0, 1.7398204250042825E9, 0.0, 2025-02-17 16:27:05.004
172.0, 3232.1516552152225, -3847.875159725566, -7386.759804100968, -5033.545796101785, -6740.704982364772, -4489.3031703595125, -4951.69370790645, -4616.171671887836, -0.012, 0.892, 0.434, 192.0, 0.0, 0.0, 0.0, 0.0, 0.0, 0.0, 0.0, 0.0, 0.0, 1.7398204250043292E9, 0.0, 2025-02-17 16:27:05.004
173.0, 3231.682268581661, -3896.646666127046, -7408.776272389445, -4942.2165682574, -6795.556163258096, -4542.522673907599, -4997.201859617456, -4653.141457216913, -0.012, 0.892, 0.434, 192.0, 0.0, 0.0, 0.0, 0.0, 0.0, 0.0, 0.0, 0.0, 0.0, 1.739820425004385E9, 0.0, 2025-02-17 16:27:05.004
174.0, 3230.095294725334, -3860.392136620538, -7429.205766821596, -4986.94240891247, -6742.806046343571, -4497.416853596789, -4972.570237227707, -4642.256157667179, -0.012, 0.892, 0.434, 192.0, 0.0, 0.0, 0.0, 0.0, 0.0, 0.0, 0.0, 0.0, 0.0, 1.739820425004438E9, 0.0, 2025-02-17 16:27:05.004
175.0, 3231.8163790483927, -3815.5992407321028, -7402.718949642057, -5078.852782112692, -6696.023845198613, -4450.16526581827, -4929.878405318071, -4605.979276416216, -0.012, 0.892, 0.434, 192.0, 0.0, 0.0, 0.0, 0.0, 0.0, 0.0, 0.0, 0.0, 0.0, 1.7398204250044808E9, 0.0, 2025-02-17 16:27:05.004
176.0, 3232.933966271158, -3839.8955869550214, -7386.580990145325, -5047.783857319815, -6731.160787482356, -4480.876562699862, -4946.016364814802, -4612.4389305638, -0.012, 0.892, 0.434, 192.0, 0.0, 0.0, 0.0, 0.0, 0.0, 0.0, 0.0, 0.0, 0.0, 1.7398204250045235E9, 0.0, 2025-02-17 16:27:05.004
177.0, 3231.5258063704737, -3890.6116951241133, -7402.137804286219, -4952.543074195752, -6790.258799822188, -4536.934737793772, -4991.792737459271, -4647.240596680713, -0.012, 0.892, 0.434, 192.0, 0.0, 0.0, 0.0, 0.0, 0.0, 0.0, 0.0, 0.0, 0.0, 1.7398204250045812E9, 0.0, 2025-02-17 16:27:05.004
178.0, 3230.2070534476106, -3871.836229781655, -7428.870490654766, -4966.64702494705, -6757.737011639716, -4510.693789803242, -4983.254371077343, -4648.559349603575, -0.012, 0.892, 0.434, 192.0, 0.0, 0.0, 0.0, 0.0, 0.0, 0.0, 0.0, 0.0, 0.0, 1.7398204250046458E9, 0.0, 2025-02-17 16:27:05.004
179.0, 3230.1847017031555, -3815.3533715430945, -7406.451690966093, -5069.755622119382, -6695.062720187035, -4449.606472206888, -4931.621841385584, -4607.566250272543, -0.012, 0.892, 0.434, 192.0, 0.0, 0.0, 0.0, 0.0, 0.0, 0.0, 0.0, 0.0, 0.0, 1.7398204250048E9, 0.0, 2025-02-17 16:27:05.004
180.0, 3232.4422278931415, -3831.781903717745, -7385.753975600479, -5058.445639424996, -6721.258964688655, -4471.108850372893, -4939.780228111771, -4607.275677594624, -0.012, 0.892, 0.434, 192.0, 0.0, 0.0, 0.0, 0.0, 0.0, 0.0, 0.0, 0.0, 0.0, 1.7398204250048494E9, 0.0, 2025-02-17 16:27:05.004
181.0, 3232.4422278931415, -3883.0791572426747, -7396.974551317043, -4967.8093156587265, -6783.173296829856, -4529.178682467781, -4985.266028078321, -4641.540901844609, -0.026000000000000002, 0.896, 0.41200000000000003, 192.0, 255.0, 48.0, 28.0, 0.0, 12.0, 224.0, 0.0, 0.0, 0.0, 1.7398204250048935E9, 0.0, 2025-02-17 16:27:05.004
182.0, 3232.1516552152225, -3884.040282254253, -7427.998772621009, -4951.827818373182, -6772.958549613781, -4525.758865566118, -4993.200897359955, -4656.270701440657, -0.026000000000000002, 0.896, 0.41200000000000003, 192.0, 0.0, 0.0, 0.0, 0.0, 0.0, 0.0, 0.0, 0.0, 0.0, 1.739820425004936E9, 0.0, 2025-02-17 16:27:05.004
183.0, 3230.6317365922614, -3819.6449064785133, -7411.7267026575455, -5058.8479708251925, -6697.94609522177, -4454.9038356427955, -4936.5839286546625, -4614.696456753785, -0.026000000000000002, 0.896, 0.41200000000000003, 192.0, 0.0, 0.0, 0.0, 0.0, 0.0, 0.0, 0.0, 0.0, 0.0, 1.73982042500498E9, 0.0, 2025-02-17 16:27:05.004
184.0, 3231.4811028815634, -3823.914089669477, -7384.703443611079, -5066.782840106826, -6711.267734917133, -4463.173981091259, -4932.672373374984, -4604.682875237808, -0.026000000000000002, 0.896, 0.41200000000000003, 192.0, 0.0, 0.0, 0.0, 0.0, 0.0, 0.0, 0.0, 0.0, 0.0, 1.7398204250050228E9, 0.0, 2025-02-17 16:27:05.005
185.0, 3232.263413937499, -3874.0490524827305, -7391.6548361366795, -4984.193144344466, -6771.885665879926, -4518.583955595966, -4974.626597717595, -4632.711962784763, -0.026000000000000002, 0.896, 0.41200000000000003, 192.0, 0.0, 0.0, 0.0, 0.0, 0.0, 0.0, 0.0, 0.0, 0.0, 1.7398204250050697E9, 0.0, 2025-02-17 16:27:05.005
186.0, 3231.235233692555, -3892.355131191627, -7422.924926629655, -4938.707344377916, -6783.754442185694, -4533.917252292305, -4996.531307283796, -4653.722602572751, -0.026000000000000002, 0.896, 0.41200000000000003, 192.0, 0.0, 0.0, 0.0, 0.0, 0.0, 0.0, 0.0, 0.0, 0.0, 1.739820425005113E9, 0.0, 2025-02-17 16:27:05.005
187.0, 3230.5199778699853, -3827.4233135489603, -7417.113473071275, -5041.927700272525, -6704.450452858264, -4460.961158390183, -4942.238920001855, -4615.344657342989, -0.026000000000000002, 0.896, 0.41200000000000003, 192.0, 0.0, 0.0, 0.0, 0.0, 0.0, 0.0, 0.0, 0.0, 0.0, 1.7398204250051665E9, 0.0, 2025-02-17 16:27:05.005
188.0, 3230.6987918256277, -3818.6167262335694, -7386.156307000674, -5071.499058186896, -6702.729368535205, -4455.0826495984375, -4926.6597541165065, -4595.876287922417, -0.026000000000000002, 0.896, 0.41200000000000003, 192.0, 0.0, 0.0, 0.0, 0.0, 0.0, 0.0, 0.0, 0.0, 0.0, 1.73982042500521E9, 0.0, 2025-02-17 16:27:05.005
189.0, 3232.911614526703, -3865.7342035453566, -7389.196144246596, -5000.8004904747595, -6760.553331441085, -4508.2574496576135, -4965.4623824909195, -4622.318401613045, -0.026000000000000002, 0.896, 0.41200000000000003, 192.0, 0.0, 0.0, 0.0, 0.0, 0.0, 0.0, 0.0, 0.0, 0.0, 1.739820425005329E9, 0.0, 2025-02-17 16:27:05.005
190.0, 3232.2187104485884, -3898.9935992948535, -7419.080426583341, -4933.231166986367, -6792.493974267719, -4541.874473318395, -5000.3311038411985, -4654.504913628687, -0.026000000000000002, 0.896, 0.41200000000000003, 192.0, 0.0, 0.0, 0.0, 0.0, 0.0, 0.0, 0.0, 0.0, 0.0, 1.7398204250053916E9, 0.0, 2025-02-17 16:27:05.005
191.0, 3233.3810011602645, -3840.588491033136, -7425.13774933073, -5025.029781464313, -6718.397941398375, -4473.992225407627, -4954.59943468564, -4626.29701212609, -0.006, 0.9400000000000001, 0.42, 192.0, 255.0, 208.0, 29.0, 96.0, 13.0, 32.0, 0.0, 0.0, 0.0, 1.7398204250054357E9, 0.0, 2025-02-17 16:27:05.005
192.0, 3233.3810011602645, -3817.432083777438, -7392.437147192615, -5077.802250123293, -6700.3600836229425, -4452.713364686175, -4927.442065172442, -4598.223221090224, -0.006, 0.9400000000000001, 0.42, 192.0, 0.0, 0.0, 0.0, 0.0, 0.0, 0.0, 0.0, 0.0, 0.0, 1.7398204250054924E9, 0.0, 2025-02-17 16:27:05.005
193.0, 3232.7998558044264, -3855.519456329281, -7386.849211078788, -5017.206670904955, -6749.2433487467, -4496.992170452138, -4956.588739942163, -4615.836395721006, -0.006, 0.9400000000000001, 0.42, 192.0, 0.0, 0.0, 0.0, 0.0, 0.0, 0.0, 0.0, 0.0, 0.0, 1.7398204250055356E9, 0.0, 2025-02-17 16:27:05.005
194.0, 3232.4869313820523, -3900.781738851278, -7414.431263736637, -4934.684030375962, -6797.433709792342, -4544.489627419666, -5000.129938141101, -4652.850884538994, -0.006, 0.9400000000000001, 0.42, 192.0, 0.0, 0.0, 0.0, 0.0, 0.0, 0.0, 0.0, 0.0, 0.0, 1.7398204250055895E9, 0.0, 2025-02-17 16:27:05.005
195.0, 3235.817341305893, -3854.983014462354, -7432.513825000981, -5007.416606833531, -6735.273508462133, -4490.17488839327, -4968.166943570011, -4637.4505326092885, -0.006, 0.9400000000000001, 0.42, 192.0, 0.0, 0.0, 0.0, 0.0, 0.0, 0.0, 0.0, 0.0, 0.0, 1.7398204250056603E9, 0.0, 2025-02-17 16:27:05.005
196.0, 3238.454847151619, -3819.4437407784158, -7402.9201153421545, -5084.664235671072, -6702.304685390554, -4454.635614709332, -4932.828835586171, -4605.375779315922, -0.006, 0.9400000000000001, 0.42, 192.0, 0.0, 0.0, 0.0, 0.0, 0.0, 0.0, 0.0, 0.0, 0.0, 1.7398204250057037E9, 0.0, 2025-02-17 16:27:05.005
197.0, 3238.54425412944, -3850.33385161565, -7391.856001836777, -5039.469008382441, -6744.437723688809, -4492.722987261175, -4955.69467016395, -4617.736293999707, -0.006, 0.9400000000000001, 0.42, 192.0, 0.0, 0.0, 0.0, 0.0, 0.0, 0.0, 0.0, 0.0, 0.0, 1.7398204250057473E9, 0.0, 2025-02-17 16:27:05.005
198.0, 3236.3984866617307, -3900.871145829099, -7412.6654759246685, -4946.485751448364, -6800.652360993906, -4546.188359998269, -5001.493394552875, -4654.437858395321, -0.006, 0.9400000000000001, 0.42, 192.0, 0.0, 0.0, 0.0, 0.0, 0.0, 0.0, 0.0, 0.0, 0.0, 1.73982042500579E9, 0.0, 2025-02-17 16:27:05.005
199.0, 3234.1633122162, -3867.0976599571304, -7433.452598268104, -4986.093042623168, -6749.153941768878, -4502.22247865468, -4978.180525085989, -4645.184236190825, -0.006, 0.9400000000000001, 0.42, 192.0, 0.0, 0.0, 0.0, 0.0, 0.0, 0.0, 0.0, 0.0, 0.0, 1.7398204250058353E9, 0.0, 2025-02-17 16:27:05.005
200.0, 3233.5151116269963, -3816.13568259903, -7404.283571753928, -5078.226933267943, -6696.202659154255, -4449.0923820844155, -4929.967812295891, -4604.504061282166, -0.006, 0.9400000000000001, 0.42, 192.0, 0.0, 0.0, 0.0, 0.0, 0.0, 0.0, 0.0, 0.0, 0.0, 1.7398204250058787E9, 0.0, 2025-02-17 16:27:05.005
201.0, 3232.196358704133, -3836.2075491198957, -7384.770498844445, -5047.672098597539, -6727.76332232515, -4475.847420197418, -4942.305975235221, -4607.298029339079, 0.018000000000000002, 0.904, 0.432, 192.0, 0.0, 144.0, 28.0, 64.0, 13.0, 128.0, 0.0, 0.0, 0.0, 1.7398204250059195E9, 0.0, 2025-02-17 16:27:05.005
202.0, 3234.0292017494685, -3890.9693230353982, -7403.367150231261, -4956.253463775332, -6791.957532400791, -4536.688868604764, -4991.8150892037265, -4645.9665472467605, 0.018000000000000002, 0.904, 0.432, 192.0, 0.0, 0.0, 0.0, 0.0, 0.0, 0.0, 0.0, 0.0, 0.0, 1.7398204250059807E9, 0.0, 2025-02-17 16:27:05.005
203.0, 3234.4315331496637, -3877.1559449620186, -7432.871452912266, -4967.250522047344, -6763.9284448538365, -4516.505243361622, -4987.7694234573155, -4652.2473874387015, 0.018000000000000002, 0.904, 0.432, 192.0, 0.0, 0.0, 0.0, 0.0, 0.0, 0.0, 0.0, 0.0, 0.0, 1.7398204250060256E9, 0.0, 2025-02-17 16:27:05.006
204.0, 3233.8056843049153, -3817.9238221554547, -7411.212612535073, -5072.259017498376, -6698.393130110876, -4451.774591419053, -4934.616975142596, -4610.382570073912, 0.018000000000000002, 0.904, 0.432, 192.0, 0.0, 0.0, 0.0, 0.0, 0.0, 0.0, 0.0, 0.0, 0.0, 1.7398204250060787E9, 0.0, 2025-02-17 16:27:05.006
205.0, 3233.649222093728, -3830.4407990504264, -7387.31859771235, -5062.111325515667, -6720.543708866086, -4469.544228261021, -4938.841454844649, -4606.068683394037, 0.018000000000000002, 0.904, 0.432, 192.0, 0.0, 0.0, 0.0, 0.0, 0.0, 0.0, 0.0, 0.0, 0.0, 1.7398204250061295E9, 0.0, 2025-02-17 16:27:05.006
206.0, 3231.458751137108, -3879.5028781298256, -7395.432280949626, -4969.776269170794, -6779.976997372747, -4525.356534165923, -4981.287417565277, -4637.137608186914, 0.018000000000000002, 0.904, 0.432, 192.0, 0.0, 0.0, 0.0, 0.0, 0.0, 0.0, 0.0, 0.0, 0.0, 1.7398204250062072E9, 0.0, 2025-02-17 16:27:05.006
207.0, 3230.8999575257253, -3883.2803229427727, -7426.300040042405, -4948.005670071325, -6774.120840325456, -4524.976554510183, -4992.195068859466, -4654.259044439679, 0.018000000000000002, 0.904, 0.432, 192.0, 0.0, 0.0, 0.0, 0.0, 0.0, 0.0, 0.0, 0.0, 0.0, 1.7398204250062516E9, 0.0, 2025-02-17 16:27:05.006
208.0, 3232.3751726597757, -3821.164825101474, -7415.32533351485, -5058.959729547469, -6700.807118512049, -4456.4237542657565, -4938.997917055835, -4616.730465499219, 0.018000000000000002, 0.904, 0.432, 192.0, 0.0, 0.0, 0.0, 0.0, 0.0, 0.0, 0.0, 0.0, 0.0, 1.739820425006323E9, 0.0, 2025-02-17 16:27:05.006
209.0, 3232.8892627822474, -3822.595336746614, -7387.385652945716, -5070.6496918975945, -6711.021865728124, -4461.877579912851, -4932.962946052903, -4604.146433370881, 0.018000000000000002, 0.904, 0.432, 192.0, 0.0, 0.0, 0.0, 0.0, 0.0, 0.0, 0.0, 0.0, 0.0, 1.7398204250063672E9, 0.0, 2025-02-17 16:27:05.006
210.0, 3233.850387793826, -3870.897456514532, -7392.459498937071, -4989.266990335821, -6770.566912957062, -4516.080560216971, -4974.067804106213, -4631.639079050909, 0.018000000000000002, 0.904, 0.432, 192.0, 0.0, 0.0, 0.0, 0.0, 0.0, 0.0, 0.0, 0.0, 0.0, 1.7398204250064192E9, 0.0, 2025-02-17 16:27:05.006
211.0, 3233.7609808160046, -3892.8021660807335, -7424.064865596875, -4939.936690322958, -6786.861334664981, -4535.772447082097, -4999.057054407246, -4656.583625863031, 0.008, 0.88, 0.436, 192.0, 0.0, 64.0, 27.0, 128.0, 13.0, 160.0, 0.0, 0.0, 0.0, 1.7398204250064726E9, 0.0, 2025-02-17 16:27:05.006
212.0, 3231.25758543701, -3827.7138862268794, -7419.192185305618, -5041.704182827972, -6707.04325521508, -4462.212856079681, -4944.7423153808495, -4619.2562126226685, 0.008, 0.88, 0.436, 192.0, 0.0, 0.0, 0.0, 0.0, 0.0, 0.0, 0.0, 0.0, 0.0, 1.7398204250065205E9, 0.0, 2025-02-17 16:27:05.006
213.0, 3230.229405192066, -3815.196909331907, -7386.201010489584, -5074.71770938846, -6701.142394678878, -4452.713364686175, -4926.011553527303, -4597.329151312012, 0.008, 0.88, 0.436, 192.0, 0.0, 0.0, 0.0, 0.0, 0.0, 0.0, 0.0, 0.0, 0.0, 1.739820425006564E9, 0.0, 2025-02-17 16:27:05.006
214.0, 3230.005887747513, -3857.5981685636248, -7384.2564087219735, -5002.901554453559, -6754.3618982269645, -4500.903725731817, -4959.896798121548, -4618.9656399447495, 0.008, 0.88, 0.436, 192.0, 0.0, 0.0, 0.0, 0.0, 0.0, 0.0, 0.0, 0.0, 0.0, 1.7398204250066156E9, 0.0, 2025-02-17 16:27:05.006
215.0, 3231.2799371814654, -3894.9255818039874, -7415.168871303663, -4933.007649541813, -6790.616427733473, -4538.856987816928, -4997.581839273195, -4653.007346750182, 0.008, 0.88, 0.436, 192.0, 0.0, 0.0, 0.0, 0.0, 0.0, 0.0, 0.0, 0.0, 0.0, 1.7398204250067668E9, 0.0, 2025-02-17 16:27:05.006
216.0, 3230.743495314538, -3838.0850956541417, -7422.366133018271, -5021.22998490691, -6716.498043119675, -4472.382899806846, -4952.341908495654, -4624.888852225406, 0.008, 0.88, 0.436, 192.0, 0.0, 0.0, 0.0, 0.0, 0.0, 0.0, 0.0, 0.0, 0.0, 1.7398204250069025E9, 0.0, 2025-02-17 16:27:05.006
217.0, 3230.6987918256277, -3813.0287901197426, -7389.754937857979, -5078.450450712497, -6695.4874033316855, -4448.287719284024, -4923.5528616372185, -4596.010398389149, 0.008, 0.88, 0.436, 192.0, 0.0, 0.0, 0.0, 0.0, 0.0, 0.0, 0.0, 0.0, 0.0, 1.739820425006947E9, 0.0, 2025-02-17 16:27:05.006
218.0, 3231.6375650927503, -3850.1550376600076, -7383.585856388314, -5021.028819206813, -6743.901281821881, -4491.538344805043, -4951.850170117637, -4613.109482897458, 0.008, 0.88, 0.436, 192.0, 0.0, 0.0, 0.0, 0.0, 0.0, 0.0, 0.0, 0.0, 0.0, 1.7398204250070057E9, 0.0, 2025-02-17 16:27:05.007
219.0, 3231.749323815027, -3895.7749480932894, -7409.647990423202, -4935.533396665263, -6793.410395790386, -4541.181569240281, -4995.592534016673, -4650.012212993171, 0.008, 0.88, 0.436, 192.0, 0.0, 0.0, 0.0, 0.0, 0.0, 0.0, 0.0, 0.0, 0.0, 1.7398204250070508E9, 0.0, 2025-02-17 16:27:05.007
220.0, 3232.039896492946, -3851.138514416041, -7427.1047028427965, -5001.068711408224, -6731.47371190473, -4486.106870902404, -4963.674242934495, -4634.500102341188, 0.008, 0.88, 0.436, 192.0, 0.0, 0.0, 0.0, 0.0, 0.0, 0.0, 0.0, 0.0, 0.0, 1.7398204250072434E9, 0.0, 2025-02-17 16:27:05.007
221.0, 3231.995193004035, -3812.4252930194493, -7395.924019327644, -5079.81390712427, -6693.296932375066, -4446.253710538592, -4924.066951759691, -4598.826718190518, -0.01, 0.898, 0.438, 192.0, 255.0, 176.0, 28.0, 16.0, 13.0, 176.0, 0.0, 0.0, 0.0, 1.7398204250073097E9, 0.0, 2025-02-17 16:27:05.007
222.0, 3232.5316348709625, -3842.6001480341138, -7383.295283710395, -5036.85385428117, -6733.9324037948145, -4482.619998767376, -4945.010536314313, -4609.175575873324, -0.01, 0.898, 0.438, 192.0, 0.0, 0.0, 0.0, 0.0, 0.0, 0.0, 0.0, 0.0, 0.0, 1.7398204250073588E9, 0.0, 2025-02-17 16:27:05.007
223.0, 3230.967012759091, -3892.489241658359, -7403.009522319976, -4942.127161279579, -6791.286980067132, -4537.068848260504, -4991.010426403335, -4645.407753635377, -0.01, 0.898, 0.438, 192.0, 0.0, 0.0, 0.0, 0.0, 0.0, 0.0, 0.0, 0.0, 0.0, 1.739820425007403E9, 0.0, 2025-02-17 16:27:05.007
224.0, 3230.341163914343, -3861.8673517545885, -7426.791778420423, -4977.912304152525, -6744.951813811281, -4499.406158853311, -4972.704347694439, -4640.222148921746, -0.01, 0.898, 0.438, 192.0, 0.0, 0.0, 0.0, 0.0, 0.0, 0.0, 0.0, 0.0, 0.0, 1.7398204250074568E9, 0.0, 2025-02-17 16:27:05.007
225.0, 3232.263413937499, -3812.1123685970747, -7401.601362419291, -5075.902351844591, -6692.402862596854, -4446.253710538592, -4926.458588416408, -4602.358293814456, -0.01, 0.898, 0.438, 192.0, 0.0, 0.0, 0.0, 0.0, 0.0, 0.0, 0.0, 0.0, 0.0, 1.7398204250077085E9, 0.0, 2025-02-17 16:27:05.007
226.0, 3232.598690104329, -3833.011249662787, -7382.915304054654, -5050.197845720988, -6723.181214711812, -4472.829934695952, -4939.042620544747, -4605.15226187137, -0.01, 0.898, 0.438, 192.0, 0.0, 0.0, 0.0, 0.0, 0.0, 0.0, 0.0, 0.0, 0.0, 1.739820425007897E9, 0.0, 2025-02-17 16:27:05.007
227.0, 3232.4198761486864, -3886.0966427441413, -7398.56152517337, -4956.097001564146, -6785.743747442216, -4532.106760991426, -4986.696539723461, -4641.227977422235, -0.01, 0.898, 0.438, 192.0, 0.0, 0.0, 0.0, 0.0, 0.0, 0.0, 0.0, 0.0, 0.0, 1.7398204250079644E9, 0.0, 2025-02-17 16:27:05.007
228.0, 3231.1905302036444, -3873.713776315901, -7427.082351098341, -4959.5391702102625, -6761.201532030289, -4514.2477171716355, -4983.634350733084, -4647.933500758827, -0.01, 0.898, 0.438, 192.0, 0.0, 0.0, 0.0, 0.0, 0.0, 0.0, 0.0, 0.0, 0.0, 1.7398204250080214E9, 0.0, 2025-02-17 16:27:05.008
229.0, 3230.6093848478063, -3812.6711622084576, -7406.474042710548, -5065.978177306435, -6692.9616562082365, -4447.997146606105, -4929.252556473321, -4606.068683394037, -0.01, 0.898, 0.438, 192.0, 0.0, 0.0, 0.0, 0.0, 0.0, 0.0, 0.0, 0.0, 0.0, 1.7398204250080776E9, 0.0, 2025-02-17 16:27:05.008
230.0, 3230.341163914343, -3823.0870751246307, -7381.484792409515, -5059.250302225388, -6712.362970395443, -4463.844533424918, -4931.286565218755, -4599.676084479819, -0.01, 0.898, 0.438, 192.0, 0.0, 0.0, 0.0, 0.0, 0.0, 0.0, 0.0, 0.0, 0.0, 1.7398204250081344E9, 0.0, 2025-02-17 16:27:05.008
231.0, 3229.5141493694964, -3874.3396251606496, -7390.447841936093, -4968.770440670305, -6774.299654281099, -4521.064999230504, -4975.230094817888, -4631.259099395168, -0.006, 0.89, 0.45, 192.0, 255.0, 208.0, 27.0, 208.0, 14.0, 16.0, 0.0, 0.0, 0.0, 1.7398204250081897E9, 0.0, 2025-02-17 16:27:05.008
232.0, 3228.3518586578202, -3881.1345554750633, -7421.807339406889, -4941.210739756911, -6772.064479835568, -4524.03778124306, -4988.261161835332, -4648.82757053704, -0.006, 0.89, 0.45, 192.0, 0.0, 0.0, 0.0, 0.0, 0.0, 0.0, 0.0, 0.0, 0.0, 1.7398204250082672E9, 0.0, 2025-02-17 16:27:05.008
233.0, 3229.5812046028623, -3817.6108977330805, -7411.883164868733, -5051.851874810681, -6696.694397532273, -4452.467495497167, -4933.991126297847, -4610.6284392629195, -0.006, 0.89, 0.45, 192.0, 0.0, 0.0, 0.0, 0.0, 0.0, 0.0, 0.0, 0.0, 0.0, 1.7398204250083141E9, 0.0, 2025-02-17 16:27:05.008
234.0, 3230.5199778699853, -3817.5438424997146, -7383.407042432671, -5068.079241285234, -6705.165708680834, -4456.043774610016, -4926.525643649775, -4597.19504084528, -0.006, 0.89, 0.45, 192.0, 0.0, 0.0, 0.0, 0.0, 0.0, 0.0, 0.0, 0.0, 0.0, 1.7398204250084083E9, 0.0, 2025-02-17 16:27:05.008
235.0, 3230.7881988034487, -3865.711851800901, -7387.631522134724, -4987.836478690681, -6764.733107654227, -4510.55967933651, -4967.049356347246, -4624.397113847389, -0.006, 0.89, 0.45, 192.0, 0.0, 0.0, 0.0, 0.0, 0.0, 0.0, 0.0, 0.0, 0.0, 1.739820425008449E9, 0.0, 2025-02-17 16:27:05.008
236.0, 3230.5646813588955, -3890.365825935105, -7419.683923683635, -4934.460512931409, -6784.782622430637, -4534.408990670323, -4994.5196502828185, -4652.090925227514, -0.006, 0.89, 0.45, 192.0, 0.0, 0.0, 0.0, 0.0, 0.0, 0.0, 0.0, 0.0, 0.0, 1.7398204250085015E9, 0.0, 2025-02-17 16:27:05.008
237.0, 3231.5705098593844, -3827.7585897157896, -7419.974496361554, -5037.770275803838, -6707.579697082007, -4463.621015980365, -4944.295280491743, -4619.233860878213, -0.006, 0.89, 0.45, 192.0, 0.0, 0.0, 0.0, 0.0, 0.0, 0.0, 0.0, 0.0, 0.0, 1.7398204250085552E9, 0.0, 2025-02-17 16:27:05.008
238.0, 3230.743495314538, -3812.8499761641, -7386.826859334334, -5075.097689044201, -6699.354255122454, -4451.461666996678, -4924.111655248601, -4595.630418733409, -0.006, 0.89, 0.45, 192.0, 0.0, 0.0, 0.0, 0.0, 0.0, 0.0, 0.0, 0.0, 0.0, 1.7398204250085971E9, 0.0, 2025-02-17 16:27:05.008
239.0, 3230.810550547904, -3855.4300493514597, -7384.815202333356, -5005.650819021562, -6752.9537383262805, -4499.584972808954, -4958.086306820668, -4617.110445154959, -0.006, 0.89, 0.45, 192.0, 0.0, 0.0, 0.0, 0.0, 0.0, 0.0, 0.0, 0.0, 0.0, 1.739820425008665E9, 0.0, 2025-02-17 16:27:05.008
240.0, 3230.363515658798, -3893.5621253922136, -7414.095987569808, -4930.951289051925, -6791.264628322677, -4539.214615728213, -4995.994865416868, -4650.906282771383, -0.006, 0.89, 0.45, 192.0, 0.0, 0.0, 0.0, 0.0, 0.0, 0.0, 0.0, 0.0, 0.0, 1.7398204250087116E9, 0.0, 2025-02-17 16:27:05.008
241.0, 3230.095294725334, -3837.3474880871167, -7423.394313263216, -5016.670229038028, -6717.95090650927, -4473.3887283073345, -4952.78894338476, -4625.20177664778, 0.002, 0.884, 0.46, 192.0, 0.0, 16.0, 27.0, 160.0, 14.0, 96.0, 0.0, 0.0, 0.0, 1.7398204250087729E9, 0.0, 2025-02-17 16:27:05.008
242.0, 3231.59286160384, -3810.65950520748, -7391.878353581233, -5080.104479802189, -6695.666217287328, -4447.0360215945275, -4923.128178492568, -4596.457433278255, 0.002, 0.884, 0.46, 192.0, 0.0, 0.0, 0.0, 0.0, 0.0, 0.0, 0.0, 0.0, 0.0, 1.7398204250088484E9, 0.0, 2025-02-17 16:27:05.008
243.0, 3231.011716248002, -3845.6399852800355, -7382.8482488212885, -5023.532214585807, -6741.442589931798, -4488.2973418590245, -4949.100905549634, -4610.829604963017, 0.002, 0.884, 0.46, 192.0, 0.0, 0.0, 0.0, 0.0, 0.0, 0.0, 0.0, 0.0, 0.0, 1.73982042500891E9, 0.0, 2025-02-17 16:27:05.008
244.0, 3229.9164807696916, -3892.1539654915296, -7407.412815977671, -4934.639326887051, -6792.650436478906, -4538.700525605742, -4993.200897359955, -4647.195893191802, 0.002, 0.884, 0.46, 192.0, 0.0, 0.0, 0.0, 0.0, 0.0, 0.0, 0.0, 0.0, 0.0, 1.739820425008958E9, 0.0, 2025-02-17 16:27:05.008
245.0, 3229.2459284360325, -3848.456305081404, -7425.987115620032, -4995.32431308321, -6732.323078194032, -4486.352740091413, -4962.2213795449, -4632.48844534021, 0.002, 0.884, 0.46, 192.0, 0.0, 0.0, 0.0, 0.0, 0.0, 0.0, 0.0, 0.0, 0.0, 1.739820425009006E9, 0.0, 2025-02-17 16:27:05.009
246.0, 3228.329506913365, -3806.166804571963, -7394.269990237951, -5077.556380934284, -6688.781879995094, -4442.4986174701, -4920.5577278802075, -4594.892811166384, 0.002, 0.884, 0.46, 192.0, 0.0, 0.0, 0.0, 0.0, 0.0, 0.0, 0.0, 0.0, 0.0, 1.7398204250090528E9, 0.0, 2025-02-17 16:27:05.009
247.0, 3227.3013266684206, -3832.810083962689, -7378.4449551635935, -5036.004487991869, -6726.33281068001, -4474.908646930296, -4938.416771699997, -4601.419520547333, 0.002, 0.884, 0.46, 192.0, 0.0, 0.0, 0.0, 0.0, 0.0, 0.0, 0.0, 0.0, 0.0, 1.7398204250090976E9, 0.0, 2025-02-17 16:27:05.009
248.0, 3225.40142838972, -3883.2132677094064, -7396.41575770566, -4939.735524622861, -6784.2014770748, -4529.916290034806, -4984.148440855556, -4637.182311675824, 0.002, 0.884, 0.46, 192.0, 0.0, 0.0, 0.0, 0.0, 0.0, 0.0, 0.0, 0.0, 0.0, 1.7398204250091429E9, 0.0, 2025-02-17 16:27:05.009
249.0, 3225.2226144340775, -3856.6370435520466, -7422.388484762727, -4970.357414526631, -6742.180197498822, -4495.896934973828, -4968.837495903671, -4635.3941721194, 0.002, 0.884, 0.46, 192.0, 0.0, 0.0, 0.0, 0.0, 0.0, 0.0, 0.0, 0.0, 0.0, 1.7398204250092323E9, 0.0, 2025-02-17 16:27:05.009
250.0, 3226.3178499123874, -3804.423368504449, -7397.354530972783, -5070.604988408683, -6686.345539849465, -4439.905815113284, -4920.5577278802075, -4596.345674555979, 0.002, 0.884, 0.46, 192.0, 0.0, 0.0, 0.0, 0.0, 0.0, 0.0, 0.0, 0.0, 0.0, 1.7398204250092752E9, 0.0, 2025-02-17 16:27:05.009
251.0, 3228.620079591284, -3825.4787117813485, -7378.668472608147, -5049.6390521096055, -6717.727389064717, -4466.9961293931165, -4933.074704775179, -4599.586677501998, 0.004, 0.87, 0.464, 192.0, 0.0, 32.0, 27.0, 48.0, 14.0, 128.0, 0.0, 0.0, 0.0, 1.7398204250093277E9, 0.0, 2025-02-17 16:27:05.009
252.0, 3229.4694458805857, -3879.5699333631915, -7393.51003092647, -4955.873484119593, -6781.385157273431, -4526.831749299973, -4980.639216976073, -4636.176483175335, 0.004, 0.87, 0.464, 192.0, 0.0, 0.0, 0.0, 0.0, 0.0, 0.0, 0.0, 0.0, 0.0, 1.7398204250093732E9, 0.0, 2025-02-17 16:27:05.009
253.0, 3228.2848034244544, -3871.2774361702727, -7423.103740585297, -4953.414792229509, -6759.86042736297, -4512.861909015406, -4980.616865231617, -4645.184236190825, 0.004, 0.87, 0.464, 192.0, 0.0, 0.0, 0.0, 0.0, 0.0, 0.0, 0.0, 0.0, 0.0, 1.7398204250094316E9, 0.0, 2025-02-17 16:27:05.009
254.0, 3227.9048237687143, -3809.5419179847145, -7404.529440942936, -5062.29013947131, -6689.98887419568, -4446.231358794136, -4926.324477949676, -4603.162956614847, 0.004, 0.87, 0.464, 192.0, 0.0, 0.0, 0.0, 0.0, 0.0, 0.0, 0.0, 0.0, 0.0, 1.7398204250094752E9, 0.0, 2025-02-17 16:27:05.009
255.0, 3226.6754778236723, -3816.9850488883317, -7377.394423174193, -5058.110363258167, -6707.333827892999, -4457.496637999611, -4925.11748374909, -4593.6634652213415, 0.004, 0.87, 0.464, 192.0, 0.0, 0.0, 0.0, 0.0, 0.0, 0.0, 0.0, 0.0, 0.0, 1.7398204250095227E9, 0.0, 2025-02-17 16:27:05.009
0.0, 3227.234271435055, -3868.304654157717, -7386.469231423049, -4969.731565681883, -6769.494029223208, -4514.270068916091, -4969.016309859313, -4625.313535370056, 0.004, 0.87, 0.464, 192.0, 0.0, 0.0, 0.0, 0.0, 0.0, 0.0, 0.0, 0.0, 0.0, 1.7398204250095627E9, 0.0, 2025-02-17 16:27:05.009
1.0, 3226.3402016568425, -3878.072366484686, -7417.89578412721, -4937.254480988322, -6770.879837379437, -4521.13205446387, -4984.5954757446625, -4645.184236190825, 0.004, 0.87, 0.464, 192.0, 0.0, 0.0, 0.0, 0.0, 0.0, 0.0, 0.0, 0.0, 0.0, 1.7398204250096495E9, 0.0, 2025-02-17 16:27:05.009
2.0, 3226.2731464234766, -3813.7440459423124, -7409.13390030073, -5047.403877664075, -6694.280409131099, -4449.02532685105, -4930.3030884627215, -4606.895697938883, 0.004, 0.87, 0.464, 192.0, 0.0, 0.0, 0.0, 0.0, 0.0, 0.0, 0.0, 0.0, 0.0, 1.7398204250097055E9, 0.0, 2025-02-17 16:27:05.009
3.0, 3227.4130853906972, -3811.7323889413346, -7379.920170297643, -5067.587502907218, -6700.315380134032, -4450.92522512975, -4921.474149402875, -4592.679988465308, 0.004, 0.87, 0.464, 192.0, 0.0, 0.0, 0.0, 0.0, 0.0, 0.0, 0.0, 0.0, 0.0, 1.73982042500975E9, 0.0, 2025-02-17 16:27:05.009
4.0, 3228.6424313357393, -3859.3416046311386, -7383.295283710395, -4988.954065913447, -6758.988709329214, -4505.731702534164, -4961.237902788866, -4620.1949858897915, 0.004, 0.87, 0.464, 192.0, 0.0, 0.0, 0.0, 0.0, 0.0, 0.0, 0.0, 0.0, 0.0, 1.739820425009795E9, 0.0, 2025-02-17 16:27:05.009
5.0, 3227.3460301573314, -3885.850773555133, -7413.7830631474335, -4929.587832640152, -6781.496915995707, -4530.832711557474, -4990.496336280863, -4648.11231471447, 0.012, 0.87, 0.464, 192.0, 0.0, 96.0, 27.0, 48.0, 14.0, 128.0, 0.0, 0.0, 0.0, 1.73982042500984E9, 0.0, 2025-02-17 16:27:05.009
6.0, 3226.3402016568425, -3822.8635576800775, -7414.453615481093, -5029.790703033293, -6703.399920868865, -4458.278949055547, -4940.182559511967, -4615.121139898436, 0.012, 0.87, 0.464, 192.0, 0.0, 0.0, 0.0, 0.0, 0.0, 0.0, 0.0, 0.0, 0.0, 1.7398204250098877E9, 0.0, 2025-02-17 16:27:05.009
7.0, 3226.4072568902084, -3805.8985836384995, -7381.685958109612, -5072.840162854214, -6693.27458063061, -4444.174998304248, -4918.613126112596, -4590.802441931062, 0.012, 0.87, 0.464, 192.0, 0.0, 0.0, 0.0, 0.0, 0.0, 0.0, 0.0, 0.0, 0.0, 1.7398204250099323E9, 0.0, 2025-02-17 16:27:05.009
8.0, 3226.3178499123874, -3846.3105376136946, -7377.550885385381, -5004.309714354243, -6745.130627766923, -4490.778385493563, -4950.486713705864, -4610.695494496285, 0.012, 0.87, 0.464, 192.0, 0.0, 0.0, 0.0, 0.0, 0.0, 0.0, 0.0, 0.0, 0.0, 1.7398204250099804E9, 0.0, 2025-02-17 16:27:05.009
9.0, 3225.9378702566473, -3885.940180532954, -7405.9152490991655, -4925.989201782847, -6785.341416042021, -4532.017354013605, -4989.736376969383, -4644.938367001816, 0.012, 0.87, 0.464, 192.0, 0.0, 0.0, 0.0, 0.0, 0.0, 0.0, 0.0, 0.0, 0.0, 1.739820425010068E9, 0.0, 2025-02-17 16:27:05.010
10.0, 3227.2789749239655, -3833.9723746743653, -7418.566336460869, -5010.299981868266, -6716.095711719479, -4471.153553861804, -4950.442010216953, -4623.547747558087, 0.012, 0.87, 0.464, 192.0, 0.0, 0.0, 0.0, 0.0, 0.0, 0.0, 0.0, 0.0, 0.0, 1.7398204250101123E9, 0.0, 2025-02-17 16:27:05.010
11.0, 3228.329506913365, -3804.5798307156365, -7386.670397123146, -5077.846953612203, -6689.698301517761, -4442.476265725644, -4918.747236579327, -4593.149375098869, 0.012, 0.87, 0.464, 192.0, 0.0, 0.0, 0.0, 0.0, 0.0, 0.0, 0.0, 0.0, 0.0, 1.739820425010164E9, 0.0, 2025-02-17 16:27:05.010
12.0, 3226.206091190111, -3836.14049388653, -7374.533399883914, -5021.788778518293, -6732.278374705122, -4480.854210955406, -4941.858940346115, -4605.15226187137, 0.012, 0.87, 0.464, 192.0, 0.0, 0.0, 0.0, 0.0, 0.0, 0.0, 0.0, 0.0, 0.0, 1.739820425010212E9, 0.0, 2025-02-17 16:27:05.010
13.0, 3226.6754778236723, -3885.202572965929, -7398.963856573565, -4932.001821041325, -6786.615465475973, -4533.201996469736, -4988.0599961352345, -4643.217282678757, 0.012, 0.87, 0.464, 192.0, 0.0, 0.0, 0.0, 0.0, 0.0, 0.0, 0.0, 0.0, 0.0, 1.7398204250102649E9, 0.0, 2025-02-17 16:27:05.010
14.0, 3229.4470941361305, -3848.0316219367533, -7422.522595229459, -4991.390406059076, -6732.680706105317, -4487.425623825267, -4963.36131851212, -4633.606032562975, 0.012, 0.87, 0.464, 192.0, 0.0, 0.0, 0.0, 0.0, 0.0, 0.0, 0.0, 0.0, 0.0, 1.7398204250103068E9, 0.0, 2025-02-17 16:27:05.010
15.0, 3230.967012759091, -3805.9879906163205, -7394.4711559380485, -5079.590389679717, -6690.368853851421, -4442.990355848116, -4922.2117569699, -4598.223221090224, 0.018000000000000002, 0.876, 0.458, 192.0, 0.0, 144.0, 27.0, 96.0, 14.0, 80.0, 0.0, 0.0, 0.0, 1.7398204250103555E9, 0.0, 2025-02-17 16:27:05.010
16.0, 3231.101123225823, -3832.363049073583, -7378.780231330423, -5041.52536887233, -6727.293935691588, -4475.221571352669, -4939.601414156129, -4604.48170953771, 0.018000000000000002, 0.876, 0.458, 192.0, 0.0, 0.0, 0.0, 0.0, 0.0, 0.0, 0.0, 0.0, 0.0, 1.7398204250104008E9, 0.0, 2025-02-17 16:27:05.010
17.0, 3227.033105734957, -3880.7322240748676, -7393.51003092647, -4942.037754301758, -6783.597979974506, -4528.865758045406, -4983.299074566255, -4636.802332020085, 0.018000000000000002, 0.876, 0.458, 192.0, 0.0, 0.0, 0.0, 0.0, 0.0, 0.0, 0.0, 0.0, 0.0, 1.73982042501046E9, 0.0, 2025-02-17 16:27:05.010
18.0, 3226.2731464234766, -3857.2852441412506, -7419.795682405911, -4967.250522047344, -6744.281261477621, -4497.327446618968, -4970.64798720455, -4636.087076197515, 0.018000000000000002, 0.876, 0.458, 192.0, 0.0, 0.0, 0.0, 0.0, 0.0, 0.0, 0.0, 0.0, 0.0, 1.739820425010504E9, 0.0, 2025-02-17 16:27:05.010
19.0, 3228.2848034244544, -3804.3116097821726, -7397.220420506052, -5071.230837253433, -6686.680816016295, -4441.157512802782, -4922.412922669998, -4598.379683301411, 0.018000000000000002, 0.876, 0.458, 192.0, 0.0, 0.0, 0.0, 0.0, 0.0, 0.0, 0.0, 0.0, 0.0, 1.739820425010548E9, 0.0, 2025-02-17 16:27:05.010
20.0, 3227.6142510907953, -3820.8295489346447, -7374.913379539655, -5050.533121887818, -6713.324095407021, -4463.285739813536, -4930.079571018168, -4597.396206545378, 0.018000000000000002, 0.876, 0.458, 192.0, 0.0, 0.0, 0.0, 0.0, 0.0, 0.0, 0.0, 0.0, 0.0, 1.7398204250105984E9, 0.0, 2025-02-17 16:27:05.010
21.0, 3227.390733646242, -3873.825535038178, -7388.07855702383, -4956.208760286422, -6776.780697915638, -4522.182586453269, -4976.4370890184755, -4631.0579336950705, 0.018000000000000002, 0.876, 0.458, 192.0, 0.0, 0.0, 0.0, 0.0, 0.0, 0.0, 0.0, 0.0, 0.0, 1.7398204250106432E9, 0.0, 2025-02-17 16:27:05.010
22.0, 3228.463617380097, -3870.852753025622, -7420.488586484026, -4951.000803828336, -6762.207360530778, -4513.4654061157, -4982.069728621213, -4643.6196140789525, 0.018000000000000002, 0.876, 0.458, 192.0, 0.0, 0.0, 0.0, 0.0, 0.0, 0.0, 0.0, 0.0, 0.0, 1.739820425010687E9, 0.0, 2025-02-17 16:27:05.010
23.0, 3227.6142510907953, -3807.709074939379, -7403.076577553342, -5060.47964817043, -6689.631246284395, -4444.197350048703, -4927.240899472345, -4602.850032192473, 0.018000000000000002, 0.876, 0.458, 192.0, 0.0, 0.0, 0.0, 0.0, 0.0, 0.0, 0.0, 0.0, 0.0, 1.73982042501073E9, 0.0, 2025-02-17 16:27:05.010
24.0, 3226.2731464234766, -3813.22995581984, -7374.891027795199, -5059.630281881128, -6704.450452858264, -4454.568559475966, -4924.469283159886, -4592.970561143227, 0.018000000000000002, 0.876, 0.458, 192.0, 0.0, 0.0, 0.0, 0.0, 0.0, 0.0, 0.0, 0.0, 0.0, 1.7398204250107749E9, 0.0, 2025-02-17 16:27:05.010
25.0, 3226.6307743347616, -3863.7001947999233, -7382.5576761433695, -4971.922036638503, -6766.409488488375, -4511.744321792641, -4967.429336002986, -4623.3912853469, 0.016, 0.876, 0.462, 192.0, 0.0, 128.0, 27.0, 96.0, 14.0, 112.0, 0.0, 0.0, 0.0, 1.7398204250108516E9, 0.0, 2025-02-17 16:27:05.010
26.0, 3227.8601202798036, -3879.167601962996, -7416.554679459892, -4936.226300743378, -6774.076136836546, -4524.306002176524, -4988.03764439078, -4647.330003658534, 0.016, 0.876, 0.462, 192.0, 0.0, 0.0, 0.0, 0.0, 0.0, 0.0, 0.0, 0.0, 0.0, 1.7398204250108979E9, 0.0, 2025-02-17 16:27:05.010
27.0, 3229.737666814049, -3816.6050692325916, -7411.190260790618, -5047.627395108628, -6698.460185344242, -4453.78624842003, -4935.734562365361, -4611.746026485685, 0.016, 0.876, 0.462, 192.0, 0.0, 0.0, 0.0, 0.0, 0.0, 0.0, 0.0, 0.0, 0.0, 1.7398204250109487E9, 0.0, 2025-02-17 16:27:05.010
28.0, 3229.625908091773, -3811.1512435854966, -7380.076632508831, -5070.783802364326, -6700.941228978781, -4451.931053630239, -4923.508158148308, -4594.7810524441065, 0.016, 0.876, 0.462, 192.0, 0.0, 0.0, 0.0, 0.0, 0.0, 0.0, 0.0, 0.0, 0.0, 1.739820425010998E9, 0.0, 2025-02-17 16:27:05.010
29.0, 3227.9048237687143, -3855.3406423736387, -7380.03192901992, -4991.189240358977, -6756.351203483487, -4502.267182143591, -4959.449763232442, -4618.406846333367, 0.016, 0.876, 0.462, 192.0, 0.0, 0.0, 0.0, 0.0, 0.0, 0.0, 0.0, 0.0, 0.0, 1.739820425011039E9, 0.0, 2025-02-17 16:27:05.011
30.0, 3230.095294725334, -3887.907134045021, -7414.006580591987, -4931.666544874495, -6785.877857908948, -4534.073714503493, -4993.536173526785, -4650.30278567109, 0.016, 0.876, 0.462, 192.0, 0.0, 0.0, 0.0, 0.0, 0.0, 0.0, 0.0, 0.0, 0.0, 1.7398204250110812E9, 0.0, 2025-02-17 16:27:05.011
31.0, 3228.843597035837, -3825.4787117813485, -7415.772368403956, -5029.053095466268, -6707.490290104186, -4462.391670035323, -4943.468265946897, -4617.691590510797, 0.016, 0.876, 0.462, 192.0, 0.0, 0.0, 0.0, 0.0, 0.0, 0.0, 0.0, 0.0, 0.0, 1.7398204250111313E9, 0.0, 2025-02-17 16:27:05.011
0.0, 0.0, 0.0, 0.0, 0.0, 0.0, 0.0, 0.0, 0.0, 0.062, 0.906, 0.258, 192.0, 1.0, 240.0, 28.0, 80.0, 8.0, 16.0, 0.0, 0.0, 0.0, 1.7398204250936224E9, 0.0, 2025-02-17 16:27:05.093
1.0, 3205.910707224692, -3686.2943990581516, -7252.403468180117, -4914.858033044104, -6628.02983856557, -4335.456113273634, -4791.990493773281, -4475.556847519499, 0.062, 0.906, 0.258, 192.0, 0.0, 0.0, 0.0, 0.0, 0.0, 0.0, 0.0, 0.0, 0.0, 1.7398204255772307E9, 0.0, 2025-02-17 16:27:05.577
2.0, 3207.0506461919126, -3666.5578087041154, -7268.407317210116, -4965.574141213196, -6594.524573627064, -4316.7253514200875, -4779.965255256326, -4478.328463831957, 0.062, 0.906, 0.258, 192.0, 0.0, 0.0, 0.0, 0.0, 0.0, 0.0, 0.0, 0.0, 0.0, 1.7398204255773456E9, 0.0, 2025-02-17 16:27:05.577
3.0, 3207.0729979363678, -3637.858168823501, -7249.184816978553, -5043.76054331786, -6567.747183769606, -4290.216182496093, -4754.819542744105, -4458.815390922474, 0.062, 0.906, 0.258, 192.0, 0.0, 0.0, 0.0, 0.0, 0.0, 0.0, 0.0, 0.0, 0.0, 1.7398204255773873E9, 0.0, 2025-02-17 16:27:05.577
4.0, 3205.642486291228, -3649.414020706895, -7235.617308094181, -5008.221269633922, -6589.204858446701, -4300.475633201079, -4760.496885835753, -4454.345042031413, 0.062, 0.906, 0.258, 192.0, 0.0, 0.0, 0.0, 0.0, 0.0, 0.0, 0.0, 0.0, 0.0, 1.7398204255774243E9, 0.0, 2025-02-17 16:27:05.577
5.0, 3204.904878724203, -3680.2370763107633, -7245.854407054711, -4923.083475003657, -6623.984172819159, -4328.3482585368465, -4787.229572204301, -4470.2818358280465, 0.062, 0.906, 0.258, 192.0, 0.0, 0.0, 0.0, 0.0, 0.0, 0.0, 0.0, 0.0, 0.0, 1.7398204255774612E9, 0.0, 2025-02-17 16:27:05.577
6.0, 3204.256678134999, -3668.7706314051907, -7263.624043896681, -4944.071763047191, -6602.817070819983, -4318.111159576316, -4780.904028523449, -4475.825068452963, 0.062, 0.906, 0.258, 192.0, 0.0, 0.0, 0.0, 0.0, 0.0, 0.0, 0.0, 0.0, 0.0, 1.739820425577511E9, 0.0, 2025-02-17 16:27:05.577
7.0, 3204.524899068463, -3635.153607744409, -7248.804837322812, -5036.116246714145, -6559.700555765696, -4286.774013849976, -4752.673775276396, -4456.982547877139, 0.062, 0.906, 0.258, 192.0, 0.0, 0.0, 0.0, 0.0, 0.0, 0.0, 0.0, 0.0, 0.0, 1.7398204255775518E9, 0.0, 2025-02-17 16:27:05.577
8.0, 3203.317904867876, -3641.6803171253587, -7232.041028981332, -5017.676057538517, -6574.318596639467, -4288.539801661945, -4754.394859599454, -4449.718230929164, 0.114, 0.9480000000000001, 0.154, 192.0, 3.0, 144.0, 29.0, 160.0, 4.0, 208.0, 0.0, 0.0, 0.0, 1.7398204255775926E9, 0.0, 2025-02-17 16:27:05.577
9.0, 3202.1109106672898, -3669.619997694492, -7238.3889244066395, -4933.387629197554, -6614.082350025457, -4320.9498311221405, -4777.908894766438, -4461.564655490477, 0.114, 0.9480000000000001, 0.154, 192.0, 0.0, 0.0, 0.0, 0.0, 0.0, 0.0, 0.0, 0.0, 0.0, 1.7398204255777853E9, 0.0, 2025-02-17 16:27:05.577
10.0, 3201.7309310115497, -3669.955273861322, -7259.041936283343, -4926.25742271631, -6608.0250272780695, -4318.155863065227, -4781.485173879287, -4472.1593823622925, 0.114, 0.9480000000000001, 0.154, 192.0, 0.0, 0.0, 0.0, 0.0, 0.0, 0.0, 0.0, 0.0, 0.0, 1.7398204255778244E9, 0.0, 2025-02-17 16:27:05.577
11.0, 3206.223631647066, -3637.1876164898417, -7253.833979825256, -5029.790703033293, -6563.2991866229995, -4285.365853949292, -4756.652385789441, -4461.117620601371, 0.114, 0.9480000000000001, 0.154, 192.0, 0.0, 0.0, 0.0, 0.0, 0.0, 0.0, 0.0, 0.0, 0.0, 1.7398204255778823E9, 0.0, 2025-02-17 16:27:05.577
12.0, 3209.174061915167, -3639.735715357747, -7237.181930206053, -5033.702258312972, -6573.9833204726365, -4292.965447064095, -4755.646557288952, -4453.495675742111, 0.114, 0.9480000000000001, 0.154, 192.0, 0.0, 0.0, 0.0, 0.0, 0.0, 0.0, 0.0, 0.0, 0.0, 1.7398204255779326E9, 0.0, 2025-02-17 16:27:05.577
13.0, 3208.749378770516, -3666.2895877706515, -7239.350049418217, -4956.722850408894, -6611.288381968544, -4321.508624733523, -4776.165458698923, -4462.279911313047, 0.114, 0.9480000000000001, 0.154, 192.0, 0.0, 0.0, 0.0, 0.0, 0.0, 0.0, 0.0, 0.0, 0.0, 1.7398204255779765E9, 0.0, 2025-02-17 16:27:05.577
14.0, 3209.554041570907, -3677.0407768536543, -7261.098296773232, -4925.877443060571, -6614.574088403474, -4328.482369003578, -4788.704787338351, -4476.719138231175, 0.114, 0.9480000000000001, 0.154, 192.0, 0.0, 0.0, 0.0, 0.0, 0.0, 0.0, 0.0, 0.0, 0.0, 1.739820425578016E9, 0.0, 2025-02-17 16:27:05.578
15.0, 3209.196413659622, -3637.2323199787525, -7255.756229848413, -5024.225118663921, -6564.372070356855, -4288.808022595408, -4757.099420678547, -4461.207027579192, 0.114, 0.9480000000000001, 0.154, 192.0, 0.0, 0.0, 0.0, 0.0, 0.0, 0.0, 0.0, 0.0, 0.0, 1.7398204255780654E9, 0.0, 2025-02-17 16:27:05.578
16.0, 3206.6706665361726, -3627.1069797404984, -7230.990496991933, -5043.134694473111, -6556.459552819676, -4271.8206968093755, -4744.805961228128, -4443.906777370784, 0.114, 0.9480000000000001, 0.154, 192.0, 0.0, 0.0, 0.0, 0.0, 0.0, 0.0, 0.0, 0.0, 0.0, 1.7398204255781195E9, 0.0, 2025-02-17 16:27:05.578
17.0, 3206.4024456027087, -3648.6764131398695, -7227.816549279279, -4973.6207692171065, -6591.216515447679, -4303.001380324528, -4760.854513747038, -4447.661870439276, 0.114, 0.9480000000000001, 0.154, 192.0, 0.0, 0.0, 0.0, 0.0, 0.0, 0.0, 0.0, 0.0, 0.0, 1.7398204255781684E9, 0.0, 2025-02-17 16:27:05.578
18.0, 3207.274163636466, -3667.4518784823276, -7247.508436144404, -4917.87551854557, -6609.991980790136, -4322.2462323005475, -4778.244170933267, -4462.771649691063, 0.154, 0.986, 0.1, 192.0, 4.0, 208.0, 30.0, 208.0, 3.0, 32.0, 0.0, 0.0, 0.0, 1.7398204255782156E9, 0.0, 2025-02-17 16:27:05.578
19.0, 3208.2799921369547, -3633.209005976797, -7251.040011768343, -5005.270839365821, -6560.3487563549, -4277.766260834487, -4752.629071787485, -4455.797905421007, 0.154, 0.986, 0.1, 192.0, 0.0, 0.0, 0.0, 0.0, 0.0, 0.0, 0.0, 0.0, 0.0, 1.739820425578264E9, 0.0, 2025-02-17 16:27:05.578
20.0, 3209.2187654040777, -3619.485034881239, -7228.956488246499, -5047.04624975279, -6543.786113713517, -4264.578731605856, -4738.547472780642, -4439.749352902098, 0.154, 0.986, 0.1, 192.0, 0.0, 0.0, 0.0, 0.0, 0.0, 0.0, 0.0, 0.0, 0.0, 1.7398204255783017E9, 0.0, 2025-02-17 16:27:05.578
21.0, 3210.850442749315, -3640.272157224674, -7224.62024982217, -4989.89283918057, -6576.598474573908, -4287.668083628188, -4753.836065988072, -4443.169169803759, 0.154, 0.986, 0.1, 192.0, 0.0, 0.0, 0.0, 0.0, 0.0, 0.0, 0.0, 0.0, 0.0, 1.7398204255783367E9, 0.0, 2025-02-17 16:27:05.578
22.0, 3210.559870071396, -3663.1603435469087, -7240.199415707519, -4916.3332481781545, -6607.555640644508, -4320.52514797749, -4773.595008086563, -4456.110829843382, 0.154, 0.986, 0.1, 192.0, 0.0, 0.0, 0.0, 0.0, 0.0, 0.0, 0.0, 0.0, 0.0, 1.7398204255783732E9, 0.0, 2025-02-17 16:27:05.578
23.0, 3211.141015427234, -3635.086552511043, -7248.3130989447955, -4984.707234466939, -6565.6461197908075, -4286.572848149878, -4752.919644465404, -4452.020460608061, 0.154, 0.986, 0.1, 192.0, 0.0, 0.0, 0.0, 0.0, 0.0, 0.0, 0.0, 0.0, 0.0, 1.7398204255784094E9, 0.0, 2025-02-17 16:27:05.578
24.0, 3210.135186926745, -3612.8018632891017, -7225.022581222365, -5044.051115995779, -6539.427523544732, -4256.12977220175, -4732.467798288799, -4434.697858655198, 0.154, 0.986, 0.1, 192.0, 0.0, 0.0, 0.0, 0.0, 0.0, 0.0, 0.0, 0.0, 0.0, 1.7398204255784452E9, 0.0, 2025-02-17 16:27:05.578
25.0, 3207.564736314385, -3623.5977558610152, -7211.812700249279, -4995.033740405291, -6559.63350053233, -4272.781821820953, -4737.496940791242, -4429.221681263648, 0.154, 0.986, 0.1, 192.0, 0.0, 0.0, 0.0, 0.0, 0.0, 0.0, 0.0, 0.0, 0.0, 1.739820425578504E9, 0.0, 2025-02-17 16:27:05.578
26.0, 3205.4413205911305, -3647.804695106113, -7222.228613165452, -4911.035884742247, -6590.545963114019, -4306.063569314905, -4758.306414879134, -4440.196387791203, 0.154, 0.986, 0.1, 192.0, 0.0, 0.0, 0.0, 0.0, 0.0, 0.0, 0.0, 0.0, 0.0, 1.7398204255785413E9, 0.0, 2025-02-17 16:27:05.578
27.0, 3206.4247973471643, -3628.984526274744, -7235.974936005466, -4956.78990564226, -6558.650023776296, -4278.682682357155, -4745.431810072877, -4441.761009903074, 0.154, 0.986, 0.1, 192.0, 0.0, 0.0, 0.0, 0.0, 0.0, 0.0, 0.0, 0.0, 0.0, 1.7398204255785851E9, 0.0, 2025-02-17 16:27:05.578
28.0, 3208.838785748337, -3602.184784672831, -7218.026485207854, -5037.94908975948, -6529.525700751031, -4250.139504687727, -4721.671905716885, -4424.594870161399, 0.19, 1.006, 0.08600000000000001, 192.0, 5.0, 240.0, 31.0, 112.0, 2.0, 176.0, 0.0, 0.0, 0.0, 1.7398204255786808E9, 0.0, 2025-02-17 16:27:05.578
29.0, 3209.621096804273, -3612.019552233166, -7205.129528657142, -5007.304848111254, -6548.2117591156675, -4258.566112347378, -4726.857510430516, -4421.622088148843, 0.19, 1.006, 0.08600000000000001, 192.0, 0.0, 0.0, 0.0, 0.0, 0.0, 0.0, 0.0, 0.0, 0.0, 1.7398204255787237E9, 0.0, 2025-02-17 16:27:05.578
30.0, 3210.470463093575, -3640.1827502468527, -7214.897240984112, -4923.821082570682, -6582.320521154466, -4293.926572075674, -4750.125676408491, -4433.177940032237, 0.19, 1.006, 0.08600000000000001, 192.0, 0.0, 0.0, 0.0, 0.0, 0.0, 0.0, 0.0, 0.0, 0.0, 1.7398204255787811E9, 0.0, 2025-02-17 16:27:05.578
31.0, 3209.5093380819962, -3629.4762646527606, -7229.448226624517, -4939.98139381187, -6557.979471442637, -4278.36975793478, -4744.627147272486, -4438.698820912698, 0.19, 1.006, 0.08600000000000001, 192.0, 0.0, 0.0, 0.0, 0.0, 0.0, 0.0, 0.0, 0.0, 0.0, 1.739820425578822E9, 0.0, 2025-02-17 16:27:05.578
32.0, 3210.939849727136, -3595.143985169409, -7213.936115972533, -5033.031705979312, -6521.501424491576, -4243.970423218063, -4715.480472502765, -4421.130349770827, 0.19, 1.006, 0.08600000000000001, 192.0, 0.0, 0.0, 0.0, 0.0, 0.0, 0.0, 0.0, 0.0, 0.0, 1.739820425578864E9, 0.0, 2025-02-17 16:27:05.578
33.0, 3208.212936903589, -3594.987522958222, -7192.679606995536, -5015.798511004271, -6528.877500161827, -4248.597234320311, -4710.339571278045, -4407.853413564374, 0.19, 1.006, 0.08600000000000001, 192.0, 0.0, 0.0, 0.0, 0.0, 0.0, 0.0, 0.0, 0.0, 0.0, 1.7398204255789063E9, 0.0, 2025-02-17 16:27:05.578
34.0, 3205.7542450135047, -3618.9485930143114, -7195.183002374531, -4931.554786152218, -6559.387631343321, -4265.137525217238, -4729.450312787332, -4415.810634590463, 0.19, 1.006, 0.08600000000000001, 192.0, 0.0, 0.0, 0.0, 0.0, 0.0, 0.0, 0.0, 0.0, 0.0, 1.7398204255789425E9, 0.0, 2025-02-17 16:27:05.578
35.0, 3206.715370025083, -3618.121578469465, -7212.840880494223, -4920.40126566902, -6550.2681196055555, -4267.663272340688, -4733.004240155726, -4425.578346917432, 0.19, 1.006, 0.08600000000000001, 192.0, 0.0, 0.0, 0.0, 0.0, 0.0, 0.0, 0.0, 0.0, 0.0, 1.7398204255789783E9, 0.0, 2025-02-17 16:27:05.578
36.0, 3208.503509581508, -3581.442365818306, -7202.648485022603, -5018.346609872176, -6509.1185580633355, -4233.330992857336, -4702.695274674329, -4409.507442654067, 0.19, 1.006, 0.08600000000000001, 192.0, 0.0, 0.0, 0.0, 0.0, 0.0, 0.0, 0.0, 0.0, 0.0, 1.7398204255790143E9, 0.0, 2025-02-17 16:27:05.579
37.0, 3208.168233414678, -3577.5531622830827, -7180.877885923134, -5020.447673850975, -6514.2818110325115, -4233.330992857336, -4694.201611781313, -4395.023512247028, 0.19, 1.006, 0.08600000000000001, 192.0, 0.0, 0.0, 0.0, 0.0, 0.0, 0.0, 0.0, 0.0, 0.0, 1.7398204255790515E9, 0.0, 2025-02-17 16:27:05.579
38.0, 3208.3470473703205, -3601.1342526834314, -7181.347272556695, -4944.094114791646, -6538.8240264444385, -4253.939301245129, -4713.804091668617, -4402.4889948951, 0.218, 1.0, 0.09, 192.0, 6.0, 208.0, 31.0, 64.0, 2.0, 208.0, 0.0, 0.0, 0.0, 1.7398204255790873E9, 0.0, 2025-02-17 16:27:05.579
39.0, 3207.609439803295, -3609.6055638319926, -7198.871040209657, -4904.68798931694, -6541.170959612246, -4255.7944960349205, -4724.488225518254, -4414.849509578885, 0.218, 1.0, 0.09, 192.0, 0.0, 0.0, 0.0, 0.0, 0.0, 0.0, 0.0, 0.0, 0.0, 1.7398204255791264E9, 0.0, 2025-02-17 16:27:05.579
40.0, 3207.900012481214, -3571.56289476906, -7193.394862818106, -4997.447728806464, -6502.14481379328, -4223.205652619083, -4692.949914091815, -4400.142061727293, 0.218, 1.0, 0.09, 192.0, 0.0, 0.0, 0.0, 0.0, 0.0, 0.0, 0.0, 0.0, 0.0, 1.7398204255791824E9, 0.0, 2025-02-17 16:27:05.579
41.0, 3207.6988467811166, -3561.6834237198145, -7169.120868339643, -5018.346609872176, -6496.243953257079, -4218.98117291703, -4680.298826730112, -4383.19943943017, 0.218, 1.0, 0.09, 192.0, 0.0, 0.0, 0.0, 0.0, 0.0, 0.0, 0.0, 0.0, 0.0, 1.7398204255792189E9, 0.0, 2025-02-17 16:27:05.579
42.0, 3207.900012481214, -3581.5988280294932, -7165.879865393623, -4950.509065450319, -6524.451854759676, -4239.254205137992, -4694.916867603883, -4386.038110975995, 0.218, 1.0, 0.09, 192.0, 0.0, 0.0, 0.0, 0.0, 0.0, 0.0, 0.0, 0.0, 0.0, 1.7398204255792685E9, 0.0, 2025-02-17 16:27:05.579
43.0, 3208.4364543481415, -3599.726092782747, -7183.716557468958, -4891.120480432568, -6536.052410131981, -4250.988870977029, -4712.55239397912, -4400.343227427391, 0.218, 1.0, 0.09, 192.0, 0.0, 0.0, 0.0, 0.0, 0.0, 0.0, 0.0, 0.0, 0.0, 1.7398204255793042E9, 0.0, 2025-02-17 16:27:05.579
44.0, 3208.3693991147757, -3564.2315225877196, -7183.873019680145, -4973.196086072456, -6492.421804955221, -4222.26687935196, -4683.740995376229, -4389.524983111022, 0.218, 1.0, 0.09, 192.0, 0.0, 0.0, 0.0, 0.0, 0.0, 0.0, 0.0, 0.0, 0.0, 1.739820425579346E9, 0.0, 2025-02-17 16:27:05.579
45.0, 3209.7328555265494, -3547.7582869241583, -7161.230702546919, -5018.27955463881, -6481.6482641277635, -4203.334951798314, -4667.692442857318, -4373.096450936371, 0.218, 1.0, 0.09, 192.0, 0.0, 0.0, 0.0, 0.0, 0.0, 0.0, 0.0, 0.0, 0.0, 1.7398204255793824E9, 0.0, 2025-02-17 16:27:05.579
46.0, 3210.805739260404, -3563.18099059832, -7153.4522954764725, -4965.350623768642, -6503.597677182875, -4216.745998471499, -4679.047129040615, -4373.811706758941, 0.218, 1.0, 0.09, 192.0, 0.0, 0.0, 0.0, 0.0, 0.0, 0.0, 0.0, 0.0, 0.0, 1.7398204255794246E9, 0.0, 2025-02-17 16:27:05.579
47.0, 3207.9894194590356, -3579.430708817328, -7162.840028147702, -4889.555858320697, -6522.395494269788, -4232.660440523678, -4693.732225147752, -4381.433651618201, 0.218, 1.0, 0.09, 192.0, 0.0, 0.0, 0.0, 0.0, 0.0, 0.0, 0.0, 0.0, 0.0, 1.7398204255794616E9, 0.0, 2025-02-17 16:27:05.579
48.0, 3206.4695008360745, -3547.9371008798007, -7165.678699693525, -4952.163094540012, -6479.100165259858, -4201.92679189763, -4667.983015535237, -4372.068270691428, 0.214, 1.004, 0.10400000000000001, 192.0, 6.0, 176.0, 31.0, 96.0, 3.0, 64.0, 0.0, 0.0, 0.0, 1.7398204255795612E9, 0.0, 2025-02-17 16:27:05.579
49.0, 3205.977762458058, -3520.7126761332365, -7139.571862169727, -5012.915135969536, -6453.775638791995, -4178.524515452924, -4641.451494866788, -4348.487180291078, 0.214, 1.004, 0.10400000000000001, 192.0, 0.0, 0.0, 0.0, 0.0, 0.0, 0.0, 0.0, 0.0, 0.0, 1.7398204255796232E9, 0.0, 2025-02-17 16:27:05.579
50.0, 3207.4306258476527, -3531.285051260597, -7127.658382375048, -4969.6868621929725, -6469.399508166255, -4189.789794658398, -4647.620576336453, -4345.201473856148, 0.214, 1.004, 0.10400000000000001, 192.0, 0.0, 0.0, 0.0, 0.0, 0.0, 0.0, 0.0, 0.0, 0.0, 1.7398204255796633E9, 0.0, 2025-02-17 16:27:05.579
51.0, 3207.274163636466, -3553.1897608267977, -7135.772065612325, -4886.963055963881, -6493.494688689076, -4210.331047812825, -4666.776021334651, -4354.611558271832, 0.214, 1.004, 0.10400000000000001, 192.0, 0.0, 0.0, 0.0, 0.0, 0.0, 0.0, 0.0, 0.0, 0.0, 1.739820425579704E9, 0.0, 2025-02-17 16:27:05.579
52.0, 3208.6599717926947, -3532.4249902278175, -7146.098571550677, -4926.480940160864, -6461.889322029272, -4184.894762622686, -4652.15798046088, -4354.008061171539, 0.214, 1.004, 0.10400000000000001, 192.0, 0.0, 0.0, 0.0, 0.0, 0.0, 0.0, 0.0, 0.0, 0.0, 1.7398204255797455E9, 0.0, 2025-02-17 16:27:05.579
53.0, 3208.3917508592313, -3498.338579933474, -7122.070446261221, -5003.03566492029, -6430.552176302931, -4155.032832030396, -4620.3737998454335, -4329.197624826148, 0.214, 1.004, 0.10400000000000001, 192.0, 0.0, 0.0, 0.0, 0.0, 0.0, 0.0, 0.0, 0.0, 0.0, 1.739820425579786E9, 0.0, 2025-02-17 16:27:05.579
54.0, 3209.554041570907, -3503.412425924829, -7105.820728042213, -4973.084327350179, -6441.526882830487, -4160.240788488482, -4622.787788246606, -4321.642735200255, 0.214, 1.004, 0.10400000000000001, 192.0, 0.0, 0.0, 0.0, 0.0, 0.0, 0.0, 0.0, 0.0, 0.0, 1.739820425579836E9, 0.0, 2025-02-17 16:27:05.579
55.0, 3209.174061915167, -3525.607708168949, -7110.358132166641, -4886.53837281923, -6468.259569199035, -4179.73150965351, -4642.0326402226265, -4329.510549248523, 0.214, 1.004, 0.10400000000000001, 192.0, 0.0, 0.0, 0.0, 0.0, 0.0, 0.0, 0.0, 0.0, 0.0, 1.739820425579877E9, 0.0, 2025-02-17 16:27:05.579
56.0, 3209.8893177377367, -3514.185966752287, -7122.919812550523, -4895.2555531568, -6447.2489294110455, -4168.622692659223, -4632.779018018129, -4330.963412638118, 0.214, 1.004, 0.10400000000000001, 192.0, 0.0, 0.0, 0.0, 0.0, 0.0, 0.0, 0.0, 0.0, 0.0, 1.7398204255799396E9, 0.0, 2025-02-17 16:27:05.579
57.0, 3209.5093380819962, -3476.7467947896475, -7103.652608830048, -4980.79567918726, -6406.702864969118, -4130.445913129558, -4599.676084479819, -4308.701075160632, 0.214, 1.004, 0.10400000000000001, 192.0, 0.0, 0.0, 0.0, 0.0, 0.0, 0.0, 0.0, 0.0, 0.0, 1.739820425579981E9, 0.0, 2025-02-17 16:27:05.579
58.0, 3210.0457799489236, -3476.277408156086, -7083.513687075817, -4964.680071434984, -6412.134338871759, -4130.937651507575, -4595.831584433507, -4297.704016888621, 0.228, 0.992, 0.108, 192.0, 7.0, 32.0, 31.0, 0.0, 3.0, 96.0, 0.0, 0.0, 0.0, 1.7398204255800292E9, 0.0, 2025-02-17 16:27:05.580
59.0, 3211.297477638421, -3496.9751235217004, -7084.675977787492, -4881.598637294607, -6443.762057276018, -4157.737393109488, -4612.461282308255, -4302.621400668789, 0.228, 0.992, 0.108, 192.0, 0.0, 0.0, 0.0, 0.0, 0.0, 0.0, 0.0, 0.0, 0.0, 1.739820425580073E9, 0.0, 2025-02-17 16:27:05.580
60.0, 3210.805739260404, -3494.9858182651783, -7098.444652371962, -4861.146791118002, -6430.328658858378, -4152.77530584041, -4613.265945108646, -4308.611668182811, 0.228, 0.992, 0.108, 192.0, 0.0, 0.0, 0.0, 0.0, 0.0, 0.0, 0.0, 0.0, 0.0, 1.7398204255801313E9, 0.0, 2025-02-17 16:27:05.580
61.0, 3209.844614248826, -3456.294948613042, -7084.206591153931, -4950.5537689392295, -6384.328768769356, -4107.71418901851, -4579.559514470043, -4289.188002251149, 0.228, 0.992, 0.108, 192.0, 0.0, 0.0, 0.0, 0.0, 0.0, 0.0, 0.0, 0.0, 0.0, 1.7398204255801718E9, 0.0, 2025-02-17 16:27:05.580
62.0, 3209.7999107599153, -3449.3659078318965, -7060.692555986948, -4952.6101294291175, -6383.702919924608, -4100.874555215187, -4569.836505631984, -4273.787650321442, 0.228, 0.992, 0.108, 192.0, 0.0, 0.0, 0.0, 0.0, 0.0, 0.0, 0.0, 0.0, 0.0, 1.7398204255802214E9, 0.0, 2025-02-17 16:27:05.580
63.0, 3208.2799921369547, -3465.0121289506114, -7054.67993672847, -4875.340148847121, -6405.540574257443, -4122.9580787370305, -4581.705281937752, -4274.033519510451, 0.228, 0.992, 0.108, 192.0, 0.0, 0.0, 0.0, 0.0, 0.0, 0.0, 0.0, 0.0, 0.0, 1.7398204255802631E9, 0.0, 2025-02-17 16:27:05.580
64.0, 3206.648314791717, -3470.6000650644382, -7065.967567678401, -4828.915575613449, -6405.428815535166, -4126.243785171961, -4587.00264537366, -4279.532048646456, 0.228, 0.992, 0.108, 192.0, 0.0, 0.0, 0.0, 0.0, 0.0, 0.0, 0.0, 0.0, 0.0, 1.739820425580322E9, 0.0, 2025-02-17 16:27:05.580
65.0, 3202.8038147454045, -3405.7129509106817, -7057.496256529839, -4913.092245232135, -6358.0878207788255, -4084.0213398958854, -4553.85500834644, -4262.455315882601, 0.228, 0.992, 0.108, 192.0, 0.0, 0.0, 0.0, 0.0, 0.0, 0.0, 0.0, 0.0, 0.0, 1.7398204255803657E9, 0.0, 2025-02-17 16:27:05.580
66.0, 3197.5064513094967, -3348.4254298717296, -7032.551709717716, -4932.314745463699, -6354.690355621619, -4070.18561007805, -4537.873511060895, -4243.679850540144, 0.228, 0.992, 0.108, 192.0, 0.0, 0.0, 0.0, 0.0, 0.0, 0.0, 0.0, 0.0, 0.0, 1.739820425580417E9, 0.0, 2025-02-17 16:27:05.580
67.0, 3204.4354920906417, -3410.518575968573, -7026.62849743706, -4866.779430720739, -6374.896332609217, -4093.2749621003823, -4550.301080978046, -4244.551568573901, 0.228, 0.992, 0.108, 192.0, 0.0, 0.0, 0.0, 0.0, 0.0, 0.0, 0.0, 0.0, 0.0, 1.7398204255804572E9, 0.0, 2025-02-17 16:27:05.580
68.0, 3208.615268303784, -3447.0189746640895, -7040.620689466083, -4804.105139268057, -6386.541591470432, -4104.42848258358, -4566.416688730323, -4256.375641390758, 0.22, 0.982, 0.11800000000000001, 192.0, 6.0, 224.0, 30.0, 176.0, 3.0, 176.0, 0.0, 0.0, 0.0, 1.7398204255804975E9, 0.0, 2025-02-17 16:27:05.580
69.0, 3204.100215923812, -3290.8920396437693, -7040.620689466083, -4878.737614004328, -6343.067448504859, -4070.5655897337906, -4539.505188406132, -4246.205597663593, 0.22, 0.982, 0.11800000000000001, 192.0, 0.0, 0.0, 0.0, 0.0, 0.0, 0.0, 0.0, 0.0, 0.0, 1.739820425580541E9, 0.0, 2025-02-17 16:27:05.580
70.0, 3196.724140253561, -3055.6846327405733, -7012.81511936368, -4916.199137711423, -6326.795378541396, -4046.4927609554247, -4516.237022428158, -4223.675039252644, 0.22, 0.982, 0.11800000000000001, 192.0, 0.0, 0.0, 0.0, 0.0, 0.0, 0.0, 0.0, 0.0, 0.0, 1.7398204255805812E9, 0.0, 2025-02-17 16:27:05.580
71.0, 3193.9301721966476, -3123.4551219290643, -6998.554706401194, -4858.129305616535, -6340.16172172567, -4055.9922523489304, -4519.388618396356, -4217.193033360605, 0.22, 0.982, 0.11800000000000001, 192.0, 0.0, 0.0, 0.0, 0.0, 0.0, 0.0, 0.0, 0.0, 0.0, 1.7398204255806212E9, 0.0, 2025-02-17 16:27:05.580
72.0, 3199.518108310474, -3327.9288802062133, -7007.741273372326, -4780.188772700879, -6359.6747946351525, -4076.7570229479106, -4535.928909293283, -4225.887861953719, 0.22, 0.982, 0.11800000000000001, 192.0, 0.0, 0.0, 0.0, 0.0, 0.0, 0.0, 0.0, 0.0, 0.0, 1.7398204255806844E9, 0.0, 2025-02-17 16:27:05.580
73.0, 3199.518108310474, -3118.6047933822624, -7013.351561230607, -4833.855311138072, -6322.526195350432, -4052.058345324796, -4515.298249161035, -4219.316449083859, 0.22, 0.982, 0.11800000000000001, 192.0, 0.0, 0.0, 0.0, 0.0, 0.0, 0.0, 0.0, 0.0, 0.0, 1.7398204255807257E9, 0.0, 2025-02-17 16:27:05.580
74.0, 3196.3218088533654, -2767.7718124117628, -6990.664540608471, -4890.718149032373, -6299.369788094734, -4022.0846560102295, -4492.678283772264, -4199.73632094101, 0.22, 0.982, 0.11800000000000001, 192.0, 0.0, 0.0, 0.0, 0.0, 0.0, 0.0, 0.0, 0.0, 0.0, 1.7398204255807862E9, 0.0, 2025-02-17 16:27:05.580
75.0, 3196.9476576981137, -2844.6841650824745, -6978.259322435775, -4846.349936288588, -6316.848852258784, -4031.673554381556, -4497.618019296887, -4196.003579616974, 0.22, 0.982, 0.11800000000000001, 192.0, 0.0, 0.0, 0.0, 0.0, 0.0, 0.0, 0.0, 0.0, 0.0, 1.739820425580848E9, 0.0, 2025-02-17 16:27:05.580
76.0, 3193.684303007639, -3096.498918115964, -6982.148525970999, -4756.808848000628, -6341.100494992793, -4056.6404529381343, -4511.900784003828, -4201.1444808416945, 0.22, 0.982, 0.11800000000000001, 192.0, 0.0, 0.0, 0.0, 0.0, 0.0, 0.0, 0.0, 0.0, 0.0, 1.7398204255808892E9, 0.0, 2025-02-17 16:27:05.580
77.0, 3191.136204139734, -2923.2281950984234, -6990.5080783972835, -4782.669816335419, -6311.082102189315, -4031.4947404259137, -4496.031045440561, -4197.523498239934, 0.22, 0.982, 0.11800000000000001, 192.0, 0.0, 0.0, 0.0, 0.0, 0.0, 0.0, 0.0, 0.0, 0.0, 1.7398204255809307E9, 0.0, 2025-02-17 16:27:05.580
78.0, 3189.7950994724156, -2535.514835776667, -6969.47508686484, -4855.29063407071, -6274.693462216075, -3998.9953039878974, -4468.560751504988, -4176.512858451946, 0.22, 0.982, 0.134, 192.0, 6.0, 224.0, 30.0, 176.0, 4.0, 48.0, 0.0, 0.0, 0.0, 1.739820425580978E9, 0.0, 2025-02-17 16:27:05.580
79.0, 3188.096366893812, -2558.2465598877147, -6950.990194200301, -4827.216843034845, -6283.857677442751, -4000.5375743553136, -4465.677376470253, -4166.275759491416, 0.22, 0.982, 0.134, 192.0, 0.0, 0.0, 0.0, 0.0, 0.0, 0.0, 0.0, 0.0, 0.0, 1.739820425581034E9, 0.0, 2025-02-17 16:27:05.581
80.0, 3187.425814560153, -2790.190612100436, -6953.4041826014745, -4746.325879851089, -6306.321180620334, -4019.447150164503, -4481.122431888871, -4171.908399094153, 0.22, 0.982, 0.134, 192.0, 0.0, 0.0, 0.0, 0.0, 0.0, 0.0, 0.0, 0.0, 0.0, 1.7398204255810845E9, 0.0, 2025-02-17 16:27:05.581
81.0, 3190.555058783896, -2619.8256158620857, -6965.988214729812, -4758.5522840681415, -6284.729395476508, -4010.1711762155505, -4474.282798085546, -4173.54007643939, 0.22, 0.982, 0.134, 192.0, 0.0, 0.0, 0.0, 0.0, 0.0, 0.0, 0.0, 0.0, 0.0, 1.7398204255811367E9, 0.0, 2025-02-17 16:27:05.581
82.0, 3192.566715784874, -2116.3972754952047, -6948.531502310218, -4850.753229946284, -6241.8587496112295, -3968.4181175730373, -4443.325632014947, -4154.094058763273, 0.22, 0.982, 0.134, 192.0, 0.0, 0.0, 0.0, 0.0, 0.0, 0.0, 0.0, 0.0, 0.0, 1.7398204255811796E9, 0.0, 2025-02-17 16:27:05.581
83.0, 3192.7008262516056, -2006.2031753305407, -6923.7657694537365, -4840.67259319694, -6245.412676979623, -3968.038137917297, -4432.328573742935, -4137.218491699516, 0.22, 0.982, 0.134, 192.0, 0.0, 0.0, 0.0, 0.0, 0.0, 0.0, 0.0, 0.0, 0.0, 1.7398204255812228E9, 0.0, 2025-02-17 16:27:05.581
84.0, 3192.901991951703, -2220.802273845944, -6919.340124051586, -4759.982795713281, -6264.657528955642, -3982.007978201864, -4445.605509949388, -4138.447837644558, 0.22, 0.982, 0.134, 192.0, 0.0, 0.0, 0.0, 0.0, 0.0, 0.0, 0.0, 0.0, 0.0, 1.7398204255812669E9, 0.0, 2025-02-17 16:27:05.581
85.0, 3192.522012295963, -2190.0015699865307, -6928.839615445092, -4732.333687822066, -6256.81206665183, -3976.5094490658585, -4443.5715012039545, -4140.973584768008, 0.22, 0.982, 0.134, 192.0, 0.0, 0.0, 0.0, 0.0, 0.0, 0.0, 0.0, 0.0, 0.0, 1.7398204255813093E9, 0.0, 2025-02-17 16:27:05.581
86.0, 3190.7338727395386, -1727.432218483951, -6913.640429215483, -4810.9671248158365, -6213.85201380873, -3937.4162480135265, -4409.686256609709, -4120.633497313678, 0.22, 0.982, 0.134, 192.0, 0.0, 0.0, 0.0, 0.0, 0.0, 0.0, 0.0, 0.0, 0.0, 1.7398204255813525E9, 0.0, 2025-02-17 16:27:05.581
87.0, 3189.996265172513, -1679.9124097719682, -6890.394614981964, -4803.2334212343, -6213.986124275461, -3936.164550324029, -4401.974904772628, -4106.641305284656, 0.22, 0.982, 0.134, 192.0, 0.0, 0.0, 0.0, 0.0, 0.0, 0.0, 0.0, 0.0, 0.0, 1.7398204255813925E9, 0.0, 2025-02-17 16:27:05.581
88.0, 3192.365550084776, -1938.9914797534325, -6890.975760337801, -4721.403684783421, -6248.0278310808935, -3961.35496632516, -4420.660963137265, -4113.302125132337, 0.198, 0.986, 0.134, 192.0, 6.0, 48.0, 30.0, 208.0, 4.0, 48.0, 0.0, 0.0, 0.0, 1.739820425581457E9, 0.0, 2025-02-17 16:27:05.581
89.0, 3192.164384384678, -2105.4002172231935, -6907.292533790176, -4666.038413767626, -6255.403906751145, -3971.4356030745034, -4432.373277231846, -4124.835625271276, 0.198, 0.986, 0.134, 192.0, 0.0, 0.0, 0.0, 0.0, 0.0, 0.0, 0.0, 0.0, 0.0, 1.7398204255815E9, 0.0, 2025-02-17 16:27:05.581
90.0, 3190.4656518060747, -1700.5654216486719, -6903.60449595505, -4745.409458328421, -6210.409845162612, -3937.5280067358026, -4405.059445507461, -4113.369180365704, 0.198, 0.986, 0.134, 192.0, 0.0, 0.0, 0.0, 0.0, 0.0, 0.0, 0.0, 0.0, 0.0, 1.739820425581547E9, 0.0, 2025-02-17 16:27:05.581
91.0, 3189.169250627667, -1554.3850129109637, -6881.588027666572, -4768.342348139567, -6203.614914848199, -3930.5766142102025, -4390.463756378145, -4095.934819690564, 0.198, 0.986, 0.134, 192.0, 0.0, 0.0, 0.0, 0.0, 0.0, 0.0, 0.0, 0.0, 0.0, 1.739820425581597E9, 0.0, 2025-02-17 16:27:05.581
92.0, 3188.074015149357, -1722.7160004038813, -6875.083670030078, -4709.691370688841, -6219.998743533939, -3939.807884670244, -4400.767910572042, -4096.828889468777, 0.198, 0.986, 0.134, 192.0, 0.0, 0.0, 0.0, 0.0, 0.0, 0.0, 0.0, 0.0, 0.0, 1.7398204255816364E9, 0.0, 2025-02-17 16:27:05.581
93.0, 3187.045834904413, -1895.9643716769663, -6886.5501149356505, -4646.502989113687, -6234.370915218701, -3948.5921202411796, -4412.413169433256, -4105.210793639516, 0.198, 0.986, 0.134, 192.0, 0.0, 0.0, 0.0, 0.0, 0.0, 0.0, 0.0, 0.0, 0.0, 1.739820425581673E9, 0.0, 2025-02-17 16:27:05.581
94.0, 3187.0234831599573, -1456.4620204522635, -6885.968969579812, -4724.1529493514245, -6188.885115252151, -3913.0304948127864, -4383.91469525274, -4093.230258611472, 0.198, 0.986, 0.134, 192.0, 0.0, 0.0, 0.0, 0.0, 0.0, 0.0, 0.0, 0.0, 0.0, 1.7398204255817142E9, 0.0, 2025-02-17 16:27:05.581
95.0, 3186.419986059664, -1195.2818864920005, -6859.705669844827, -4767.560037083631, -6171.495458065922, -3896.557259149225, -4358.724279251609, -4067.23517980995, 0.198, 0.986, 0.134, 192.0, 0.0, 0.0, 0.0, 0.0, 0.0, 0.0, 0.0, 0.0, 0.0, 1.739820425581755E9, 0.0, 2025-02-17 16:27:05.581
96.0, 3187.4481663046085, -1304.3136959449882, -6849.40151565093, -4717.067446359092, -6186.828754762263, -3908.358980221627, -4364.602788043355, -4063.770659419377, 0.198, 0.986, 0.134, 192.0, 0.0, 0.0, 0.0, 0.0, 0.0, 0.0, 0.0, 0.0, 0.0, 1.7398204255817971E9, 0.0, 2025-02-17 16:27:05.581
97.0, 3187.6716837491613, -1499.8691081844697, -6857.246977954743, -4641.25032916669, -6205.872441038185, -3922.5299862062916, -4381.545410340477, -4073.42661302407, 0.198, 0.986, 0.134, 192.0, 0.0, 0.0, 0.0, 0.0, 0.0, 0.0, 0.0, 0.0, 0.0, 1.739820425581834E9, 0.0, 2025-02-17 16:27:05.581
98.0, 3185.9953029150133, -1096.8448039108282, -6858.6104343665165, -4698.470794972276, -6159.336109082235, -3887.3259886891833, -4352.510494293034, -4058.763868661388, 0.18, 0.974, 0.14, 192.0, 5.0, 160.0, 30.0, 112.0, 4.0, 96.0, 0.0, 0.0, 0.0, 1.7398204255818696E9, 0.0, 2025-02-17 16:27:05.581
99.0, 3184.9224191811586, -696.2791915272703, -6829.217890407788, -4762.530894581187, -6130.211786056971, -3855.497104584826, -4322.38034276728, -4033.126417771151, 0.18, 0.974, 0.14, 192.0, 0.0, 0.0, 0.0, 0.0, 0.0, 0.0, 0.0, 0.0, 0.0, 1.7398204255819085E9, 0.0, 2025-02-17 16:27:05.581
100.0, 3182.754299968994, -731.7290582333873, -6809.280134353654, -4716.687466703352, -6141.007678628884, -3858.268720897284, -4321.776845666986, -4024.4762926669473, 0.18, 0.974, 0.14, 192.0, 0.0, 0.0, 0.0, 0.0, 0.0, 0.0, 0.0, 0.0, 0.0, 1.7398204255819445E9, 0.0, 2025-02-17 16:27:05.581
101.0, 3182.8660586912706, -958.308691776835, -6812.990523933235, -4628.286317382613, -6164.4546585625, -3874.71960481639, -4336.3278313073915, -4029.103103769196, 0.18, 0.974, 0.14, 192.0, 0.0, 0.0, 0.0, 0.0, 0.0, 0.0, 0.0, 0.0, 0.0, 1.7398204255819802E9, 0.0, 2025-02-17 16:27:05.581
102.0, 3180.8991051792036, -712.1936335794489, -6817.930259457858, -4652.403849649889, -6125.026181343339, -3849.3503748596163, -4319.295802032448, -4024.096313011207, 0.18, 0.974, 0.14, 192.0, 0.0, 0.0, 0.0, 0.0, 0.0, 0.0, 0.0, 0.0, 0.0, 1.7398204255820165E9, 0.0, 2025-02-17 16:27:05.582
103.0, 3179.289779578421, -285.34236971645, -6792.672788223361, -4724.890556918449, -6090.11275650415, -3812.268830808262, -4288.159822006205, -4001.543402855802, 0.18, 0.974, 0.14, 192.0, 0.0, 0.0, 0.0, 0.0, 0.0, 0.0, 0.0, 0.0, 0.0, 1.7398204255820568E9, 0.0, 2025-02-17 16:27:05.582
104.0, 3178.887448178226, -307.11296881591903, -6772.310349024577, -4689.105414045503, -6101.132166520616, -3818.9520024003987, -4285.9693510495845, -3991.328655639727, 0.18, 0.974, 0.14, 192.0, 0.0, 0.0, 0.0, 0.0, 0.0, 0.0, 0.0, 0.0, 0.0, 1.7398204255821123E9, 0.0, 2025-02-17 16:27:05.582
105.0, 3180.6755877346504, -588.3202658081372, -6776.4901252377185, -4595.228087333213, -6132.514015735867, -3848.9927469483314, -4304.923630347685, -3998.5929725877018, 0.18, 0.974, 0.14, 192.0, 0.0, 0.0, 0.0, 0.0, 0.0, 0.0, 0.0, 0.0, 0.0, 1.7398204255821624E9, 0.0, 2025-02-17 16:27:05.582
106.0, 3181.3908435572203, -516.459407384325, -6791.130517855945, -4590.266000064135, -6113.626791671132, -3839.917938699477, -4301.637923912755, -4002.7280453119333, 0.18, 0.974, 0.14, 192.0, 0.0, 0.0, 0.0, 0.0, 0.0, 0.0, 0.0, 0.0, 0.0, 1.7398204255822024E9, 0.0, 2025-02-17 16:27:05.582
107.0, 3181.212029601578, -86.99298942005508, -6775.90897988188, -4675.046166783115, -6074.555942363256, -3797.5390312122145, -4272.804173565409, -3985.070167192241, 0.18, 0.974, 0.14, 192.0, 0.0, 0.0, 0.0, 0.0, 0.0, 0.0, 0.0, 0.0, 0.0, 1.7398204255822475E9, 0.0, 2025-02-17 16:27:05.582
108.0, 3179.53564876743, -87.55178303143776, -6754.451305204786, -4655.823666551551, -6083.228419211915, -3800.8470893916, -4267.551513618411, -3972.5978937861796, 0.17, 0.964, 0.14200000000000002, 192.0, 5.0, 80.0, 30.0, 32.0, 4.0, 112.0, 0.0, 0.0, 0.0, 1.7398204255822875E9, 0.0, 2025-02-17 16:27:05.582
109.0, 3179.0662621338683, -410.8921183219097, -6756.842941861504, -4564.2038660292465, -6115.929021350029, -3828.3173833271726, -4288.428042939669, -3980.7786322568218, 0.17, 0.964, 0.14200000000000002, 192.0, 0.0, 0.0, 0.0, 0.0, 0.0, 0.0, 0.0, 0.0, 0.0, 1.7398204255823324E9, 0.0, 2025-02-17 16:27:05.582
110.0, 3177.166363855167, -497.66159029741175, -6773.606750202984, -4529.044572001048, -6112.956239337474, -3831.7372002288344, -4294.4183104536905, -3990.2334201614167, 0.17, 0.964, 0.14200000000000002, 192.0, 0.0, 0.0, 0.0, 0.0, 0.0, 0.0, 0.0, 0.0, 0.0, 1.739820425582368E9, 0.0, 2025-02-17 16:27:05.582
111.0, 3177.1440121107116, -80.91331492821156, -6766.4541919772855, -4619.2562126226685, -6072.164305706538, -3801.294124280706, -4265.651615339711, -3975.7271380099223, 0.17, 0.964, 0.14200000000000002, 192.0, 0.0, 0.0, 0.0, 0.0, 0.0, 0.0, 0.0, 0.0, 0.0, 1.7398204255824084E9, 0.0, 2025-02-17 16:27:05.582
112.0, 3178.887448178226, -76.28650382596301, -6750.204473758277, -4624.017134191648, -6083.831916312208, -3801.495289980804, -4263.818772294375, -3968.0157861728417, 0.17, 0.964, 0.14200000000000002, 192.0, 0.0, 0.0, 0.0, 0.0, 0.0, 0.0, 0.0, 0.0, 0.0, 1.7398204255824502E9, 0.0, 2025-02-17 16:27:05.582
113.0, 3178.5074685224854, -438.9659093577754, -6753.512531937663, -4540.578072139987, -6119.30413476278, -3829.0996943831083, -4287.511621417001, -3978.9234374670314, 0.17, 0.964, 0.14200000000000002, 192.0, 0.0, 0.0, 0.0, 0.0, 0.0, 0.0, 0.0, 0.0, 0.0, 1.739820425582486E9, 0.0, 2025-02-17 16:27:05.582
114.0, 3177.322826066354, -705.353999776125, -6775.305482781588, -4481.994149922628, -6131.575242468744, -3852.367860361083, -4306.108272803816, -3995.575487086235, 0.17, 0.964, 0.14200000000000002, 192.0, 0.0, 0.0, 0.0, 0.0, 0.0, 0.0, 0.0, 0.0, 0.0, 1.7398204255825217E9, 0.0, 2025-02-17 16:27:05.582
115.0, 3178.239247589022, -349.3577658364494, -6781.116936339968, -4574.195095800769, -6094.4713466729345, -3819.6002029896026, -4285.209391738104, -3991.395710873093, 0.17, 0.964, 0.14200000000000002, 192.0, 0.0, 0.0, 0.0, 0.0, 0.0, 0.0, 0.0, 0.0, 0.0, 1.7398204255825574E9, 0.0, 2025-02-17 16:27:05.582
116.0, 3177.9933784000136, -242.13644768434142, -6763.660223920372, -4608.795596217585, -6093.577276894722, -3813.1852523309294, -4276.671025356177, -3981.0468531902857, 0.17, 0.964, 0.14200000000000002, 192.0, 0.0, 0.0, 0.0, 0.0, 0.0, 0.0, 0.0, 0.0, 0.0, 1.739820425582597E9, 0.0, 2025-02-17 16:27:05.582
117.0, 3177.658102233184, -510.8714712704982, -6762.877912864436, -4549.161142010826, -6125.339105765714, -3836.721639242368, -4293.23366799756, -3986.6571410485676, 0.17, 0.964, 0.14200000000000002, 192.0, 0.0, 0.0, 0.0, 0.0, 0.0, 0.0, 0.0, 0.0, 0.0, 1.7398204255826323E9, 0.0, 2025-02-17 16:27:05.582
118.0, 3179.0439103894128, -816.5315766968223, -6783.575628230051, -4485.168097635281, -6148.093181621216, -3861.8002965212227, -4316.390075253257, -4004.2032604459837, 0.158, 0.974, 0.132, 192.0, 4.0, 240.0, 30.0, 112.0, 4.0, 32.0, 0.0, 0.0, 0.0, 1.739820425582667E9, 0.0, 2025-02-17 16:27:05.582
119.0, 3179.9826836565358, -498.7568257757218, -6792.784546945638, -4567.33311025299, -6109.02233231334, -3835.268775852773, -4297.949886077629, -4002.102196467185, 0.158, 0.974, 0.132, 192.0, 0.0, 0.0, 0.0, 0.0, 0.0, 0.0, 0.0, 0.0, 0.0, 1.73982042558274E9, 0.0, 2025-02-17 16:27:05.582
120.0, 3178.6415789892176, -325.79902718055575, -6773.472639736252, -4621.3125731125565, -6097.712349618954, -3816.582717488136, -4283.1530312482155, -3988.64644630509, 0.158, 0.974, 0.132, 192.0, 0.0, 0.0, 0.0, 0.0, 0.0, 0.0, 0.0, 0.0, 0.0, 1.739820425582776E9, 0.0, 2025-02-17 16:27:05.582
121.0, 3177.4792882775414, -590.5554402536679, -6768.599959444995, -4566.059060819038, -6125.853195888186, -3840.633194522047, -4297.368740721791, -3992.1780219290285, 0.158, 0.974, 0.132, 192.0, 0.0, 0.0, 0.0, 0.0, 0.0, 0.0, 0.0, 0.0, 0.0, 1.7398204260567384E9, 0.0, 2025-02-17 16:27:06.056
122.0, 3176.205238843589, -1015.8420820047954, -6786.906038153892, -4478.373167320868, -6160.0960683937155, -3873.9819972493647, -4324.548461979444, -4009.634734348623, 0.158, 0.974, 0.132, 192.0, 0.0, 0.0, 0.0, 0.0, 0.0, 0.0, 0.0, 0.0, 0.0, 1.739820426056864E9, 0.0, 2025-02-17 16:27:06.056
123.0, 3175.4676312765637, -836.8716641511518, -6804.340398829031, -4533.51492089211, -6133.318678536258, -3854.983014462354, -4313.372589751791, -4013.7474553284, 0.158, 0.974, 0.132, 192.0, 0.0, 0.0, 0.0, 0.0, 0.0, 0.0, 0.0, 0.0, 0.0, 1.7398204260569732E9, 0.0, 2025-02-17 16:27:06.056
124.0, 3176.428756288142, -606.0004956722851, -6791.957532400791, -4611.142529385392, -6114.856137616174, -3837.8392264651334, -4299.223935511582, -4004.5608883572686, 0.158, 0.974, 0.132, 192.0, 0.0, 0.0, 0.0, 0.0, 0.0, 0.0, 0.0, 0.0, 0.0, 1.7398204260570235E9, 0.0, 2025-02-17 16:27:06.057
125.0, 3176.7416807105164, -809.6695911490431, -6787.062500365079, -4578.151354569359, -6141.991155384917, -3855.877084240566, -4311.740912406553, -4007.9136500255645, 0.158, 0.974, 0.132, 192.0, 0.0, 0.0, 0.0, 0.0, 0.0, 0.0, 0.0, 0.0, 0.0, 1.739820426057084E9, 0.0, 2025-02-17 16:27:06.057
126.0, 3174.7747271984495, -1207.910622109249, -6800.428843549353, -4496.075748929471, -6172.993024944428, -3885.649607855035, -4335.612575484822, -4021.5035106543914, 0.158, 0.974, 0.132, 192.0, 0.0, 0.0, 0.0, 0.0, 0.0, 0.0, 0.0, 0.0, 0.0, 1.7398204260571437E9, 0.0, 2025-02-17 16:27:06.057
127.0, 3172.9642358975693, -1095.079016098859, -6816.96913444628, -4532.464388902711, -6148.048478132306, -3868.0587849687086, -4326.9400986361625, -4025.3480107007044, 0.158, 0.974, 0.132, 192.0, 0.0, 0.0, 0.0, 0.0, 0.0, 0.0, 0.0, 0.0, 0.0, 1.7398204260572047E9, 0.0, 2025-02-17 16:27:06.057
128.0, 3171.6678347191614, -765.7037098054541, -6801.680541238849, -4623.905375469372, -6121.628716186133, -3839.5156072992813, -4304.208374525115, -4011.1546529715843, 0.14400000000000002, 0.982, 0.126, 192.0, 4.0, 128.0, 30.0, 176.0, 3.0, 240.0, 0.0, 0.0, 0.0, 1.739820426057316E9, 0.0, 2025-02-17 16:27:06.057
129.0, 3172.2266283305444, -906.3855894071567, -6790.81759343357, -4602.58181125901, -6141.07473386225, -3858.5369418307478, -4312.1432438067495, -4010.5288041268354, 0.14400000000000002, 0.982, 0.126, 192.0, 0.0, 0.0, 0.0, 0.0, 0.0, 0.0, 0.0, 0.0, 0.0, 1.7398204260573664E9, 0.0, 2025-02-17 16:27:06.057
130.0, 3170.6620062186726, -1327.2465857561333, -6801.658189494395, -4513.577164837976, -6178.066870935782, -3888.845907312144, -4338.406543541735, -4024.6551066225898, 0.14400000000000002, 0.982, 0.126, 192.0, 0.0, 0.0, 0.0, 0.0, 0.0, 0.0, 0.0, 0.0, 0.0, 1.7398204260574112E9, 0.0, 2025-02-17 16:27:06.057
131.0, 3168.3597765397762, -1350.4700482451974, -6822.959401960302, -4513.443054371244, -6167.673309764065, -3888.465927656404, -4338.942985408662, -4033.8193218492656, 0.14400000000000002, 0.982, 0.126, 192.0, 0.0, 0.0, 0.0, 0.0, 0.0, 0.0, 0.0, 0.0, 0.0, 1.7398204260574565E9, 0.0, 2025-02-17 16:27:06.057
132.0, 3168.471535262053, -1006.9907912004937, -6816.656210023905, -4613.757683486662, -6136.157350082082, -3860.9509302319207, -4317.775883409487, -4025.1244932561513, 0.14400000000000002, 0.982, 0.126, 192.0, 0.0, 0.0, 0.0, 0.0, 0.0, 0.0, 0.0, 0.0, 0.0, 1.7398204260575008E9, 0.0, 2025-02-17 16:27:06.057
133.0, 3167.5104102504743, -1129.8583304713168, -6804.608619762495, -4607.186270616802, -6152.608234001188, -3871.0539187257195, -4323.363819523313, -4022.8893188106204, 0.14400000000000002, 0.982, 0.126, 192.0, 0.0, 0.0, 0.0, 0.0, 0.0, 0.0, 0.0, 0.0, 0.0, 1.7398204260575447E9, 0.0, 2025-02-17 16:27:06.057
134.0, 3166.4375265166195, -1559.0788792465783, -6814.197518133822, -4522.696676575742, -6194.60716183271, -3903.5980586526466, -4348.509532035534, -4035.4286474500477, 0.14400000000000002, 0.982, 0.126, 192.0, 0.0, 0.0, 0.0, 0.0, 0.0, 0.0, 0.0, 0.0, 0.0, 1.7398204260575883E9, 0.0, 2025-02-17 16:27:06.057
135.0, 3166.81750617236, -1752.399117040529, -6841.4666463692965, -4496.835708240951, -6200.865650280196, -3918.327858248694, -4360.311253107936, -4049.3984877346147, 0.14400000000000002, 0.982, 0.126, 192.0, 0.0, 0.0, 0.0, 0.0, 0.0, 0.0, 0.0, 0.0, 0.0, 1.7398204260576773E9, 0.0, 2025-02-17 16:27:06.057
136.0, 3168.180962584134, -1411.155034441356, -6844.6405940819495, -4602.492404281188, -6168.343862097724, -3892.1763172359847, -4341.356973809836, -4045.9786708329525, 0.14400000000000002, 0.982, 0.126, 192.0, 0.0, 0.0, 0.0, 0.0, 0.0, 0.0, 0.0, 0.0, 0.0, 1.7398204260577197E9, 0.0, 2025-02-17 16:27:06.057
137.0, 3170.3267300518432, -1482.4570992537856, -6834.649364310428, -4619.993820189693, -6184.951208228017, -3899.4182824395043, -4346.207302356637, -4045.9116155995866, 0.14400000000000002, 0.982, 0.126, 192.0, 0.0, 0.0, 0.0, 0.0, 0.0, 0.0, 0.0, 0.0, 0.0, 1.739820426057774E9, 0.0, 2025-02-17 16:27:06.057
138.0, 3171.1984480856, -1914.002229452399, -6844.4617801263075, -4546.814208843018, -6227.464226182012, -3938.4444282584705, -4376.896247493773, -4064.5306187308574, 0.122, 0.998, 0.114, 192.0, 3.0, 208.0, 31.0, 48.0, 3.0, 144.0, 0.0, 0.0, 0.0, 1.739820426057851E9, 0.0, 2025-02-17 16:27:06.057
139.0, 3170.684357963128, -2275.9663791616417, -6873.764917107215, -4496.3439698629345, -6244.943290346061, -3962.9866436703974, -4409.954477543173, -4096.203040624027, 0.122, 0.998, 0.114, 192.0, 0.0, 0.0, 0.0, 0.0, 0.0, 0.0, 0.0, 0.0, 0.0, 1.7398204260579045E9, 0.0, 2025-02-17 16:27:06.057
140.0, 3168.3150730508655, -1982.6667884191024, -6882.593856167061, -4593.417596032333, -6210.588659118254, -3938.1538555805514, -4390.709625567153, -4092.8502789557315, 0.122, 0.998, 0.114, 192.0, 0.0, 0.0, 0.0, 0.0, 0.0, 0.0, 0.0, 0.0, 0.0, 1.739820426057946E9, 0.0, 2025-02-17 16:27:06.057
141.0, 3168.203314328589, -2003.96800088501, -6872.5802746510835, -4632.600204062486, -6219.797577833841, -3938.8914631475764, -4390.3296459114135, -4089.452813798525, 0.122, 0.998, 0.114, 192.0, 0.0, 0.0, 0.0, 0.0, 0.0, 0.0, 0.0, 0.0, 0.0, 1.739820426057994E9, 0.0, 2025-02-17 16:27:06.057
142.0, 3170.2820265629325, -2422.236194877171, -6882.951484078346, -4573.390433000378, -6265.439840011578, -3978.0517194332747, -4421.1527015152815, -4109.211755897017, 0.122, 0.998, 0.114, 192.0, 0.0, 0.0, 0.0, 0.0, 0.0, 0.0, 0.0, 0.0, 0.0, 1.739820426058035E9, 0.0, 2025-02-17 16:27:06.058
143.0, 3170.3267300518432, -2893.701540672963, -6914.825071671614, -4506.916344990295, -6300.755596250963, -4013.5015861393913, -4456.379050776845, -4138.671355089111, 0.122, 0.998, 0.114, 192.0, 0.0, 0.0, 0.0, 0.0, 0.0, 0.0, 0.0, 0.0, 0.0, 1.7398204260581105E9, 0.0, 2025-02-17 16:27:06.058
144.0, 3169.3209015513544, -2716.899242031484, -6934.382848070008, -4592.456471020755, -6271.787735436886, -3991.5521730842797, -4445.940786116217, -4144.81808481432, 0.122, 0.998, 0.114, 192.0, 0.0, 0.0, 0.0, 0.0, 0.0, 0.0, 0.0, 0.0, 0.0, 1.7398204260581548E9, 0.0, 2025-02-17 16:27:06.058
145.0, 3167.555113739385, -2661.9139506714287, -6924.391618298486, -4654.370803161955, -6270.379575536201, -3989.2722951498386, -4439.615242435365, -4139.096038233762, 0.122, 0.998, 0.114, 192.0, 0.0, 0.0, 0.0, 0.0, 0.0, 0.0, 0.0, 0.0, 0.0, 1.7398204260581987E9, 0.0, 2025-02-17 16:27:06.058
146.0, 3170.48319226303, -3007.1366437836464, -6933.287612591697, -4611.2766398521235, -6312.177337667625, -4029.4383799360253, -4469.924207916762, -4158.899683821164, 0.122, 0.998, 0.114, 192.0, 0.0, 0.0, 0.0, 0.0, 0.0, 0.0, 0.0, 0.0, 0.0, 1.739820426058241E9, 0.0, 2025-02-17 16:27:06.058
147.0, 3177.903971422192, -3347.1513804377773, -6964.512999595761, -4536.487702904667, -6360.032422546437, -4073.5830752352567, -4509.822071769485, -4189.8792016362195, 0.122, 0.998, 0.114, 192.0, 0.0, 0.0, 0.0, 0.0, 0.0, 0.0, 0.0, 0.0, 0.0, 1.739820426058282E9, 0.0, 2025-02-17 16:27:06.058
148.0, 3178.7533377114937, -3379.1143750088663, -6991.357444686586, -4606.62747700542, -6336.987774013016, -4061.289615784838, -4506.2010891677255, -4201.390350030702, 0.108, 0.998, 0.10200000000000001, 192.0, 3.0, 96.0, 31.0, 48.0, 3.0, 48.0, 0.0, 0.0, 0.0, 1.739820426058323E9, 0.0, 2025-02-17 16:27:06.058
149.0, 3171.064337618868, -3300.1456618482666, -6982.327339926642, -4698.426091483366, -6322.168567439147, -4044.034069065341, -4492.857097727907, -4193.768405171443, 0.108, 0.998, 0.10200000000000001, 192.0, 0.0, 0.0, 0.0, 0.0, 0.0, 0.0, 0.0, 0.0, 0.0, 1.7398204260583751E9, 0.0, 2025-02-17 16:27:06.058
150.0, 3175.266465576466, -3387.8315553464363, -6980.941531770412, -4674.621483638463, -6350.890559064217, -4065.8270199092653, -4512.07959795947, -4204.609001232267, 0.108, 0.998, 0.10200000000000001, 192.0, 0.0, 0.0, 0.0, 0.0, 0.0, 0.0, 0.0, 0.0, 0.0, 1.7398204260584176E9, 0.0, 2025-02-17 16:27:06.058
151.0, 3176.8087359438823, -3449.924701443279, -7002.57802040315, -4599.3855118019, -6394.07412935187, -4105.389607595159, -4547.70827862123, -4230.492321311513, 0.108, 0.998, 0.10200000000000001, 192.0, 0.0, 0.0, 0.0, 0.0, 0.0, 0.0, 0.0, 0.0, 0.0, 1.7398204260584877E9, 0.0, 2025-02-17 16:27:06.058
152.0, 3177.367529555265, -3445.0743728964776, -7030.093017827633, -4645.2065879352795, -6379.009053588993, -4099.153470892128, -4548.04355478806, -4243.322222628859, 0.108, 0.998, 0.10200000000000001, 192.0, 0.0, 0.0, 0.0, 0.0, 0.0, 0.0, 0.0, 0.0, 0.0, 1.73982042605853E9, 0.0, 2025-02-17 16:27:06.058
153.0, 3178.3510063112985, -3422.0073726186006, -7022.716942157382, -4754.394859599454, -6352.455181176088, -4077.002892136919, -4529.4469034012445, -4233.643917279711, 0.108, 0.998, 0.10200000000000001, 192.0, 0.0, 0.0, 0.0, 0.0, 0.0, 0.0, 0.0, 0.0, 0.0, 1.7398204260586462E9, 0.0, 2025-02-17 16:27:06.058
154.0, 3176.0264248879466, -3436.1113233698993, -7013.753892630803, -4742.168455382402, -6374.650463420208, -4091.576229521779, -4539.952223295239, -4236.236719636527, 0.108, 0.998, 0.10200000000000001, 192.0, 0.0, 0.0, 0.0, 0.0, 0.0, 0.0, 0.0, 0.0, 0.0, 1.7398204260586984E9, 0.0, 2025-02-17 16:27:06.058
155.0, 3173.679491720139, -3471.9188179873013, -7028.081360826655, -4660.562236376076, -6417.454054052121, -4128.9483462510525, -4572.541066711076, -4257.023841979962, 0.108, 0.998, 0.10200000000000001, 192.0, 0.0, 0.0, 0.0, 0.0, 0.0, 0.0, 0.0, 0.0, 0.0, 1.7398204260587423E9, 0.0, 2025-02-17 16:27:06.058
156.0, 3173.098346364301, -3476.836201767469, -7056.49042802935, -4668.988844035726, -6411.21791734909, -4132.189349197072, -4580.408880759344, -4272.670063098677, 0.108, 0.998, 0.10200000000000001, 192.0, 0.0, 0.0, 0.0, 0.0, 0.0, 0.0, 0.0, 0.0, 0.0, 1.7398204260587852E9, 0.0, 2025-02-17 16:27:06.058
157.0, 3172.338387052821, -3448.1142101423993, -7052.578872749672, -4781.6192843460185, -6377.511486710488, -4103.087377916262, -4556.313700236524, -4260.443658881624, 0.108, 0.998, 0.10200000000000001, 192.0, 0.0, 0.0, 0.0, 0.0, 0.0, 0.0, 0.0, 0.0, 0.0, 1.7398204260588348E9, 0.0, 2025-02-17 16:27:06.058
158.0, 3171.556075996885, -3457.3007771135303, -7041.559462733205, -4785.977874514803, -6397.9409811426385, -4113.302125132337, -4562.683947406286, -4260.153086203705, 0.112, 0.994, 0.1, 192.0, 3.0, 128.0, 31.0, 16.0, 3.0, 32.0, 0.0, 0.0, 0.0, 1.7398204260588813E9, 0.0, 2025-02-17 16:27:06.058
159.0, 3172.3160353083654, -3494.1364519758768, -7054.009384394812, -4709.691370688841, -6442.063324697415, -4153.7811343408985, -4595.675122222319, -4281.767223091987, 0.112, 0.994, 0.1, 192.0, 0.0, 0.0, 0.0, 0.0, 0.0, 0.0, 0.0, 0.0, 0.0, 1.7398204260589316E9, 0.0, 2025-02-17 16:27:06.058
160.0, 3173.1206981087566, -3511.436702184284, -7084.340701620663, -4688.680730900852, -6449.193531178657, -4168.0415473033845, -4614.495291053688, -4303.627229169278, 0.112, 0.994, 0.1, 192.0, 0.0, 0.0, 0.0, 0.0, 0.0, 0.0, 0.0, 0.0, 0.0, 1.7398204260589712E9, 0.0, 2025-02-17 16:27:06.058
161.0, 3169.119735851257, -3477.3055884010305, -7083.3125213757185, -4798.248982220767, -6408.267487080991, -4130.669430574111, -4586.220334317724, -4289.836202840353, 0.112, 0.994, 0.1, 192.0, 0.0, 0.0, 0.0, 0.0, 0.0, 0.0, 0.0, 0.0, 0.0, 1.7398204260590174E9, 0.0, 2025-02-17 16:27:06.059
162.0, 3170.10321260729, -3481.485364614173, -7070.214399124909, -4824.489930211298, -6419.443359308643, -4137.442009144069, -4587.159107584847, -4285.924647560674, 0.112, 0.994, 0.1, 192.0, 0.0, 0.0, 0.0, 0.0, 0.0, 0.0, 0.0, 0.0, 0.0, 1.7398204260590584E9, 0.0, 2025-02-17 16:27:06.059
163.0, 3173.4783260200415, -3517.0693417870216, -7080.227980640886, -4760.22866490229, -6462.51517087402, -4178.010425330452, -4618.786825989107, -4306.600011181833, 0.112, 0.994, 0.1, 192.0, 0.0, 0.0, 0.0, 0.0, 0.0, 0.0, 0.0, 0.0, 0.0, 1.7398204260590985E9, 0.0, 2025-02-17 16:27:06.059
164.0, 3172.8524771752927, -3540.002231598167, -7106.960667009434, -4712.3512282790225, -6481.804726338951, -4200.3845215302135, -4641.607957077976, -4328.504720748034, 0.112, 0.994, 0.1, 192.0, 0.0, 0.0, 0.0, 0.0, 0.0, 0.0, 0.0, 0.0, 0.0, 1.7398204260591543E9, 0.0, 2025-02-17 16:27:06.059
165.0, 3172.8524771752927, -3510.9449638062674, -7115.655495602548, -4818.007924319259, -6439.448170596143, -4165.918131580131, -4619.412674833855, -4323.967316623606, 0.112, 0.994, 0.1, 192.0, 0.0, 0.0, 0.0, 0.0, 0.0, 0.0, 0.0, 0.0, 0.0, 1.739820426059197E9, 0.0, 2025-02-17 16:27:06.059
166.0, 3171.131392852234, -3504.4182544253176, -7097.729396549392, -4863.225503352345, -6437.145940917247, -4159.078497776806, -4611.410750318855, -4313.104368818327, 0.112, 0.994, 0.1, 192.0, 0.0, 0.0, 0.0, 0.0, 0.0, 0.0, 0.0, 0.0, 0.0, 1.7398204260592394E9, 0.0, 2025-02-17 16:27:06.059
167.0, 3169.9914538850135, -3530.614498926938, -7098.489355860872, -4804.2839532237, -6475.859162313839, -4187.420509746135, -4633.650736051886, -4323.81085441242, 0.112, 0.994, 0.1, 192.0, 0.0, 0.0, 0.0, 0.0, 0.0, 0.0, 0.0, 0.0, 0.0, 1.7398204260593057E9, 0.0, 2025-02-17 16:27:06.059
168.0, 3169.2761980624437, -3559.627063229926, -7122.472777661416, -4735.418228556899, -6502.323627748922, -4217.416550805157, -4661.702175343296, -4346.184950612182, 0.11800000000000001, 0.986, 0.10400000000000001, 192.0, 3.0, 176.0, 30.0, 208.0, 3.0, 64.0, 0.0, 0.0, 0.0, 1.739820426059356E9, 0.0, 2025-02-17 16:27:06.059
169.0, 3170.10321260729, -3536.090676318488, -7138.454274946961, -4823.148825543979, -6465.04091799747, -4189.096890580284, -4643.999593734693, -4344.530921522489, 0.11800000000000001, 0.986, 0.10400000000000001, 192.0, 0.0, 0.0, 0.0, 0.0, 0.0, 0.0, 0.0, 0.0, 0.0, 1.7398204260594015E9, 0.0, 2025-02-17 16:27:06.059
170.0, 3171.779593441438, -3523.6854581457924, -7123.188033483986, -4891.902791488504, -6456.770772549006, -4181.810221887854, -4631.013230206159, -4333.198587083649, 0.11800000000000001, 0.986, 0.10400000000000001, 192.0, 0.0, 0.0, 0.0, 0.0, 0.0, 0.0, 0.0, 0.0, 0.0, 1.7398204260594983E9, 0.0, 2025-02-17 16:27:06.059
171.0, 3168.270369561955, -3542.863254888446, -7116.214289213931, -4842.259567053266, -6486.8115170969395, -4206.575954744334, -4645.452457124288, -4338.674764475199, 0.11800000000000001, 0.986, 0.10400000000000001, 192.0, 0.0, 0.0, 0.0, 0.0, 0.0, 0.0, 0.0, 0.0, 0.0, 1.739820426059539E9, 0.0, 2025-02-17 16:27:06.059
172.0, 3167.823334672849, -3576.6590925048704, -7136.956708068456, -4761.860342247527, -6522.127273336324, -4232.9063097126855, -4677.527210417654, -4363.440497331679, 0.11800000000000001, 0.986, 0.10400000000000001, 192.0, 0.0, 0.0, 0.0, 0.0, 0.0, 0.0, 0.0, 0.0, 0.0, 1.7398204260597289E9, 0.0, 2025-02-17 16:27:06.059
173.0, 3170.751413196494, -3562.957473153767, -7160.537798468805, -4827.730933157317, -6490.700720632162, -4213.21442284756, -4670.173486491858, -4369.900151479263, 0.11800000000000001, 0.986, 0.10400000000000001, 192.0, 0.0, 0.0, 0.0, 0.0, 0.0, 0.0, 0.0, 0.0, 0.0, 1.7398204260597725E9, 0.0, 2025-02-17 16:27:06.059
174.0, 3170.7961166854047, -3541.7456676656807, -7145.2939087502855, -4914.321591177177, -6470.338281433378, -4192.807280159865, -4650.4815996267325, -4354.745668738565, 0.11800000000000001, 0.986, 0.10400000000000001, 192.0, 0.0, 0.0, 0.0, 0.0, 0.0, 0.0, 0.0, 0.0, 0.0, 1.739820426059826E9, 0.0, 2025-02-17 16:27:06.059
175.0, 3169.164439340167, -3556.967205639745, -7134.587423156193, -4880.190477393923, -6496.7356916350955, -4214.533175770423, -4661.724527087752, -4356.824380972908, 0.11800000000000001, 0.986, 0.10400000000000001, 192.0, 0.0, 0.0, 0.0, 0.0, 0.0, 0.0, 0.0, 0.0, 0.0, 1.739820426059876E9, 0.0, 2025-02-17 16:27:06.059
176.0, 3170.974930641047, -3593.534659568627, -7152.357059998162, -4797.287857209189, -6534.554843253475, -4246.518522085968, -4695.319199004078, -4380.874858006819, 0.11800000000000001, 0.986, 0.10400000000000001, 192.0, 0.0, 0.0, 0.0, 0.0, 0.0, 0.0, 0.0, 0.0, 0.0, 1.7398204260599167E9, 0.0, 2025-02-17 16:27:06.059
177.0, 3171.109041107779, -3583.476374563739, -7175.491115509405, -4831.3966192479875, -6511.487842975598, -4236.996678948007, -4690.446518712821, -4387.558029598955, 0.11800000000000001, 0.986, 0.10400000000000001, 192.0, 0.0, 0.0, 0.0, 0.0, 0.0, 0.0, 0.0, 0.0, 0.0, 1.739820426059957E9, 0.0, 2025-02-17 16:27:06.059
178.0, 3172.070166119357, -3555.5590457390604, -7164.471705492939, -4933.655850131017, -6484.308121717945, -4211.001600146485, -4665.323157945056, -4370.794221257475, 0.128, 0.984, 0.106, 192.0, 4.0, 0.0, 30.0, 192.0, 3.0, 80.0, 0.0, 0.0, 0.0, 1.7398204260599983E9, 0.0, 2025-02-17 16:27:06.059
179.0, 3173.746546953505, -3569.931217423823, -7153.541702454294, -4919.216623212889, -6505.274058017023, -4224.010315419473, -4675.157925505391, -4373.029395703005, 0.128, 0.984, 0.106, 192.0, 0.0, 0.0, 0.0, 0.0, 0.0, 0.0, 0.0, 0.0, 0.0, 1.7398204260600429E9, 0.0, 2025-02-17 16:27:06.060
180.0, 3173.5453812534074, -3602.564764328571, -7163.4882287369055, -4834.3917530049985, -6542.266195090556, -4252.017051221973, -4704.461062486299, -4392.207192445659, 0.128, 0.984, 0.106, 192.0, 0.0, 0.0, 0.0, 0.0, 0.0, 0.0, 0.0, 0.0, 0.0, 1.739820426060086E9, 0.0, 2025-02-17 16:27:06.060
181.0, 3174.014767886969, -3603.436482362328, -7188.969217415955, -4837.6774594399285, -6533.325497308433, -4249.424248865157, -4708.193803810335, -4403.025436762027, 0.128, 0.984, 0.106, 192.0, 0.0, 0.0, 0.0, 0.0, 0.0, 0.0, 0.0, 0.0, 0.0, 1.7398204260601287E9, 0.0, 2025-02-17 16:27:06.060
182.0, 3174.5735614983514, -3569.953569168278, -7182.151935357087, -4946.999841570836, -6496.176898023713, -4221.819844462853, -4679.091832529525, -4385.412262131245, 0.128, 0.984, 0.106, 192.0, 0.0, 0.0, 0.0, 0.0, 0.0, 0.0, 0.0, 0.0, 0.0, 1.7398204260601928E9, 0.0, 2025-02-17 16:27:06.060
183.0, 3175.042948131913, -3574.7368424817137, -7164.56111247076, -4948.340946238154, -6508.872688874328, -4233.5992137908, -4679.896495329916, -4379.399642872768, 0.128, 0.984, 0.106, 192.0, 0.0, 0.0, 0.0, 0.0, 0.0, 0.0, 0.0, 0.0, 0.0, 1.7398204260602372E9, 0.0, 2025-02-17 16:27:06.060
184.0, 3173.9030091646923, -3605.090511452021, -7168.517371239349, -4867.382927821031, -6541.170959612246, -4256.88973151323, -4707.970286365782, -4396.811651803452, 0.128, 0.984, 0.106, 192.0, 0.0, 0.0, 0.0, 0.0, 0.0, 0.0, 0.0, 0.0, 0.0, 1.7398204260602877E9, 0.0, 2025-02-17 16:27:06.060
185.0, 3175.1994103431, -3616.0875697240317, -7193.707787240481, -4841.209035063867, -6545.842474203405, -4264.690490328132, -4720.353152794022, -4412.010838033061, 0.128, 0.984, 0.106, 192.0, 0.0, 0.0, 0.0, 0.0, 0.0, 0.0, 0.0, 0.0, 0.0, 1.7398204260603433E9, 0.0, 2025-02-17 16:27:06.060
186.0, 3176.4734597770525, -3581.5541245405825, -7194.4230430630505, -4950.084382305668, -6505.788148139495, -4227.877167210241, -4691.899382102416, -4397.616314603843, 0.128, 0.984, 0.106, 192.0, 0.0, 0.0, 0.0, 0.0, 0.0, 0.0, 0.0, 0.0, 0.0, 1.7398204260603933E9, 0.0, 2025-02-17 16:27:06.060
187.0, 3174.461802776075, -3576.435575060317, -7171.46780150745, -4968.03283310328, -6509.632648185808, -4228.704181755088, -4684.277437243157, -4386.038110975995, 0.128, 0.984, 0.106, 192.0, 0.0, 0.0, 0.0, 0.0, 0.0, 0.0, 0.0, 0.0, 0.0, 1.7398204260604355E9, 0.0, 2025-02-17 16:27:06.060
188.0, 3172.9642358975693, -3601.603639316993, -7169.925531140034, -4893.7356345338385, -6543.562596268964, -4255.302757656903, -4704.88574563095, -4396.163451214248, 0.138, 0.986, 0.124, 192.0, 4.0, 80.0, 30.0, 208.0, 3.0, 224.0, 0.0, 0.0, 0.0, 1.7398204260604856E9, 0.0, 2025-02-17 16:27:06.060
189.0, 3172.785421941927, -3620.2002907038086, -7192.344330828707, -4840.203206563378, -6553.509122551575, -4275.575789877867, -4724.4435220293435, -4413.374294444835, 0.138, 0.986, 0.124, 192.0, 0.0, 0.0, 0.0, 0.0, 0.0, 0.0, 0.0, 0.0, 0.0, 1.739820426060531E9, 0.0, 2025-02-17 16:27:06.060
190.0, 3174.327692309343, -3587.544392054605, -7199.943923943511, -4939.914338578504, -6510.102034819369, -4239.4777225825455, -4699.543678706131, -4402.779567573019, 0.138, 0.986, 0.124, 192.0, 0.0, 0.0, 0.0, 0.0, 0.0, 0.0, 0.0, 0.0, 0.0, 1.739820426060593E9, 0.0, 2025-02-17 16:27:06.060
191.0, 3176.875791177248, -3580.2353716177195, -7180.98964464541, -4983.433185032986, -6509.699703419174, -4231.341687600814, -4691.3405884910335, -4393.168317457237, 0.138, 0.986, 0.124, 192.0, 0.0, 0.0, 0.0, 0.0, 0.0, 0.0, 0.0, 0.0, 0.0, 1.739820426060638E9, 0.0, 2025-02-17 16:27:06.060
192.0, 3176.652273732695, -3603.3694271289623, -7176.161667843065, -4921.004762769314, -6539.136950866813, -4255.168647190171, -4709.870184644483, -4402.354884428369, 0.138, 0.986, 0.124, 192.0, 0.0, 0.0, 0.0, 0.0, 0.0, 0.0, 0.0, 0.0, 0.0, 1.739820426060681E9, 0.0, 2025-02-17 16:27:06.060
193.0, 3176.9875498995248, -3628.8504158080123, -7195.495926796905, -4849.032145623225, -6566.070802935458, -4281.722519603076, -4733.875958189483, -4420.616259648355, 0.138, 0.986, 0.124, 192.0, 0.0, 0.0, 0.0, 0.0, 0.0, 0.0, 0.0, 0.0, 0.0, 1.7398204260607224E9, 0.0, 2025-02-17 16:27:06.060
194.0, 3179.490945278519, -3602.47535735075, -7211.164499660075, -4931.845358830137, -6526.865843160849, -4251.726478544054, -4714.787568424651, -4414.670695623243, 0.138, 0.986, 0.124, 192.0, 0.0, 0.0, 0.0, 0.0, 0.0, 0.0, 0.0, 0.0, 0.0, 1.7398204260607712E9, 0.0, 2025-02-17 16:27:06.060
195.0, 3179.5132970229743, -3584.012816430666, -7190.220915105452, -4993.536173526785, -6513.9912383545925, -4238.963632460074, -4696.705007160307, -4397.616314603843, 0.138, 0.986, 0.124, 192.0, 0.0, 0.0, 0.0, 0.0, 0.0, 0.0, 0.0, 0.0, 0.0, 1.7398204260608149E9, 0.0, 2025-02-17 16:27:06.060
196.0, 3178.0157301444688, -3602.6541713063925, -7180.1626301005645, -4941.948347323936, -6539.204006100179, -4255.302757656903, -4710.317219533589, -4403.271305951036, 0.138, 0.986, 0.124, 192.0, 0.0, 0.0, 0.0, 0.0, 0.0, 0.0, 0.0, 0.0, 0.0, 1.7398204260608575E9, 0.0, 2025-02-17 16:27:06.060
197.0, 3178.932151667136, -3633.6560408659034, -7196.904086697589, -4859.358651561577, -6574.832686761938, -4285.0305777824615, -4738.502769291731, -4424.393704461301, 0.138, 0.986, 0.124, 192.0, 0.0, 0.0, 0.0, 0.0, 0.0, 0.0, 0.0, 0.0, 0.0, 1.7398204260609024E9, 0.0, 2025-02-17 16:27:06.060
198.0, 3180.0944423788123, -3614.1429679564203, -7216.975953218455, -4916.6238208560735, -6538.6452124887965, -4262.477667627057, -4725.024667385182, -4423.544338172, 0.114, 0.986, 0.134, 192.0, 3.0, 144.0, 30.0, 208.0, 4.0, 48.0, 0.0, 0.0, 0.0, 1.7398204260609503E9, 0.0, 2025-02-17 16:27:06.060
199.0, 3180.1838493566333, -3588.7066827662807, -7199.072205909754, -4997.581839273195, -6514.058293587958, -4239.656536538188, -4701.868260129483, -4405.148852485282, 0.114, 0.986, 0.134, 192.0, 0.0, 0.0, 0.0, 0.0, 0.0, 0.0, 0.0, 0.0, 0.0, 1.7398204260609937E9, 0.0, 2025-02-17 16:27:06.060
200.0, 3180.206201101089, -3603.525889340149, -7186.108194125676, -4961.50612372233, -6536.141817109802, -4254.587501834333, -4712.284173045656, -4407.629896119821, 0.114, 0.986, 0.134, 192.0, 0.0, 0.0, 0.0, 0.0, 0.0, 0.0, 0.0, 0.0, 0.0, 1.7398204260610385E9, 0.0, 2025-02-17 16:27:06.061
201.0, 3180.9214569236588, -3635.4218286778723, -7197.686397753525, -4874.624893024551, -6574.7432797841175, -4287.288103972448, -4740.827350715083, -4428.215852763159, 0.114, 0.986, 0.134, 192.0, 0.0, 0.0, 0.0, 0.0, 0.0, 0.0, 0.0, 0.0, 0.0, 1.7398204260610836E9, 0.0, 2025-02-17 16:27:06.061
202.0, 3181.189677857122, -3623.798921561113, -7220.3734183756615, -4902.564573593685, -6552.1456661398015, -4274.078222999361, -4734.255937845223, -4430.987469075617, 0.114, 0.986, 0.134, 192.0, 0.0, 0.0, 0.0, 0.0, 0.0, 0.0, 0.0, 0.0, 0.0, 1.7398204260611231E9, 0.0, 2025-02-17 16:27:06.061
203.0, 3182.6425412467174, -3594.339322369018, -7208.974028703455, -4999.951124185458, -6519.422712257232, -4243.188112162127, -4708.685542188352, -4412.0555415219715, 0.114, 0.986, 0.134, 192.0, 0.0, 0.0, 0.0, 0.0, 0.0, 0.0, 0.0, 0.0, 0.0, 1.7398204260611632E9, 0.0, 2025-02-17 16:27:06.061
204.0, 3182.128451124245, -3603.592944573515, -7191.941999428511, -4979.342815797665, -6537.259404332567, -4255.347461145814, -4713.111187590503, -4409.01570427605, 0.114, 0.986, 0.134, 192.0, 0.0, 0.0, 0.0, 0.0, 0.0, 0.0, 0.0, 0.0, 0.0, 1.7398204260612073E9, 0.0, 2025-02-17 16:27:06.061
205.0, 3181.837878446326, -3633.857206566001, -7198.3569500871845, -4892.886268244537, -6578.274855408055, -4292.026673796973, -4739.218025114301, -4425.466588195156, 0.114, 0.986, 0.134, 192.0, 0.0, 0.0, 0.0, 0.0, 0.0, 0.0, 0.0, 0.0, 0.0, 1.7398204260612528E9, 0.0, 2025-02-17 16:27:06.061
206.0, 3183.8271837028487, -3634.14777924392, -7224.284973655341, -4893.601524067107, -6568.529494825541, -4292.227839497071, -4744.068353661103, -4436.485998211622, 0.114, 0.986, 0.134, 192.0, 0.0, 0.0, 0.0, 0.0, 0.0, 0.0, 0.0, 0.0, 0.0, 1.7398204260612984E9, 0.0, 2025-02-17 16:27:06.061
207.0, 3183.2460383470107, -3599.994313716211, -7217.847671252212, -4998.207688117944, -6522.037866358503, -4248.641937809221, -4715.45812075831, -4418.068160780449, 0.114, 0.986, 0.134, 192.0, 0.0, 0.0, 0.0, 0.0, 0.0, 0.0, 0.0, 0.0, 0.0, 1.739820426061339E9, 0.0, 2025-02-17 16:27:06.061
208.0, 3182.9778174135467, -3604.6211248184595, -7197.686397753525, -4995.681940994495, -6533.906642664271, -4250.452429110102, -4715.927507391872, -4413.620163633843, 0.10200000000000001, 0.972, 0.148, 192.0, 3.0, 48.0, 30.0, 96.0, 4.0, 160.0, 0.0, 0.0, 0.0, 1.7398204260613787E9, 0.0, 2025-02-17 16:27:06.061
209.0, 3185.034177903435, -3635.444180422328, -7201.195621633008, -4916.914393533993, -6573.469230350164, -4288.651560384222, -4740.93910943736, -4429.981640575128, 0.10200000000000001, 0.972, 0.148, 192.0, 0.0, 0.0, 0.0, 0.0, 0.0, 0.0, 0.0, 0.0, 0.0, 1.7398204260614257E9, 0.0, 2025-02-17 16:27:06.061
210.0, 3184.005997658491, -3641.8144275920904, -7222.608592821192, -4886.314855374677, -6576.73258504064, -4303.0460838134395, -4748.896330463449, -4439.548187201999, 0.10200000000000001, 0.972, 0.148, 192.0, 0.0, 0.0, 0.0, 0.0, 0.0, 0.0, 0.0, 0.0, 0.0, 1.7398204260614655E9, 0.0, 2025-02-17 16:27:06.061
211.0, 3183.9389424251253, -3606.1633951858757, -7223.4803108549495, -4991.390406059076, -6528.184596083713, -4254.565150089878, -4720.3978562829325, -4422.627916649332, 0.10200000000000001, 0.972, 0.148, 192.0, 0.0, 0.0, 0.0, 0.0, 0.0, 0.0, 0.0, 0.0, 0.0, 1.7398204260615056E9, 0.0, 2025-02-17 16:27:06.061
212.0, 3184.073052891857, -3603.481185851239, -7201.396787333106, -5009.51767081233, -6532.207910085668, -4251.301795399403, -4714.541699235642, -4413.955439800673, 0.10200000000000001, 0.972, 0.148, 192.0, 0.0, 0.0, 0.0, 0.0, 0.0, 0.0, 0.0, 0.0, 0.0, 1.7398204260615475E9, 0.0, 2025-02-17 16:27:06.061
213.0, 3186.2188203595665, -3631.465569909283, -7200.972104188455, -4939.668469389495, -6570.898779737804, -4282.862458570296, -4737.116961135503, -4427.92528008524, 0.10200000000000001, 0.972, 0.148, 192.0, 0.0, 0.0, 0.0, 0.0, 0.0, 0.0, 0.0, 0.0, 0.0, 1.7398204260615897E9, 0.0, 2025-02-17 16:27:06.061
214.0, 3187.112890137779, -3649.6822416403584, -7222.675648054558, -4887.521849575263, -6586.030910734047, -4304.320133247392, -4755.579502055586, -4445.1584750602815, 0.10200000000000001, 0.972, 0.148, 192.0, 0.0, 0.0, 0.0, 0.0, 0.0, 0.0, 0.0, 0.0, 0.0, 1.7398204260616405E9, 0.0, 2025-02-17 16:27:06.061
215.0, 3185.39180581472, -3612.33247665554, -7228.241232423929, -4981.622693732106, -6533.392552541799, -4260.17543794816, -4726.477530774776, -4428.72994288563, 0.10200000000000001, 0.972, 0.148, 192.0, 0.0, 0.0, 0.0, 0.0, 0.0, 0.0, 0.0, 0.0, 0.0, 1.739820426061684E9, 0.0, 2025-02-17 16:27:06.061
216.0, 3186.5540965263963, -3602.1400811839203, -7206.113005413175, -5022.28051689631, -6528.095189105891, -4252.12880994425, -4714.273478302179, -4415.073027023438, 0.10200000000000001, 0.972, 0.148, 192.0, 0.0, 0.0, 0.0, 0.0, 0.0, 0.0, 0.0, 0.0, 0.0, 1.7398204260617478E9, 0.0, 2025-02-17 16:27:06.061
217.0, 3187.7610907269827, -3625.2964884396183, -7199.429833821039, -4961.9978621003465, -6558.717079009662, -4281.342539947336, -4731.529025021676, -4423.544338172, 0.10200000000000001, 0.972, 0.148, 192.0, 0.0, 0.0, 0.0, 0.0, 0.0, 0.0, 0.0, 0.0, 0.0, 1.739820426061793E9, 0.0, 2025-02-17 16:27:06.061
218.0, 3187.8728494492593, -3649.0340410511544, -7217.020656707366, -4891.768681021772, -6586.567352600975, -4302.42023496869, -4753.947824710349, -4442.029230836539, 0.08600000000000001, 0.978, 0.164, 192.0, 2.0, 176.0, 30.0, 144.0, 5.0, 32.0, 0.0, 0.0, 0.0, 1.7398204260618372E9, 0.0, 2025-02-17 16:27:06.061
219.0, 3186.5317447819407, -3615.215851690275, -7228.464749868483, -4969.798620915249, -6536.5888519989085, -4263.08116472735, -4728.6680017313965, -4429.936937086218, 0.08600000000000001, 0.978, 0.164, 192.0, 0.0, 0.0, 0.0, 0.0, 0.0, 0.0, 0.0, 0.0, 0.0, 1.7398204260618792E9, 0.0, 2025-02-17 16:27:06.061
220.0, 3186.6658552486724, -3593.668770035359, -7204.838955979223, -5031.690601311994, -6518.6851046902075, -4244.260995895982, -4708.260859043701, -4411.2285269771255, 0.08600000000000001, 0.978, 0.164, 192.0, 0.0, 0.0, 0.0, 0.0, 0.0, 0.0, 0.0, 0.0, 0.0, 1.7398204260619235E9, 0.0, 2025-02-17 16:27:06.061
221.0, 3185.749433726005, -3609.5608603430824, -7190.936170928022, -4982.047376876757, -6542.4003055572875, -4258.342594902825, -4718.788530682151, -4413.642515378298, 0.08600000000000001, 0.978, 0.164, 192.0, 0.0, 0.0, 0.0, 0.0, 0.0, 0.0, 0.0, 0.0, 0.0, 1.7398204260619683E9, 0.0, 2025-02-17 16:27:06.061
222.0, 3183.849535447304, -3632.6502123654145, -7199.742758243413, -4898.630666569551, -6569.334157625933, -4288.18217375066, -4739.88857744796, -4427.679410896231, 0.08600000000000001, 0.978, 0.164, 192.0, 0.0, 0.0, 0.0, 0.0, 0.0, 0.0, 0.0, 0.0, 0.0, 1.7398204260620198E9, 0.0, 2025-02-17 16:27:06.062
223.0, 3185.302398836899, -3608.420921375862, -7217.355932874195, -4953.50419920733, -6533.169035097246, -4259.393126892224, -4723.013010384204, -4422.3820474603235, 0.08600000000000001, 0.978, 0.164, 192.0, 0.0, 0.0, 0.0, 0.0, 0.0, 0.0, 0.0, 0.0, 0.0, 1.7398204260620604E9, 0.0, 2025-02-17 16:27:06.062
224.0, 3186.330579081843, -3580.0118541731663, -7197.351121586696, -5032.987002490402, -6506.101072561869, -4232.7274957570435, -4697.3308560050555, -4400.544393127489, 0.08600000000000001, 0.978, 0.164, 192.0, 0.0, 0.0, 0.0, 0.0, 0.0, 0.0, 0.0, 0.0, 0.0, 1.7398204260621004E9, 0.0, 2025-02-17 16:27:06.062
225.0, 3187.269352348966, -3592.797052001602, -7180.6320167341255, -4997.023045661813, -6524.183633826213, -4246.786743019431, -4704.081082830558, -4400.164413471748, 0.08600000000000001, 0.978, 0.164, 192.0, 0.0, 0.0, 0.0, 0.0, 0.0, 0.0, 0.0, 0.0, 0.0, 1.7398204260621407E9, 0.0, 2025-02-17 16:27:06.062
226.0, 3187.336407582332, -3620.3567529149955, -7187.337540070718, -4909.6947800749285, -6555.2525586190895, -4270.680757842155, -4728.422132542388, -4416.928221813228, 0.08600000000000001, 0.978, 0.164, 192.0, 0.0, 0.0, 0.0, 0.0, 0.0, 0.0, 0.0, 0.0, 0.0, 1.7398204260621808E9, 0.0, 2025-02-17 16:27:06.062
227.0, 3190.622114017262, -3608.152700442398, -7210.158671159586, -4935.801617598727, -6533.0125728860585, -4256.196827435116, -4722.4542167728205, -4419.409265447768, 0.08600000000000001, 0.978, 0.164, 192.0, 0.0, 0.0, 0.0, 0.0, 0.0, 0.0, 0.0, 0.0, 0.0, 1.7398204260622227E9, 0.0, 2025-02-17 16:27:06.062
228.0, 3192.253791362499, -3574.80389771508, -7196.300589597296, -5027.8013977767705, -6500.513136448042, -4223.965611930563, -4693.352245492011, -4398.040997748494, 0.092, 0.97, 0.178, 192.0, 2.0, 224.0, 30.0, 80.0, 5.0, 144.0, 0.0, 0.0, 0.0, 1.7398204260622644E9, 0.0, 2025-02-17 16:27:06.062
229.0, 3191.627942517751, -3581.107089651476, -7174.842914920201, -5004.019141676324, -6512.560726709453, -4236.594347547812, -4694.179260036857, -4393.481241879612, 0.092, 0.97, 0.178, 192.0, 0.0, 0.0, 0.0, 0.0, 0.0, 0.0, 0.0, 0.0, 0.0, 1.739820426062316E9, 0.0, 2025-02-17 16:27:06.062
230.0, 3190.286837850432, -3608.6444388204145, -7176.60870273217, -4915.6850475889505, -6543.875520691338, -4257.716746058077, -4717.380370781466, -4407.406378675268, 0.092, 0.97, 0.178, 192.0, 0.0, 0.0, 0.0, 0.0, 0.0, 0.0, 0.0, 0.0, 0.0, 1.739820426062358E9, 0.0, 2025-02-17 16:27:06.062
231.0, 3190.309189594888, -3604.799938774102, -7198.133432642631, -4908.130157963056, -6531.045619373992, -4251.614719821778, -4717.760350437206, -4412.659038622265, 0.092, 0.97, 0.178, 192.0, 0.0, 0.0, 0.0, 0.0, 0.0, 0.0, 0.0, 0.0, 0.0, 1.7398204260624068E9, 0.0, 2025-02-17 16:27:06.062
232.0, 3191.4714803065635, -3568.366595311951, -7191.159688372575, -5006.4331300774975, -6491.103052032358, -4219.316449083859, -4687.5854954225415, -4391.603695345366, 0.092, 0.97, 0.178, 192.0, 0.0, 0.0, 0.0, 0.0, 0.0, 0.0, 0.0, 0.0, 0.0, 1.7398204260624464E9, 0.0, 2025-02-17 16:27:06.062
233.0, 3191.337369839832, -3569.7524034681805, -7168.18209507252, -4999.839365463182, -6502.748310893573, -4225.664344509166, -4684.657416898896, -4384.1158609528375, 0.092, 0.97, 0.178, 192.0, 0.0, 0.0, 0.0, 0.0, 0.0, 0.0, 0.0, 0.0, 0.0, 1.7398204260624907E9, 0.0, 2025-02-17 16:27:06.062
234.0, 3190.7338727395386, -3596.060406692077, -7166.79628691629, -4917.629649356562, -6537.125293865835, -4252.2182169220705, -4705.913925875893, -4397.213983203648, 0.092, 0.97, 0.178, 192.0, 0.0, 0.0, 0.0, 0.0, 0.0, 0.0, 0.0, 0.0, 0.0, 1.739820426062536E9, 0.0, 2025-02-17 16:27:06.062
235.0, 3190.9573901840918, -3604.509366096183, -7188.633941249125, -4884.102032673602, -6535.6500787317855, -4257.314414657881, -4716.59805972553, -4409.574497887433, 0.092, 0.97, 0.178, 192.0, 0.0, 0.0, 0.0, 0.0, 0.0, 0.0, 0.0, 0.0, 0.0, 1.7398204260625842E9, 0.0, 2025-02-17 16:27:06.062
236.0, 3192.969047185069, -3568.0983743784877, -7190.80206046129, -4984.170792600012, -6493.0923572888805, -4220.702257240088, -4688.077233800559, -4391.938971512195, 0.092, 0.97, 0.178, 192.0, 0.0, 0.0, 0.0, 0.0, 0.0, 0.0, 0.0, 0.0, 0.0, 1.7398204260626264E9, 0.0, 2025-02-17 16:27:06.062
237.0, 3191.96321868458, -3562.0186998866443, -7165.678699693525, -4998.98999917388, -6495.439290456688, -4219.674076995144, -4678.622445895964, -4379.466698106134, 0.092, 0.97, 0.178, 192.0, 0.0, 0.0, 0.0, 0.0, 0.0, 0.0, 0.0, 0.0, 0.0, 1.7398204260626762E9, 0.0, 2025-02-17 16:27:06.062
238.0, 3190.5327070394405, -3584.7504239976915, -7159.50961822386, -4927.531472150263, -6522.373142525333, -4242.2940423839145, -4695.810937382095, -4388.720320310631, 0.096, 0.97, 0.184, 192.0, 3.0, 0.0, 30.0, 80.0, 5.0, 192.0, 0.0, 0.0, 0.0, 1.7398204260627246E9, 0.0, 2025-02-17 16:27:06.062
239.0, 3189.5492302834073, -3599.927258482845, -7177.189848088008, -4872.389718579021, -6531.202081585179, -4250.832408765842, -4711.188937567346, -4402.4219396617345, 0.096, 0.97, 0.184, 192.0, 0.0, 0.0, 0.0, 0.0, 0.0, 0.0, 0.0, 0.0, 0.0, 1.7398204260627677E9, 0.0, 2025-02-17 16:27:06.062
240.0, 3191.6055907732953, -3563.9633016542557, -7185.437641792017, -4963.808353401227, -6489.42667119821, -4217.148329871694, -4683.539829676131, -4386.574552842922, 0.096, 0.97, 0.184, 192.0, 0.0, 0.0, 0.0, 0.0, 0.0, 0.0, 0.0, 0.0, 0.0, 1.739820426062807E9, 0.0, 2025-02-17 16:27:06.062
241.0, 3192.007922173491, -3550.2616823031526, -7160.403688002073, -5000.644028263572, -6484.956322307149, -4212.208594347071, -4667.6253876239525, -4369.34135786788, 0.096, 0.97, 0.184, 192.0, 0.0, 0.0, 0.0, 0.0, 0.0, 0.0, 0.0, 0.0, 0.0, 1.73982042653751E9, 0.0, 2025-02-17 16:27:06.537
242.0, 3192.812584973882, -3572.6804819918257, -7151.999432086877, -4941.300146734732, -6509.632648185808, -4232.9063097126855, -4684.500954687709, -4378.550276583466, 0.096, 0.97, 0.184, 192.0, 0.0, 0.0, 0.0, 0.0, 0.0, 0.0, 0.0, 0.0, 0.0, 1.7398204265375779E9, 0.0, 2025-02-17 16:27:06.537
243.0, 3193.5725442853627, -3595.9709997142554, -7167.7127084389585, -4871.138020889523, -6531.202081585179, -4247.703164542099, -4706.651533442919, -4397.079872736916, 0.096, 0.97, 0.184, 192.0, 0.0, 0.0, 0.0, 0.0, 0.0, 0.0, 0.0, 0.0, 0.0, 1.7398204265376267E9, 0.0, 2025-02-17 16:27:06.537
244.0, 3193.594896029818, -3563.89624642089, -7180.810830689768, -4942.775361868783, -6491.550086921464, -4214.6449344927, -4682.936332575838, -4384.607599330855, 0.096, 0.97, 0.184, 192.0, 0.0, 0.0, 0.0, 0.0, 0.0, 0.0, 0.0, 0.0, 0.0, 1.7398204265376728E9, 0.0, 2025-02-17 16:27:06.537
245.0, 3192.9243436961588, -3542.8856066329013, -7157.296795522785, -4998.7441299848715, -6473.825153568406, -4199.065768607351, -4661.478657898743, -4363.887532220785, 0.096, 0.97, 0.184, 192.0, 0.0, 0.0, 0.0, 0.0, 0.0, 0.0, 0.0, 0.0, 0.0, 1.7398204265377507E9, 0.0, 2025-02-17 16:27:06.537
246.0, 3192.365550084776, -3559.56000799656, -7143.5951761716815, -4948.743277638349, -6497.04861605747, -4218.26591709446, -4671.760460348184, -4367.396756100268, 0.096, 0.97, 0.184, 192.0, 0.0, 0.0, 0.0, 0.0, 0.0, 0.0, 0.0, 0.0, 0.0, 1.7398204265377932E9, 0.0, 2025-02-17 16:27:06.537
247.0, 3191.6055907732953, -3585.7115490092697, -7153.474647220928, -4867.092355143113, -6521.926107636226, -4241.154103416694, -4695.185088537346, -4384.786413286497, 0.096, 0.97, 0.184, 192.0, 0.0, 0.0, 0.0, 0.0, 0.0, 0.0, 0.0, 0.0, 0.0, 1.7398204265378487E9, 0.0, 2025-02-17 16:27:06.537
248.0, 3192.3879018292314, -3563.7844876986132, -7172.205409074475, -4914.366294666087, -6489.404319453754, -4216.12014962675, -4680.3658819634775, -4378.974959728117, 0.096, 0.982, 0.196, 192.0, 3.0, 0.0, 30.0, 176.0, 6.0, 32.0, 0.0, 0.0, 0.0, 1.739820426537892E9, 0.0, 2025-02-17 16:27:06.537
249.0, 3193.907820452192, -3538.281147275108, -7154.949862354978, -4989.043472891268, -6465.264435442024, -4194.684826694111, -4656.695384585308, -4358.679575762699, 0.096, 0.982, 0.196, 192.0, 0.0, 0.0, 0.0, 0.0, 0.0, 0.0, 0.0, 0.0, 0.0, 1.7398204265380707E9, 0.0, 2025-02-17 16:27:06.538
250.0, 3194.3772070857535, -3553.078002104521, -7139.571862169727, -4952.945405595948, -6487.99615955307, -4209.772254201443, -4664.451439911299, -4360.557122296944, 0.096, 0.982, 0.196, 192.0, 0.0, 0.0, 0.0, 0.0, 0.0, 0.0, 0.0, 0.0, 0.0, 1.7398204265381165E9, 0.0, 2025-02-17 16:27:06.538
251.0, 3194.131337896745, -3581.822345474046, -7147.059696562254, -4868.768735977261, -6519.400360512777, -4237.019030692462, -4689.395986723422, -4378.684387050198, 0.096, 0.982, 0.196, 192.0, 0.0, 0.0, 0.0, 0.0, 0.0, 0.0, 0.0, 0.0, 0.0, 1.7398204265381708E9, 0.0, 2025-02-17 16:27:06.538
252.0, 3193.3937303297203, -3567.8748569339346, -7167.802115416779, -4888.125346675557, -6497.227430013112, -4221.2834025959255, -4681.394062208422, -4378.05853820545, 0.096, 0.982, 0.196, 192.0, 0.0, 0.0, 0.0, 0.0, 0.0, 0.0, 0.0, 0.0, 0.0, 1.7398204265382345E9, 0.0, 2025-02-17 16:27:06.538
253.0, 3194.82424197486, -3537.476484474717, -7157.117981567143, -4978.4934495083635, -6462.403412151744, -4187.554620212868, -4655.667204340363, -4358.187837384682, 0.096, 0.982, 0.196, 192.0, 0.0, 0.0, 0.0, 0.0, 0.0, 0.0, 0.0, 0.0, 0.0, 1.739820426538367E9, 0.0, 2025-02-17 16:27:06.538
254.0, 3193.7960617299154, -3543.6902694332925, -7136.397914457073, -4958.98037659888, -6477.42378442571, -4198.909306396164, -4656.091887485014, -4352.510494293034, 0.096, 0.982, 0.196, 192.0, 0.0, 0.0, 0.0, 0.0, 0.0, 0.0, 0.0, 0.0, 0.0, 1.739820426538411E9, 0.0, 2025-02-17 16:27:06.538
255.0, 3193.9301721966476, -3570.959397668767, -7138.901309836067, -4879.743442504817, -6509.990276097093, -4227.877167210241, -4678.801259851606, -4367.106183422349, 0.096, 0.982, 0.196, 192.0, 0.0, 0.0, 0.0, 0.0, 0.0, 0.0, 0.0, 0.0, 0.0, 1.7398204265384867E9, 0.0, 2025-02-17 16:27:06.538
0.0, 3195.0477594194126, -3568.478354034228, -7160.761315913358, -4874.557837791185, -6497.182726524202, -4223.831501463831, -4680.87997208595, -4373.878761992307, 0.096, 0.982, 0.196, 192.0, 0.0, 0.0, 0.0, 0.0, 0.0, 0.0, 0.0, 0.0, 0.0, 1.739820426538545E9, 0.0, 2025-02-17 16:27:06.538
1.0, 3194.3995588302087, -3528.9828215817, -7153.407591987561, -4970.64798720455, -6452.702755058141, -4180.245599775983, -4648.87227402595, -4351.437610559179, 0.096, 0.982, 0.196, 192.0, 0.0, 0.0, 0.0, 0.0, 0.0, 0.0, 0.0, 0.0, 0.0, 1.7398204265386524E9, 0.0, 2025-02-17 16:27:06.538
2.0, 3194.86894546377, -3526.121798291421, -7129.290059720285, -4973.397251772553, -6458.178932449691, -4184.090099822295, -4642.5020268561875, -4341.736953465575, 0.092, 0.978, 0.202, 192.0, 2.0, 224.0, 30.0, 144.0, 6.0, 80.0, 0.0, 0.0, 0.0, 1.7398204265386982E9, 0.0, 2025-02-17 16:27:06.538
3.0, 3194.913648952681, -3546.193664812287, -7123.74682709537, -4904.844451528126, -6484.9339705626935, -4205.234850077016, -4658.282358441635, -4351.14703788126, 0.092, 0.978, 0.202, 192.0, 0.0, 0.0, 0.0, 0.0, 0.0, 0.0, 0.0, 0.0, 0.0, 1.7398204265387452E9, 0.0, 2025-02-17 16:27:06.538
4.0, 3196.835898975837, -3548.9652811247447, -7141.024725559321, -4879.519925060264, -6479.927179804705, -4200.898611652686, -4664.3396811890225, -4359.506590307545, 0.092, 0.978, 0.202, 192.0, 0.0, 0.0, 0.0, 0.0, 0.0, 0.0, 0.0, 0.0, 0.0, 1.7398204265387876E9, 0.0, 2025-02-17 16:27:06.538
5.0, 3195.8300704753483, -3502.317190446519, -7134.408609200551, -4974.5595424842295, -6426.148882645236, -4152.037698273385, -4626.587584804009, -4332.639793472265, 0.092, 0.978, 0.202, 192.0, 0.0, 0.0, 0.0, 0.0, 0.0, 0.0, 0.0, 0.0, 0.0, 1.7398204265388448E9, 0.0, 2025-02-17 16:27:06.538
6.0, 3195.0924629083233, -3488.7943850510583, -7102.982056496389, -4991.189240358977, -6420.113911642303, -4141.398267912658, -4609.309686340057, -4313.461996729612, 0.092, 0.978, 0.202, 192.0, 0.0, 0.0, 0.0, 0.0, 0.0, 0.0, 0.0, 0.0, 0.0, 1.7398204265388877E9, 0.0, 2025-02-17 16:27:06.538
7.0, 3194.623076274762, -3503.7924055805693, -7088.833402256179, -4924.469283159886, -6438.732914773574, -4161.917169322631, -4618.518605055643, -4315.875985130785, 0.092, 0.978, 0.202, 192.0, 0.0, 0.0, 0.0, 0.0, 0.0, 0.0, 0.0, 0.0, 0.0, 1.739820426538948E9, 0.0, 2025-02-17 16:27:06.538
8.0, 3194.7124832525833, -3512.93426906279, -7099.159908194531, -4866.690023742917, -6446.243100910557, -4170.924922338119, -4627.481654582221, -4322.849729400841, 0.092, 0.978, 0.202, 192.0, 0.0, 0.0, 0.0, 0.0, 0.0, 0.0, 0.0, 0.0, 0.0, 1.739820426539014E9, 0.0, 2025-02-17 16:27:06.539
9.0, 3195.8300704753483, -3475.1374691888655, -7103.116166963121, -4941.814236857204, -6398.276257309468, -4126.154378194139, -4598.0667588790375, -4303.269601257993, 0.092, 0.978, 0.202, 192.0, 0.0, 0.0, 0.0, 0.0, 0.0, 0.0, 0.0, 0.0, 0.0, 1.7398204265390582E9, 0.0, 2025-02-17 16:27:06.539
10.0, 3198.5122798099856, -3462.441678338251, -7078.30573061773, -4970.55858022673, -6392.665969451185, -4116.453721100535, -4583.113441838436, -4287.042234783439, 0.092, 0.978, 0.202, 192.0, 0.0, 0.0, 0.0, 0.0, 0.0, 0.0, 0.0, 0.0, 0.0, 1.739820426539102E9, 0.0, 2025-02-17 16:27:06.539
11.0, 3197.6182100317733, -3478.803155279536, -7064.648814755537, -4904.956210250403, -6416.068245895893, -4139.096038233762, -4593.149375098869, -4289.9032580737185, 0.092, 0.978, 0.202, 192.0, 0.0, 0.0, 0.0, 0.0, 0.0, 0.0, 0.0, 0.0, 0.0, 1.7398204265391536E9, 0.0, 2025-02-17 16:27:06.539
12.0, 3196.6794367646503, -3499.9479055342563, -7075.131782905077, -4826.680401167918, -6436.430685094677, -4156.575102397812, -4611.410750318855, -4304.096615802839, 0.09, 0.972, 0.20800000000000002, 192.0, 2.0, 208.0, 30.0, 96.0, 6.0, 128.0, 0.0, 0.0, 0.0, 1.739820426539205E9, 0.0, 2025-02-17 16:27:06.539
13.0, 3197.9534861986026, -3473.4834400991726, -7089.794527267758, -4883.319721617666, -6396.510469497499, -4124.098017704251, -4592.5458779985765, -4294.574772664878, 0.09, 0.972, 0.20800000000000002, 192.0, 0.0, 0.0, 0.0, 0.0, 0.0, 0.0, 0.0, 0.0, 0.0, 1.739820426539422E9, 0.0, 2025-02-17 16:27:06.539
14.0, 3195.9865326865356, -3452.763372989103, -7067.06280315671, -4928.02321052828, -6381.9147803681835, -4103.757930249922, -4571.825810888507, -4274.8158305663865, 0.09, 0.972, 0.20800000000000002, 192.0, 0.0, 0.0, 0.0, 0.0, 0.0, 0.0, 0.0, 0.0, 0.0, 1.739820426539468E9, 0.0, 2025-02-17 16:27:06.539
15.0, 3194.5113175524853, -3467.5825795629717, -7052.6682797274925, -4876.904770958993, -6404.288876567945, -4123.941555493064, -4580.252418548157, -4277.65450211221, 0.09, 0.972, 0.20800000000000002, 192.0, 0.0, 0.0, 0.0, 0.0, 0.0, 0.0, 0.0, 0.0, 0.0, 1.7398204265395412E9, 0.0, 2025-02-17 16:27:06.539
16.0, 3195.271276863966, -3494.516431631617, -7062.68186124347, -4796.729063597806, -6434.709600771618, -4155.099887263762, -4603.5876397594975, -4295.312380231903, 0.09, 0.972, 0.20800000000000002, 192.0, 0.0, 0.0, 0.0, 0.0, 0.0, 0.0, 0.0, 0.0, 0.0, 1.7398204265395956E9, 0.0, 2025-02-17 16:27:06.539
17.0, 3196.3665123422757, -3477.573809334494, -7084.027777198288, -4834.168235560445, -6403.797138189929, -4130.512968362924, -4593.931686154805, -4293.077205786372, 0.09, 0.972, 0.20800000000000002, 192.0, 0.0, 0.0, 0.0, 0.0, 0.0, 0.0, 0.0, 0.0, 0.0, 1.7398204265397415E9, 0.0, 2025-02-17 16:27:06.539
18.0, 3195.226573375055, -3452.182227633265, -7068.582721779671, -4900.374102637065, -6381.288931523434, -4105.590773295256, -4570.551761454554, -4273.117097987783, 0.09, 0.972, 0.20800000000000002, 192.0, 0.0, 0.0, 0.0, 0.0, 0.0, 0.0, 0.0, 0.0, 0.0, 1.7398204265397904E9, 0.0, 2025-02-17 16:27:06.539
19.0, 3195.58420128634, -3466.3979371068403, -7054.478771028373, -4868.008776665781, -6401.1149288552915, -4123.941555493064, -4579.447755747767, -4276.201638722616, 0.09, 0.972, 0.20800000000000002, 192.0, 0.0, 0.0, 0.0, 0.0, 0.0, 0.0, 0.0, 0.0, 0.0, 1.739820426539836E9, 0.0, 2025-02-17 16:27:06.539
20.0, 3194.3101518523877, -3493.5553066200387, -7060.267872842297, -4787.698958837862, -6433.904937971228, -4153.177637240606, -4602.984142659205, -4293.390130208746, 0.09, 0.972, 0.20800000000000002, 192.0, 0.0, 0.0, 0.0, 0.0, 0.0, 0.0, 0.0, 0.0, 0.0, 1.7398204265398784E9, 0.0, 2025-02-17 16:27:06.539
21.0, 3193.527840796452, -3484.4581466267286, -7082.440803341962, -4801.020598533225, -6415.107120884314, -4140.81712255682, -4598.737311212696, -4294.932400576163, 0.09, 0.972, 0.20800000000000002, 192.0, 0.0, 0.0, 0.0, 0.0, 0.0, 0.0, 0.0, 0.0, 0.0, 1.7398204265399542E9, 0.0, 2025-02-17 16:27:06.539
