%OpenBCI Raw EXG Data
%Number of channels = 8
%Sample Rate = 250 Hz
%Board = OpenBCI_GUI$BoardCytonSerial
Sample Index, EXG Channel 0, EXG Channel 1, EXG Channel 2, EXG Channel 3, EXG Channel 4, EXG Channel 5, EXG Channel 6, EXG Channel 7, Accel Channel 0, Accel Channel 1, Accel Channel 2, Not Used, Digital Channel 0 (D11), Digital Channel 1 (D12), Digital Channel 2 (D13), Digital Channel 3 (D17), Not Used, Digital Channel 4 (D18), Analog Channel 0, Analog Channel 1, Analog Channel 2, Timestamp, Marker Channel, Timestamp (Formatted)
191.0, 3217.310096896899, -3659.7852301341572, -7247.061401255299, -5005.002618432358, -6549.552863782986, -4274.748775333021, -4780.144069211969, -4425.8465678508965, 0.0, 0.0, 0.0, 192.0, 0.0, 0.0, 0.0, 0.0, 0.0, 0.0, 0.0, 0.0, 0.0, 1.7398203514773207E9, 0.0, 2025-02-17 16:25:51.477
192.0, 3217.8688905082813, -3794.678007921935, -7254.191607736541, -4665.21139922278, -6714.0393512295905, -4429.691067897209, -4898.96594273638, -4497.774481508074, 0.0, 0.0, 0.0, 192.0, 0.0, 0.0, 0.0, 0.0, 0.0, 0.0, 0.0, 0.0, 0.0, 1.7398203514773648E9, 0.0, 2025-02-17 16:25:51.477
193.0, 3215.745474785027, -3821.656563479491, -7327.59473652777, -4625.827625492529, -6697.789633010582, -4438.967041846161, -4921.6753151029725, -4554.637319402375, 0.0, 0.0, 0.0, 192.0, 0.0, 0.0, 0.0, 0.0, 0.0, 0.0, 0.0, 0.0, 0.0, 1.7398203514774292E9, 0.0, 2025-02-17 16:25:51.477
194.0, 3215.521957340474, -3657.8182766220903, -7325.180748126597, -5038.463179881952, -6503.441214971687, -4253.872246011763, -4783.474479135809, -4468.4042892938005, 0.0, 0.0, 0.0, 192.0, 0.0, 0.0, 0.0, 0.0, 0.0, 0.0, 0.0, 0.0, 0.0, 1.7398203514774573E9, 0.0, 2025-02-17 16:25:51.477
195.0, 3216.8854137522476, -3646.3294799720625, -7254.862160070201, -5046.979194519424, -6526.262346060556, -4258.163780947182, -4770.04108071817, -4421.644439893298, 0.0, 0.0, 0.0, 192.0, 0.0, 0.0, 0.0, 0.0, 0.0, 0.0, 0.0, 0.0, 0.0, 1.7398203514774842E9, 0.0, 2025-02-17 16:25:51.477
196.0, 3216.68424805215, -3765.9113128079553, -7245.563834376792, -4731.439618043854, -6684.870324715415, -4397.973942515128, -4874.15550639099, -4479.155478376803, 0.0, 0.0, 0.0, 192.0, 0.0, 0.0, 0.0, 0.0, 0.0, 0.0, 0.0, 0.0, 0.0, 1.739820351477511E9, 0.0, 2025-02-17 16:25:51.477
197.0, 3216.8630620077925, -3840.8120084776892, -7316.2847538333845, -4581.235895304191, -6730.020848515135, -4459.5977019784095, -4938.282661233266, -4556.939549081272, 0.0, 0.0, 0.0, 192.0, 0.0, 0.0, 0.0, 0.0, 0.0, 0.0, 0.0, 0.0, 0.0, 1.7398203514775372E9, 0.0, 2025-02-17 16:25:51.477
198.0, 3216.7736550299715, -3682.4722507562938, -7337.183634899096, -4986.048339134257, -6527.804616427972, -4276.447507911624, -4803.211069489846, -4485.749242991119, 0.0, 0.0, 0.0, 192.0, 0.0, 0.0, 0.0, 0.0, 0.0, 0.0, 0.0, 0.0, 0.0, 1.7398203514775803E9, 0.0, 2025-02-17 16:25:51.477
199.0, 3218.0477044639238, -3639.4898461687385, -7266.328604975773, -5079.255113512888, -6512.136043564802, -4240.595309805311, -4764.251978904245, -4423.142006771804, -0.038, 0.8320000000000001, 0.5740000000000001, 192.0, 254.0, 208.0, 26.0, 0.0, 17.0, 240.0, 0.0, 0.0, 0.0, 1.7398203514776075E9, 0.0, 2025-02-17 16:25:51.477
200.0, 3217.287745152443, -3742.1290567075084, -7242.546348875327, -4799.143051998979, -6653.60023422244, -4363.373442098313, -4851.982575891326, -4463.777478191552, -0.038, 0.8320000000000001, 0.5740000000000001, 192.0, 0.0, 0.0, 0.0, 0.0, 0.0, 0.0, 0.0, 0.0, 0.0, 1.7398203514776375E9, 0.0, 2025-02-17 16:25:51.477
201.0, 3216.30426839641, -3848.1210289145747, -7301.331436792784, -4558.459467704233, -6747.790485357104, -4470.214780594681, -4945.010536314313, -4553.51973217961, -0.038, 0.8320000000000001, 0.5740000000000001, 192.0, 0.0, 0.0, 0.0, 0.0, 0.0, 0.0, 0.0, 0.0, 0.0, 1.7398203514776652E9, 0.0, 2025-02-17 16:25:51.477
202.0, 3215.8348817628485, -3709.3166958471174, -7341.8775012347105, -4916.914393533993, -6552.324480095444, -4304.5660024364, -4827.507415712764, -4505.351722878423, -0.038, 0.8320000000000001, 0.5740000000000001, 192.0, 0.0, 0.0, 0.0, 0.0, 0.0, 0.0, 0.0, 0.0, 0.0, 1.7398203514776928E9, 0.0, 2025-02-17 16:25:51.477
203.0, 3217.5783178303623, -3631.7337908427467, -7276.923331847589, -5100.086939345234, -6500.580191681408, -4230.69348701161, -4759.4910573352645, -4425.220719006147, -0.038, 0.8320000000000001, 0.5740000000000001, 192.0, 0.0, 0.0, 0.0, 0.0, 0.0, 0.0, 0.0, 0.0, 0.0, 1.7398203514777203E9, 0.0, 2025-02-17 16:25:51.477
204.0, 3217.0195242189798, -3715.9328122058887, -7240.892319785634, -4865.684195242428, -6621.570184417986, -4334.2714708175035, -4830.256680280767, -4450.008803607083, -0.038, 0.8320000000000001, 0.5740000000000001, 192.0, 0.0, 0.0, 0.0, 0.0, 0.0, 0.0, 0.0, 0.0, 0.0, 1.7398203514777477E9, 0.0, 2025-02-17 16:25:51.477
205.0, 3215.678419551661, -3844.9917846908315, -7287.20513429703, -4560.851104360951, -6758.139343039911, -4470.907684672795, -4943.289451991254, -4543.014412285615, -0.038, 0.8320000000000001, 0.5740000000000001, 192.0, 0.0, 0.0, 0.0, 0.0, 0.0, 0.0, 0.0, 0.0, 0.0, 1.739820351477775E9, 0.0, 2025-02-17 16:25:51.477
206.0, 3216.036047462946, -3740.296213662173, -7345.364373369739, -4840.113799585557, -6591.350625914411, -4339.926462164696, -4854.620081737052, -4522.070827730993, -0.038, 0.8320000000000001, 0.5740000000000001, 192.0, 0.0, 0.0, 0.0, 0.0, 0.0, 0.0, 0.0, 0.0, 0.0, 1.739820351477802E9, 0.0, 2025-02-17 16:25:51.477
207.0, 3219.3441056423317, -3630.7279623422583, -7291.787241910368, -5110.346390050219, -6495.640456156785, -4227.541891043412, -4761.525066080698, -4433.557919687977, -0.038, 0.8320000000000001, 0.5740000000000001, 192.0, 0.0, 0.0, 0.0, 0.0, 0.0, 0.0, 0.0, 0.0, 0.0, 1.739820351477974E9, 0.0, 2025-02-17 16:25:51.477
208.0, 3219.299402153421, -3694.273971828696, -7242.8592732977, -4928.291431461744, -6595.239829449633, -4310.064531572406, -4813.04583705018, -4440.196387791203, -0.038, 0.8320000000000001, 0.5740000000000001, 192.0, 0.0, 0.0, 0.0, 0.0, 0.0, 0.0, 0.0, 0.0, 0.0, 1.7398203514780364E9, 0.0, 2025-02-17 16:25:51.478
209.0, 3216.706599796605, -3833.368877574072, -7273.7270323904795, -4585.594485472976, -6752.417296459353, -4458.457763011189, -4936.807446099216, -4531.5032638911325, -0.042, 0.8300000000000001, 0.5760000000000001, 192.0, 254.0, 176.0, 25.0, 240.0, 18.0, 0.0, 0.0, 0.0, 0.0, 1.7398203514780784E9, 0.0, 2025-02-17 16:25:51.478
210.0, 3218.338277141843, -3774.2261617453296, -7345.8114082588445, -4761.614473058519, -6630.130902544368, -4375.711605037643, -4887.901829231004, -4543.3049849635345, -0.042, 0.8300000000000001, 0.5760000000000001, 192.0, 0.0, 0.0, 0.0, 0.0, 0.0, 0.0, 0.0, 0.0, 0.0, 1.7398203514781015E9, 0.0, 2025-02-17 16:25:51.478
211.0, 3218.1818149306555, -3631.6890873538364, -7304.974771138999, -5101.964485879479, -6489.873706087316, -4230.73819050052, -4765.570731827108, -4444.063239581971, -0.042, 0.8300000000000001, 0.5760000000000001, 192.0, 0.0, 0.0, 0.0, 0.0, 0.0, 0.0, 0.0, 0.0, 0.0, 1.7398203514781213E9, 0.0, 2025-02-17 16:25:51.478
212.0, 3219.1876434311444, -3671.5198959731933, -7246.569662877281, -4983.74610945536, -6565.020270946058, -4284.494135915535, -4795.142089741479, -4432.485035954122, -0.042, 0.8300000000000001, 0.5760000000000001, 192.0, 0.0, 0.0, 0.0, 0.0, 0.0, 0.0, 0.0, 0.0, 0.0, 1.7398203514781942E9, 0.0, 2025-02-17 16:25:51.478
213.0, 3218.8970707532253, -3814.4816535093373, -7263.57934040777, -4632.153169173381, -6737.195758485289, -4445.583158204932, -4920.602431369118, -4515.141786949848, -0.042, 0.8300000000000001, 0.5760000000000001, 192.0, 0.0, 0.0, 0.0, 0.0, 0.0, 0.0, 0.0, 0.0, 0.0, 1.73982035147822E9, 0.0, 2025-02-17 16:25:51.478
214.0, 3217.8018352749154, -3802.836394648122, -7338.390629099683, -4686.534963433142, -6672.018071653613, -4416.324724712936, -4909.806538797205, -4550.032860044582, -0.042, 0.8300000000000001, 0.5760000000000001, 192.0, 0.0, 0.0, 0.0, 0.0, 0.0, 0.0, 0.0, 0.0, 0.0, 1.7398203514782417E9, 0.0, 2025-02-17 16:25:51.478
215.0, 3220.2158236760883, -3646.1283142719644, -7321.179785869096, -5080.484459457929, -6499.8425841143835, -4239.902405727196, -4777.104231966046, -4457.273120555058, -0.042, 0.8300000000000001, 0.5760000000000001, 192.0, 0.0, 0.0, 0.0, 0.0, 0.0, 0.0, 0.0, 0.0, 0.0, 1.7398203514782605E9, 0.0, 2025-02-17 16:25:51.478
216.0, 3221.0651899653903, -3659.114677800498, -7253.677517614069, -5031.265918167343, -6546.53537828152, -4263.595254849823, -4782.960389013337, -4427.92528008524, -0.042, 0.8300000000000001, 0.5760000000000001, 192.0, 0.0, 0.0, 0.0, 0.0, 0.0, 0.0, 0.0, 0.0, 0.0, 1.7398203514782796E9, 0.0, 2025-02-17 16:25:51.478
217.0, 3218.0477044639238, -3789.760624141768, -7250.794142579334, -4690.200649523813, -6711.647714572873, -4415.520061912544, -4896.462547357386, -4496.031045440561, -0.042, 0.8300000000000001, 0.5760000000000001, 192.0, 0.0, 0.0, 0.0, 0.0, 0.0, 0.0, 0.0, 0.0, 0.0, 1.7398203514782987E9, 0.0, 2025-02-17 16:25:51.478
218.0, 3215.96899222958, -3826.6410024930246, -7320.553937024348, -4622.988953946705, -6705.0539499585575, -4442.923300614751, -4928.313783206199, -4557.744211881663, -0.042, 0.8300000000000001, 0.5760000000000001, 192.0, 0.0, 0.0, 0.0, 0.0, 0.0, 0.0, 0.0, 0.0, 0.0, 1.7398203514783175E9, 0.0, 2025-02-17 16:25:51.478
219.0, 3216.4160271186865, -3661.9086458574116, -7323.012628914432, -5037.010316492358, -6508.515060963043, -4254.051059967406, -4790.023540261214, -4473.500487029611, -0.03, 0.806, 0.584, 192.0, 255.0, 16.0, 25.0, 48.0, 18.0, 64.0, 0.0, 0.0, 0.0, 1.7398203514783368E9, 0.0, 2025-02-17 16:25:51.478
220.0, 3217.39950387472, -3643.8037328486125, -7250.525921645871, -5065.374680206141, -6525.681200704718, -4250.586539576833, -4769.102307451047, -4422.985544560617, -0.03, 0.806, 0.584, 192.0, 0.0, 0.0, 0.0, 0.0, 0.0, 0.0, 0.0, 0.0, 0.0, 1.7398203514783573E9, 0.0, 2025-02-17 16:25:51.478
221.0, 3216.371323629776, -3761.105687750064, -7234.231499937952, -4756.920606722904, -6679.528257790596, -4388.273285421525, -4870.020433666758, -4477.166173120281, -0.03, 0.806, 0.584, 192.0, 0.0, 0.0, 0.0, 0.0, 0.0, 0.0, 0.0, 0.0, 0.0, 1.7398203514783764E9, 0.0, 2025-02-17 16:25:51.478
222.0, 3217.0195242189798, -3844.3659358460827, -7299.163317580619, -4585.460375006244, -6736.838130574004, -4463.017518880072, -4943.132989780068, -4560.068793305015, -0.03, 0.806, 0.584, 192.0, 0.0, 0.0, 0.0, 0.0, 0.0, 0.0, 0.0, 0.0, 0.0, 1.739820351478403E9, 0.0, 2025-02-17 16:25:51.478
223.0, 3220.171120187178, -3692.307018316629, -7319.950439924055, -4985.735414711883, -6538.600508999885, -4289.165650506693, -4815.593935918086, -4497.260391385602, -0.03, 0.806, 0.584, 192.0, 0.0, 0.0, 0.0, 0.0, 0.0, 0.0, 0.0, 0.0, 0.0, 1.7398203514784741E9, 0.0, 2025-02-17 16:25:51.478
224.0, 3219.7017335536166, -3640.7415438582357, -7241.428761652561, -5097.114157332678, -6512.605430198363, -4244.931548229641, -4769.392880128966, -4431.054524308983, -0.03, 0.806, 0.584, 192.0, 0.0, 0.0, 0.0, 0.0, 0.0, 0.0, 0.0, 0.0, 0.0, 1.7398203514784968E9, 0.0, 2025-02-17 16:25:51.478
225.0, 3216.4383788631417, -3737.5022456052598, -7208.772863003357, -4825.741627900795, -6646.805303908027, -4359.350128096357, -4851.110857857569, -4466.146763103815, -0.03, 0.806, 0.584, 192.0, 0.0, 0.0, 0.0, 0.0, 0.0, 0.0, 0.0, 0.0, 0.0, 1.7398203514785235E9, 0.0, 2025-02-17 16:25:51.478
226.0, 3212.2138991610886, -3848.724526014868, -7260.003061294921, -4562.527485195099, -6751.456171447775, -4469.812449194485, -4946.888082848559, -4552.111572278925, -0.03, 0.806, 0.584, 192.0, 0.0, 0.0, 0.0, 0.0, 0.0, 0.0, 0.0, 0.0, 0.0, 1.739820351478543E9, 0.0, 2025-02-17 16:25:51.478
227.0, 3216.371323629776, -3721.811320997634, -7313.244916587462, -4907.794881796227, -6569.334157625933, -4313.730217663076, -4839.510302485264, -4513.286592160058, -0.03, 0.806, 0.584, 192.0, 0.0, 0.0, 0.0, 0.0, 0.0, 0.0, 0.0, 0.0, 0.0, 1.739820351478562E9, 0.0, 2025-02-17 16:25:51.478
228.0, 3217.6677248081837, -3637.2323199787525, -7249.654203612114, -5108.5135470048845, -6505.966962095137, -4235.052077180395, -4765.213103915823, -4429.020515563549, -0.03, 0.806, 0.584, 192.0, 0.0, 0.0, 0.0, 0.0, 0.0, 0.0, 0.0, 0.0, 0.0, 1.739820351478582E9, 0.0, 2025-02-17 16:25:51.478
229.0, 3216.7736550299715, -3715.0610941721316, -7206.269467624363, -4886.963055963881, -6619.8267483504715, -4336.305479562936, -4829.362610502554, -4448.9135681287735, -0.03, 0.806, 0.594, 192.0, 255.0, 16.0, 25.0, 48.0, 18.0, 144.0, 0.0, 0.0, 0.0, 1.7398203514786024E9, 0.0, 2025-02-17 16:25:51.478
230.0, 3214.6055358178064, -3848.366898103583, -7246.212034965996, -4569.747098654163, -6757.982880828725, -4470.17007710577, -4946.709268892917, -4544.221406486203, -0.03, 0.806, 0.594, 192.0, 0.0, 0.0, 0.0, 0.0, 0.0, 0.0, 0.0, 0.0, 0.0, 1.7398203514786243E9, 0.0, 2025-02-17 16:25:51.478
231.0, 3215.2090329180996, -3754.5119231357485, -7310.808576441834, -4824.512281955753, -6603.621733620374, -4349.33654658038, -4867.740555732316, -4533.626679614386, -0.03, 0.806, 0.594, 192.0, 0.0, 0.0, 0.0, 0.0, 0.0, 0.0, 0.0, 0.0, 0.0, 1.7398203514786444E9, 0.0, 2025-02-17 16:25:51.478
232.0, 3214.1808526731556, -3634.2595379661966, -7257.522017660382, -5105.227840569954, -6495.305179989956, -4232.12399865675, -4763.313205637122, -4438.162379045771, -0.03, 0.806, 0.594, 192.0, 0.0, 0.0, 0.0, 0.0, 0.0, 0.0, 0.0, 0.0, 0.0, 1.739820351478666E9, 0.0, 2025-02-17 16:25:51.478
233.0, 3212.9068032392033, -3690.54123050466, -7202.648485022603, -4937.321536221688, -6587.260256679089, -4302.531993690967, -4806.921459069426, -4439.727001157642, -0.03, 0.806, 0.594, 192.0, 0.0, 0.0, 0.0, 0.0, 0.0, 0.0, 0.0, 0.0, 0.0, 1.7398203514786868E9, 0.0, 2025-02-17 16:25:51.478
234.0, 3213.175024172667, -3833.011249662787, -7228.308287657295, -4594.825755933018, -6750.472694691742, -4459.016556622571, -4930.616012885095, -4529.290441190057, -0.03, 0.806, 0.594, 192.0, 0.0, 0.0, 0.0, 0.0, 0.0, 0.0, 0.0, 0.0, 0.0, 1.7398203514787188E9, 0.0, 2025-02-17 16:25:51.478
235.0, 3214.8290532623596, -3787.3242839961395, -7303.991294382965, -4742.056696660125, -6644.525425973586, -4389.122651710827, -4893.199192666912, -4548.512941421622, -0.03, 0.806, 0.594, 192.0, 0.0, 0.0, 0.0, 0.0, 0.0, 0.0, 0.0, 0.0, 0.0, 1.7398203514787395E9, 0.0, 2025-02-17 16:25:51.478
236.0, 3216.5724893298734, -3645.1001340270204, -7273.615273668203, -5093.873154386658, -6503.687084160696, -4240.371792360758, -4770.80104002965, -4450.701707685198, -0.03, 0.806, 0.594, 192.0, 0.0, 0.0, 0.0, 0.0, 0.0, 0.0, 0.0, 0.0, 0.0, 1.73982035147876E9, 0.0, 2025-02-17 16:25:51.478
237.0, 3218.0253527194686, -3680.6394077109585, -7212.304438627296, -4992.351531070653, -6565.757878513084, -4282.638941125744, -4797.176098486912, -4438.698820912698, -0.03, 0.806, 0.594, 192.0, 0.0, 0.0, 0.0, 0.0, 0.0, 0.0, 0.0, 0.0, 0.0, 1.73982035147878E9, 0.0, 2025-02-17 16:25:51.478
238.0, 3217.6006695748174, -3818.236746577829, -7220.552232331304, -4644.938367001816, -6733.842996816993, -4439.25761452408, -4917.629649356562, -4518.382789895867, -0.03, 0.806, 0.594, 192.0, 0.0, 0.0, 0.0, 0.0, 0.0, 0.0, 0.0, 0.0, 0.0, 1.7398203514788098E9, 0.0, 2025-02-17 16:25:51.478
239.0, 3214.9184602401806, -3817.5438424997146, -7293.843602400256, -4668.318291702067, -6683.149240392357, -4421.085646281916, -4917.652001101017, -4560.225255516202, -0.034, 0.8, 0.61, 192.0, 254.0, 240.0, 25.0, 0.0, 19.0, 16.0, 0.0, 0.0, 0.0, 1.7398203514788303E9, 0.0, 2025-02-17 16:25:51.478
240.0, 3214.8737567512703, -3658.824105122579, -7284.210000540019, -5060.211427236966, -6508.090377818391, -4248.776048275954, -4783.318016924622, -4465.655024725798, -0.034, 0.8, 0.61, 192.0, 0.0, 0.0, 0.0, 0.0, 0.0, 0.0, 0.0, 0.0, 0.0, 1.739820351478858E9, 0.0, 2025-02-17 16:25:51.478
241.0, 3216.2819166519544, -3664.210875536308, -7214.8525374952005, -5030.237737922399, -6541.617994501352, -4269.339653174836, -4782.736871568784, -4431.166283031259, -0.034, 0.8, 0.61, 192.0, 0.0, 0.0, 0.0, 0.0, 0.0, 0.0, 0.0, 0.0, 0.0, 1.739820351478878E9, 0.0, 2025-02-17 16:25:51.478
242.0, 3215.2537364070104, -3790.162955541963, -7207.007075191388, -4701.108300818003, -6707.534993593096, -4415.6318206348205, -4890.896962988015, -4495.4051965958115, -0.034, 0.8, 0.61, 192.0, 0.0, 0.0, 0.0, 0.0, 0.0, 0.0, 0.0, 0.0, 0.0, 1.7398203514788988E9, 0.0, 2025-02-17 16:25:51.478
243.0, 3215.723123040572, -3841.460209066893, -7280.320797004795, -4612.975372430727, -6715.849842530471, -4447.259539039081, -4936.047486787736, -4565.612025929931, -0.034, 0.8, 0.61, 192.0, 0.0, 0.0, 0.0, 0.0, 0.0, 0.0, 0.0, 0.0, 0.0, 1.7398203514789193E9, 0.0, 2025-02-17 16:25:51.478
244.0, 3217.287745152443, -3681.756994933724, -7296.369349523706, -5016.871394738126, -6526.821139671939, -4269.65257759721, -4801.981723544804, -4486.55390579151, -0.034, 0.8, 0.61, 192.0, 0.0, 0.0, 0.0, 0.0, 0.0, 0.0, 0.0, 0.0, 0.0, 1.7398203514789398E9, 0.0, 2025-02-17 16:25:51.478
245.0, 3217.4442073636305, -3655.4489917098276, -7224.486139355438, -5064.435906939019, -6529.413942028755, -4254.296929156414, -4774.80200228715, -4431.4792074536335, -0.034, 0.8, 0.61, 192.0, 0.0, 0.0, 0.0, 0.0, 0.0, 0.0, 0.0, 0.0, 0.0, 1.7398203514789605E9, 0.0, 2025-02-17 16:25:51.478
246.0, 3215.9913439740353, -3765.5536848966703, -7201.866173966668, -4767.604740572541, -6676.264903100122, -4388.6309133328095, -4868.187590621423, -4478.775498721064, -0.034, 0.8, 0.61, 192.0, 0.0, 0.0, 0.0, 0.0, 0.0, 0.0, 0.0, 0.0, 0.0, 1.7398203514789808E9, 0.0, 2025-02-17 16:25:51.478
247.0, 3214.806701517904, -3852.4796190833595, -7263.489933429949, -4575.71501442373, -6744.795351600093, -4467.733736960142, -4943.915300836004, -4561.812229372529, -0.034, 0.8, 0.61, 192.0, 0.0, 0.0, 0.0, 0.0, 0.0, 0.0, 0.0, 0.0, 0.0, 1.7398203514790013E9, 0.0, 2025-02-17 16:25:51.479
248.0, 3215.097274195823, -3706.2545068567406, -7300.996160625954, -4951.112562550612, -6550.424581816743, -4293.256019742014, -4821.00305807627, -4502.066016443493, -0.034, 0.8, 0.61, 192.0, 0.0, 0.0, 0.0, 0.0, 0.0, 0.0, 0.0, 0.0, 0.0, 1.7398203514790213E9, 0.0, 2025-02-17 16:25:51.479
249.0, 3215.030218962457, -3647.0447357946323, -7232.085732470243, -5081.378529236142, -6514.170052310235, -4241.958766217085, -4768.275292906201, -4431.4792074536335, -0.024, 0.812, 0.5760000000000001, 192.0, 255.0, 64.0, 25.0, 96.0, 18.0, 0.0, 0.0, 0.0, 0.0, 1.739820351479041E9, 0.0, 2025-02-17 16:25:51.479
250.0, 3214.8737567512703, -3739.022164228221, -7197.954618686988, -4828.513244213253, -6644.726591673683, -4358.634872273788, -4844.181817076423, -4464.4703822696665, -0.024, 0.812, 0.5760000000000001, 192.0, 0.0, 0.0, 0.0, 0.0, 0.0, 0.0, 0.0, 0.0, 0.0, 1.739820351479062E9, 0.0, 2025-02-17 16:25:51.479
251.0, 3216.2819166519544, -3858.492238341837, -7250.034183267854, -4564.248569518158, -6756.0606308055685, -4478.194353365226, -4948.095077049145, -4556.559569425532, -0.024, 0.812, 0.5760000000000001, 192.0, 0.0, 0.0, 0.0, 0.0, 0.0, 0.0, 0.0, 0.0, 0.0, 1.739820351479082E9, 0.0, 2025-02-17 16:25:51.479
252.0, 3217.354800385809, -3739.4915508617823, -7305.913544406122, -4878.87172447106, -6584.354529899899, -4328.683534703677, -4848.920386900948, -4522.339048664457, -0.024, 0.812, 0.5760000000000001, 192.0, 0.0, 0.0, 0.0, 0.0, 0.0, 0.0, 0.0, 0.0, 0.0, 1.7398203514791036E9, 0.0, 2025-02-17 16:25:51.479
253.0, 3215.9242887406695, -3646.173017760875, -7244.222729709474, -5091.749738663404, -6506.90573536226, -4239.07539118235, -4767.671795805907, -4437.357716245379, -0.024, 0.812, 0.5760000000000001, 192.0, 0.0, 0.0, 0.0, 0.0, 0.0, 0.0, 0.0, 0.0, 0.0, 1.7398203514791255E9, 0.0, 2025-02-17 16:25:51.479
254.0, 3216.751303285516, -3719.754960507746, -7199.094557654209, -4890.159355420989, -6613.702370369718, -4333.533863250478, -4827.172139545934, -4453.182751319737, -0.024, 0.812, 0.5760000000000001, 192.0, 0.0, 0.0, 0.0, 0.0, 0.0, 0.0, 0.0, 0.0, 0.0, 1.7398203514791868E9, 0.0, 2025-02-17 16:25:51.479
255.0, 3217.2430416635325, -3852.3455086166277, -7235.416142394083, -4576.653787690853, -6764.777811143138, -4473.545190518522, -4943.3341554801655, -4545.227234986691, -0.024, 0.812, 0.5760000000000001, 192.0, 0.0, 0.0, 0.0, 0.0, 0.0, 0.0, 0.0, 0.0, 0.0, 1.73982035147921E9, 0.0, 2025-02-17 16:25:51.479
0.0, 3217.623021319273, -3770.98515879931, -7302.4937275044595, -4799.590086888085, -6620.743169873139, -4369.631930545799, -4875.742480247317, -4539.348726194946, -0.024, 0.812, 0.5760000000000001, 192.0, 0.0, 0.0, 0.0, 0.0, 0.0, 0.0, 0.0, 0.0, 0.0, 1.7398203514792387E9, 0.0, 2025-02-17 16:25:51.479
1.0, 3218.6064980753063, -3650.6210149074814, -7259.019584538888, -5090.878020629647, -6505.676389417218, -4240.438847594124, -4774.6902435648735, -4449.3829547623345, -0.024, 0.812, 0.5760000000000001, 192.0, 0.0, 0.0, 0.0, 0.0, 0.0, 0.0, 0.0, 0.0, 0.0, 1.7398203514792585E9, 0.0, 2025-02-17 16:25:51.479
2.0, 3218.673553308672, -3701.4265300543943, -7203.073168167254, -4944.675260147484, -6588.109622968391, -4306.443548970646, -4813.112892283546, -4448.421829750756, -0.024, 0.812, 0.5760000000000001, 192.0, 0.0, 0.0, 0.0, 0.0, 0.0, 0.0, 0.0, 0.0, 0.0, 1.7398203514792905E9, 0.0, 2025-02-17 16:25:51.479
3.0, 3216.7960067744266, -3836.654584009002, -7220.753398031402, -4607.72271248373, -6751.053840047579, -4463.330443302446, -4930.2136814849, -4530.475083646189, -0.016, 0.8300000000000001, 0.556, 192.0, 255.0, 128.0, 25.0, 240.0, 17.0, 96.0, 0.0, 0.0, 0.0, 1.7398203514793105E9, 0.0, 2025-02-17 16:25:51.479
4.0, 3216.7736550299715, -3801.495289980804, -7295.3858727676725, -4722.901251661927, -6656.908292401826, -4405.39472167429, -4900.999951481814, -4551.798647856552, -0.016, 0.8300000000000001, 0.556, 192.0, 0.0, 0.0, 0.0, 0.0, 0.0, 0.0, 0.0, 0.0, 0.0, 1.739820351479332E9, 0.0, 2025-02-17 16:25:51.479
5.0, 3217.846538763826, -3658.8464568670342, -7272.073003300787, -5073.890694843614, -6508.1797847962125, -4244.551568573901, -4780.456993634342, -4460.447068267711, -0.016, 0.8300000000000001, 0.556, 192.0, 0.0, 0.0, 0.0, 0.0, 0.0, 0.0, 0.0, 0.0, 0.0, 1.7398203514793584E9, 0.0, 2025-02-17 16:25:51.479
6.0, 3217.06422770789, -3683.1428030899533, -7207.677627525048, -4989.244638591366, -6568.753012270095, -4285.812888838397, -4794.270371707723, -4437.514178456567, -0.016, 0.8300000000000001, 0.556, 192.0, 0.0, 0.0, 0.0, 0.0, 0.0, 0.0, 0.0, 0.0, 0.0, 1.7398203514793787E9, 0.0, 2025-02-17 16:25:51.479
7.0, 3214.7619980289937, -3814.1240255980524, -7210.963333959978, -4654.974300262249, -6730.400828170876, -4440.084629068927, -4908.241916685333, -4510.89495550334, -0.016, 0.8300000000000001, 0.556, 192.0, 0.0, 0.0, 0.0, 0.0, 0.0, 0.0, 0.0, 0.0, 0.0, 1.739820351479398E9, 0.0, 2025-02-17 16:25:51.479
8.0, 3216.036047462946, -3826.551595515203, -7287.316893019306, -4655.801314807095, -6697.767281266128, -4437.044791823005, -4920.378913924565, -4560.04644156056, -0.016, 0.8300000000000001, 0.556, 192.0, 0.0, 0.0, 0.0, 0.0, 0.0, 0.0, 0.0, 0.0, 0.0, 1.739820351479418E9, 0.0, 2025-02-17 16:25:51.479
9.0, 3217.846538763826, -3672.8386488960564, -7286.512230218916, -5042.240624694899, -6518.953325623671, -4262.298853671415, -4791.699921095362, -4474.17103936327, -0.016, 0.8300000000000001, 0.556, 192.0, 0.0, 0.0, 0.0, 0.0, 0.0, 0.0, 0.0, 0.0, 0.0, 1.7398203514794378E9, 0.0, 2025-02-17 16:25:51.479
10.0, 3219.1876434311444, -3672.4139657514056, -7219.4346451085385, -5029.991868733391, -6547.183578870724, -4270.345481675325, -4787.9001245379595, -4440.151684302293, -0.016, 0.8300000000000001, 0.556, 192.0, 0.0, 0.0, 0.0, 0.0, 0.0, 0.0, 0.0, 0.0, 0.0, 1.7398203514794574E9, 0.0, 2025-02-17 16:25:51.479
11.0, 3217.935945741647, -3791.459356720371, -7208.348179858706, -4717.64859171493, -6705.61274356994, -4415.832986334919, -4890.405224609998, -4499.830841997962, -0.016, 0.8300000000000001, 0.556, 192.0, 0.0, 0.0, 0.0, 0.0, 0.0, 0.0, 0.0, 0.0, 0.0, 1.7398203514794774E9, 0.0, 2025-02-17 16:25:51.479
12.0, 3216.8407102633373, -3847.2269591363624, -7276.699814403036, -4606.269849094135, -6728.992668270192, -4463.017518880072, -4937.88032983307, -4568.495400964666, -0.016, 0.8300000000000001, 0.556, 192.0, 0.0, 0.0, 0.0, 0.0, 0.0, 0.0, 0.0, 0.0, 0.0, 1.739820351479498E9, 0.0, 2025-02-17 16:25:51.479
13.0, 3216.058399207401, -3692.7093497168244, -7296.838736157267, -4992.664455493028, -6535.024229887036, -4282.9742172925735, -4808.307267225655, -4492.70063551672, -0.01, 0.8160000000000001, 0.548, 192.0, 255.0, 176.0, 25.0, 128.0, 17.0, 32.0, 0.0, 0.0, 0.0, 1.739820351479518E9, 0.0, 2025-02-17 16:25:51.479
14.0, 3214.8737567512703, -3658.242959766741, -7224.910822500089, -5054.847008567692, -6529.928032151227, -4257.716746058077, -4775.472554620809, -4434.742562144108, -0.01, 0.8160000000000001, 0.548, 192.0, 0.0, 0.0, 0.0, 0.0, 0.0, 0.0, 0.0, 0.0, 0.0, 1.7398203514795525E9, 0.0, 2025-02-17 16:25:51.479
15.0, 3212.8620997502926, -3761.2174464723407, -7199.18396463203, -4774.913761009427, -6673.403879809843, -4380.651340562265, -4861.862046940571, -4479.110774887893, -0.01, 0.8160000000000001, 0.548, 192.0, 0.0, 0.0, 0.0, 0.0, 0.0, 0.0, 0.0, 0.0, 0.0, 1.7398203514795735E9, 0.0, 2025-02-17 16:25:51.479
16.0, 3212.817396261382, -3854.71479352889, -7257.544369404837, -4572.719880666719, -6744.795351600093, -4475.422737052767, -4941.83658860166, -4560.895807849862, -0.01, 0.8160000000000001, 0.548, 192.0, 0.0, 0.0, 0.0, 0.0, 0.0, 0.0, 0.0, 0.0, 0.0, 1.7398203514796016E9, 0.0, 2025-02-17 16:25:51.479
17.0, 3213.3538381283092, -3717.184509895386, -7299.3197797918065, -4927.509120405808, -6556.750125497595, -4307.002342582028, -4826.792159890194, -4507.27397290158, -0.01, 0.8160000000000001, 0.548, 192.0, 0.0, 0.0, 0.0, 0.0, 0.0, 0.0, 0.0, 0.0, 0.0, 1.7398203514796207E9, 0.0, 2025-02-17 16:25:51.479
18.0, 3214.784349773449, -3652.632671908459, -7234.879700527156, -5073.711880887971, -6517.902793634271, -4250.228911665548, -4769.035252217681, -4435.658983666776, -0.01, 0.8160000000000001, 0.548, 192.0, 0.0, 0.0, 0.0, 0.0, 0.0, 0.0, 0.0, 0.0, 0.0, 1.7398203514796407E9, 0.0, 2025-02-17 16:25:51.479
19.0, 3214.6278875622615, -3738.530425850204, -7198.692226254014, -4838.124494329035, -6644.480722484675, -4359.953625196651, -4838.638584451507, -4462.302263057502, -0.01, 0.8160000000000001, 0.548, 192.0, 0.0, 0.0, 0.0, 0.0, 0.0, 0.0, 0.0, 0.0, 0.0, 1.7398203514796607E9, 0.0, 2025-02-17 16:25:51.479
20.0, 3212.5491753279184, -3855.586511562647, -7243.753343075913, -4565.612025929931, -6757.871122106448, -4477.546152776022, -4941.210739756911, -4550.926929822795, -0.01, 0.8160000000000001, 0.548, 192.0, 0.0, 0.0, 0.0, 0.0, 0.0, 0.0, 0.0, 0.0, 0.0, 1.73982035147968E9, 0.0, 2025-02-17 16:25:51.479
21.0, 3213.5997073173176, -3746.7335160653015, -7302.672541460102, -4854.396564292499, -6592.043529992525, -4339.635889486777, -4851.6472997244955, -4524.2836504320685, -0.01, 0.8160000000000001, 0.548, 192.0, 0.0, 0.0, 0.0, 0.0, 0.0, 0.0, 0.0, 0.0, 0.0, 1.7398203514797018E9, 0.0, 2025-02-17 16:25:51.479
22.0, 3214.9184602401806, -3651.2245120077746, -7247.977822777966, -5082.026729825346, -6508.515060963043, -4247.703164542099, -4769.437583617876, -4441.313975013969, -0.01, 0.8160000000000001, 0.548, 192.0, 0.0, 0.0, 0.0, 0.0, 0.0, 0.0, 0.0, 0.0, 0.0, 1.7398203514797218E9, 0.0, 2025-02-17 16:25:51.479
23.0, 3212.9291549836585, -3715.3516668500506, -7198.982798931933, -4894.048558956213, -6610.684884868251, -4326.9400986361625, -4820.578374931619, -4453.361565275379, 0.004, 0.8180000000000001, 0.542, 192.0, 0.0, 32.0, 25.0, 144.0, 16.0, 240.0, 0.0, 0.0, 0.0, 1.739820351479742E9, 0.0, 2025-02-17 16:25:51.479
24.0, 3212.0127334609906, -3847.070496925175, -7230.386999891639, -4581.101784837459, -6751.500874936685, -4469.812449194485, -4935.4663414318975, -4542.880301818884, 0.004, 0.8180000000000001, 0.542, 192.0, 0.0, 0.0, 0.0, 0.0, 0.0, 0.0, 0.0, 0.0, 0.0, 1.7398203514797847E9, 0.0, 2025-02-17 16:25:51.479
25.0, 3213.5773555728624, -3777.467164691349, -7301.174974581597, -4778.534743611186, -6626.353457731421, -4376.404509115757, -4877.664730270473, -4541.89682506285, 0.004, 0.8180000000000001, 0.542, 192.0, 0.0, 0.0, 0.0, 0.0, 0.0, 0.0, 0.0, 0.0, 0.0, 1.7398203514798052E9, 0.0, 2025-02-17 16:25:51.479
26.0, 3214.5384805844405, -3653.3255759865733, -7262.014718295899, -5075.790593122315, -6509.029151085514, -4247.926681986652, -4772.790345286173, -4450.5005419850995, 0.004, 0.8180000000000001, 0.542, 192.0, 0.0, 0.0, 0.0, 0.0, 0.0, 0.0, 0.0, 0.0, 0.0, 1.7398203514798248E9, 0.0, 2025-02-17 16:25:51.479
27.0, 3215.1196259402786, -3698.1408236194643, -7205.978894946444, -4945.591681670151, -6587.662588079284, -4307.1588047932155, -4807.100273025068, -4445.650213438298, 0.004, 0.8180000000000001, 0.542, 192.0, 0.0, 0.0, 0.0, 0.0, 0.0, 0.0, 0.0, 0.0, 0.0, 1.7398203514798446E9, 0.0, 2025-02-17 16:25:51.479
28.0, 3214.359666628798, -3833.0336014072423, -7221.803930020801, -4617.57983178852, -6744.90711032237, -4460.0670886119715, -4923.8434343151375, -4526.764694066607, 0.004, 0.8180000000000001, 0.542, 192.0, 0.0, 0.0, 0.0, 0.0, 0.0, 0.0, 0.0, 0.0, 0.0, 1.739820351479864E9, 0.0, 2025-02-17 16:25:51.479
29.0, 3216.4383788631417, -3810.883022652033, -7298.760986180424, -4708.707893932807, -6667.905350673837, -4414.000143289583, -4904.330361405655, -4555.71020313623, 0.004, 0.8180000000000001, 0.542, 192.0, 0.0, 0.0, 0.0, 0.0, 0.0, 0.0, 0.0, 0.0, 0.0, 1.739820351479883E9, 0.0, 2025-02-17 16:25:51.479
30.0, 3217.265393407988, -3667.317768015596, -7279.314968504306, -5059.0938400142, -6515.287639533, -4256.12977220175, -4782.669816335419, -4465.207989836692, 0.004, 0.8180000000000001, 0.542, 192.0, 0.0, 0.0, 0.0, 0.0, 0.0, 0.0, 0.0, 0.0, 0.0, 1.7398203514799137E9, 0.0, 2025-02-17 16:25:51.479
31.0, 3219.1205881977785, -3688.1942973368523, -7216.4395113515275, -4992.351531070653, -6568.663605292274, -4291.959618563606, -4795.432662419398, -4444.085591326427, 0.004, 0.8180000000000001, 0.542, 192.0, 0.0, 0.0, 0.0, 0.0, 0.0, 0.0, 0.0, 0.0, 0.0, 1.739820351479942E9, 0.0, 2025-02-17 16:25:51.479
32.0, 3217.623021319273, -3815.465130265371, -7216.506566584893, -4669.435878924833, -6726.936307780303, -4440.598719191399, -4906.520832362275, -4515.365304394401, 0.004, 0.8180000000000001, 0.542, 192.0, 0.0, 0.0, 0.0, 0.0, 0.0, 0.0, 0.0, 0.0, 0.0, 1.7398203514799623E9, 0.0, 2025-02-17 16:25:51.479
33.0, 3215.365495129287, -3835.0899618971307, -7287.987445352966, -4643.373744889945, -6701.65648480135, -4443.325632014947, -4923.798730826227, -4563.756831140141, -0.004, 0.8220000000000001, 0.526, 192.0, 255.0, 224.0, 25.0, 176.0, 16.0, 112.0, 0.0, 0.0, 0.0, 1.739820351479988E9, 0.0, 2025-02-17 16:25:51.479
34.0, 3215.432550362653, -3681.1534978334307, -7290.334378520773, -5020.47002559543, -6525.547090237987, -4269.27259794147, -4794.560944385641, -4477.546152776022, -0.004, 0.8220000000000001, 0.526, 192.0, 0.0, 0.0, 0.0, 0.0, 0.0, 0.0, 0.0, 0.0, 0.0, 1.7398203514800103E9, 0.0, 2025-02-17 16:25:51.480
35.0, 3216.594841074329, -3674.0456430966433, -7221.870985254167, -5023.442807607986, -6546.0436399035025, -4275.374624177769, -4784.703825080851, -4438.698820912698, -0.004, 0.8220000000000001, 0.526, 192.0, 0.0, 0.0, 0.0, 0.0, 0.0, 0.0, 0.0, 0.0, 0.0, 1.7398203514800308E9, 0.0, 2025-02-17 16:25:51.480
36.0, 3214.2702596509766, -3788.196002029896, -7207.588220547226, -4723.482397017765, -6698.460185344242, -4409.462739165156, -4881.82215473916, -4494.712292517697, -0.004, 0.8220000000000001, 0.526, 192.0, 0.0, 0.0, 0.0, 0.0, 0.0, 0.0, 0.0, 0.0, 0.0, 1.7398203514800513E9, 0.0, 2025-02-17 16:25:51.480
37.0, 3214.136149184245, -3851.5631975606916, -7274.174067279586, -4595.764529200141, -6732.434836916308, -4465.252693325602, -4936.06983853219, -4564.4944387071655, -0.004, 0.8220000000000001, 0.526, 192.0, 0.0, 0.0, 0.0, 0.0, 0.0, 0.0, 0.0, 0.0, 0.0, 1.739820351480072E9, 0.0, 2025-02-17 16:25:51.480
38.0, 3216.1254544407675, -3704.1310911334863, -7299.856221658733, -4970.402118015542, -6544.389610813811, -4295.08886278735, -4813.202299261367, -4495.494603573633, -0.004, 0.8220000000000001, 0.526, 192.0, 0.0, 0.0, 0.0, 0.0, 0.0, 0.0, 0.0, 0.0, 0.0, 1.7398203514800928E9, 0.0, 2025-02-17 16:25:51.480
39.0, 3216.1478061852226, -3666.6472156819364, -7231.281069669852, -5048.633223609117, -6528.72103795064, -4264.1316967167495, -4777.037176732681, -4437.447123223201, -0.004, 0.8220000000000001, 0.526, 192.0, 0.0, 0.0, 0.0, 0.0, 0.0, 0.0, 0.0, 0.0, 0.0, 1.7398203514801123E9, 0.0, 2025-02-17 16:25:51.480
40.0, 3214.2255561620664, -3764.5702081406366, -7204.682493768036, -4784.256790191745, -6665.580769250485, -4380.0031399730615, -4858.844561439105, -4478.306112087502, -0.004, 0.8220000000000001, 0.526, 192.0, 0.0, 0.0, 0.0, 0.0, 0.0, 0.0, 0.0, 0.0, 0.0, 1.7398203514801319E9, 0.0, 2025-02-17 16:25:51.480
41.0, 3212.5938788168287, -3859.8109912647, -7259.556026405815, -4569.680043420797, -6746.941119067803, -4472.874638184862, -4941.903643835026, -4561.0299183165935, -0.004, 0.8220000000000001, 0.526, 192.0, 0.0, 0.0, 0.0, 0.0, 0.0, 0.0, 0.0, 0.0, 0.0, 1.7398203514801507E9, 0.0, 2025-02-17 16:25:51.480
42.0, 3213.040913705935, -3727.600422811559, -7303.745425193957, -4904.35271315011, -6565.914340724271, -4317.418255498202, -4832.111875070557, -4512.057246215016, -0.004, 0.8220000000000001, 0.526, 192.0, 0.0, 0.0, 0.0, 0.0, 0.0, 0.0, 0.0, 0.0, 0.0, 1.739820351480172E9, 0.0, 2025-02-17 16:25:51.480
43.0, 3214.426721862164, -3658.242959766741, -7241.540520374838, -5063.854761583181, -6522.171976825235, -4254.922778001163, -4770.80104002965, -4438.251786023591, -0.002, 0.8140000000000001, 0.534, 192.0, 255.0, 240.0, 25.0, 112.0, 16.0, 176.0, 0.0, 0.0, 0.0, 1.7398203514801917E9, 0.0, 2025-02-17 16:25:51.480
44.0, 3215.6113643182953, -3740.7432485512795, -7204.9507147015, -4845.232349065823, -6639.093952070946, -4359.707756007642, -4838.884453640515, -4465.319748558968, -0.002, 0.8140000000000001, 0.534, 192.0, 0.0, 0.0, 0.0, 0.0, 0.0, 0.0, 0.0, 0.0, 0.0, 1.7398203514802125E9, 0.0, 2025-02-17 16:25:51.480
45.0, 3212.772692772471, -3858.782811019756, -7245.183854721053, -4568.964787598227, -6755.390078471909, -4478.328463831957, -4941.300146734732, -4552.290386234568, -0.002, 0.8140000000000001, 0.534, 192.0, 0.0, 0.0, 0.0, 0.0, 0.0, 0.0, 0.0, 0.0, 0.0, 1.7398203514802425E9, 0.0, 2025-02-17 16:25:51.480
46.0, 3211.6998090386164, -3756.657690603458, -7303.231335071485, -4831.150750058979, -6598.324370184466, -4351.079982647894, -4855.044764881703, -4526.474121388688, -0.002, 0.8140000000000001, 0.534, 192.0, 0.0, 0.0, 0.0, 0.0, 0.0, 0.0, 0.0, 0.0, 0.0, 1.7398203514802618E9, 0.0, 2025-02-17 16:25:51.480
47.0, 3212.68328579465, -3657.281834755163, -7251.643508868637, -5067.229874995933, -6509.7667586525395, -4249.6030628208, -4769.549342340153, -4442.900948870296, -0.002, 0.8140000000000001, 0.534, 192.0, 0.0, 0.0, 0.0, 0.0, 0.0, 0.0, 0.0, 0.0, 0.0, 1.7398203514802876E9, 0.0, 2025-02-17 16:25:51.480
48.0, 3212.8844514947477, -3717.586841295581, -7202.983761189433, -4896.239029912834, -6607.220364477678, -4326.090732346861, -4817.5385376856975, -4452.31103328598, -0.002, 0.8140000000000001, 0.534, 192.0, 0.0, 0.0, 0.0, 0.0, 0.0, 0.0, 0.0, 0.0, 0.0, 1.739820351480307E9, 0.0, 2025-02-17 16:25:51.480
49.0, 3210.87279449377, -3845.3047091132057, -7228.464749868483, -4584.700415694763, -6752.57375867054, -4470.147725361315, -4929.096094262135, -4537.225310471691, -0.002, 0.8140000000000001, 0.534, 192.0, 0.0, 0.0, 0.0, 0.0, 0.0, 0.0, 0.0, 0.0, 0.0, 1.7398203514803264E9, 0.0, 2025-02-17 16:25:51.480
50.0, 3208.816434003882, -3784.2173915168514, -7296.034073356876, -4752.897292720949, -6628.409818221309, -4381.143078940282, -4878.849372726604, -4539.974575039694, -0.002, 0.8140000000000001, 0.534, 192.0, 0.0, 0.0, 0.0, 0.0, 0.0, 0.0, 0.0, 0.0, 0.0, 1.7398203514803455E9, 0.0, 2025-02-17 16:25:51.480
51.0, 3209.1517101707113, -3656.052488810121, -7260.561854906304, -5055.584616134717, -6507.352770251367, -4248.999565720506, -4769.8175632736165, -4448.041850095016, -0.002, 0.8140000000000001, 0.534, 192.0, 0.0, 0.0, 0.0, 0.0, 0.0, 0.0, 0.0, 0.0, 0.0, 1.7398203514803653E9, 0.0, 2025-02-17 16:25:51.480
52.0, 3210.2916491379324, -3695.793890451657, -7204.011941434377, -4941.83658860166, -6578.051337963502, -4303.649580913732, -4799.858307821549, -4442.118637814359, -0.002, 0.8140000000000001, 0.534, 192.0, 0.0, 0.0, 0.0, 0.0, 0.0, 0.0, 0.0, 0.0, 0.0, 1.7398203514803846E9, 0.0, 2025-02-17 16:25:51.480
53.0, 3210.9622014715915, -3828.1609211159853, -7217.959429974489, -4622.988953946705, -6734.558252639563, -4455.060297853983, -4916.646172600529, -4524.149539965337, 0.002, 0.8180000000000001, 0.516, 192.0, 0.0, 16.0, 25.0, 144.0, 16.0, 32.0, 0.0, 0.0, 0.0, 1.7398203514804103E9, 0.0, 2025-02-17 16:25:51.480
54.0, 3208.324695625865, -3809.676028451446, -7288.8144598978115, -4683.562181420587, -6670.900484430848, -4415.855338079374, -4900.552916592707, -4551.731592623186, 0.002, 0.8180000000000001, 0.516, 192.0, 0.0, 0.0, 0.0, 0.0, 0.0, 0.0, 0.0, 0.0, 0.0, 1.7398203514804308E9, 0.0, 2025-02-17 16:25:51.480
55.0, 3210.0234282044685, -3666.736622659758, -7274.889323102156, -5034.32810715772, -6512.1136918203465, -4259.504885614501, -4781.954560512849, -4463.732774702642, 0.002, 0.8180000000000001, 0.516, 192.0, 0.0, 0.0, 0.0, 0.0, 0.0, 0.0, 0.0, 0.0, 0.0, 1.7398203514804509E9, 0.0, 2025-02-17 16:25:51.480
56.0, 3212.2586026499994, -3682.2040298228303, -7211.723293271458, -4984.282551322288, -6558.627672031841, -4288.830374339864, -4790.627037361507, -4440.2857947690245, 0.002, 0.8180000000000001, 0.516, 192.0, 0.0, 0.0, 0.0, 0.0, 0.0, 0.0, 0.0, 0.0, 0.0, 1.739820351480471E9, 0.0, 2025-02-17 16:25:51.480
57.0, 3210.1575386712, -3804.713941182368, -7208.191717647519, -4672.073384770559, -6715.603973341463, -4430.2498615085915, -4895.9037537460035, -4506.268144401091, 0.002, 0.8180000000000001, 0.516, 192.0, 0.0, 0.0, 0.0, 0.0, 0.0, 0.0, 0.0, 0.0, 0.0, 1.73982035148049E9, 0.0, 2025-02-17 16:25:51.480
0.0, 0.0, 0.0, 0.0, 0.0, 0.0, 0.0, 0.0, 0.0, 0.052000000000000005, 0.764, 0.41600000000000004, 192.0, 1.0, 160.0, 23.0, 224.0, 13.0, 0.0, 0.0, 0.0, 0.0, 1.7398203515619905E9, 0.0, 2025-02-17 16:25:51.561
1.0, 3227.7930650464377, -3786.4078624734716, -7342.145722168175, -4998.61001951814, -6656.148333090346, -4413.597811889388, -4893.690931044928, -4558.9735578267055, 0.052000000000000005, 0.764, 0.41600000000000004, 192.0, 0.0, 0.0, 0.0, 0.0, 0.0, 0.0, 0.0, 0.0, 0.0, 1.7398203520529585E9, 0.0, 2025-02-17 16:25:52.052
2.0, 3232.1293034707674, -3797.650789934491, -7319.481053290493, -4982.159135599034, -6678.209504867734, -4432.485035954122, -4900.754082292805, -4564.4944387071655, 0.052000000000000005, 0.764, 0.41600000000000004, 192.0, 0.0, 0.0, 0.0, 0.0, 0.0, 0.0, 0.0, 0.0, 0.0, 1.7398203520530128E9, 0.0, 2025-02-17 16:25:52.053
3.0, 3232.4869313820523, -3827.3562583155945, -7312.3508468092505, -4905.559707350696, -6715.2686971746325, -4466.303225315002, -4925.229242471367, -4586.063872106537, 0.052000000000000005, 0.764, 0.41600000000000004, 192.0, 0.0, 0.0, 0.0, 0.0, 0.0, 0.0, 0.0, 0.0, 0.0, 1.7398203520531294E9, 0.0, 2025-02-17 16:25:52.053
4.0, 3233.1127802268006, -3822.1259501130526, -7332.936803452588, -4894.853221756604, -6696.850859743459, -4453.1380478308265, -4920.200099968923, -4581.995854615671, 0.052000000000000005, 0.764, 0.41600000000000004, 192.0, 0.0, 0.0, 0.0, 0.0, 0.0, 0.0, 0.0, 0.0, 0.0, 1.739820352053151E9, 0.0, 2025-02-17 16:25:52.053
5.0, 3234.0739052383788, -3779.70233913688, -7331.796864485367, -4978.873429164103, -6648.2358155531665, -4409.239221720603, -4881.151602405501, -4547.305947221034, 0.052000000000000005, 0.764, 0.41600000000000004, 192.0, 0.0, 0.0, 0.0, 0.0, 0.0, 0.0, 0.0, 0.0, 0.0, 1.7398203520531845E9, 0.0, 2025-02-17 16:25:52.053
6.0, 3233.4704081380855, -3782.0269205602317, -7304.103053105242, -4973.419603517009, -6655.656594712329, -4414.87186132334, -4880.413994838476, -4543.640261130365, 0.052000000000000005, 0.764, 0.41600000000000004, 192.0, 0.0, 0.0, 0.0, 0.0, 0.0, 0.0, 0.0, 0.0, 0.0, 1.7398203520532048E9, 0.0, 2025-02-17 16:25:52.053
7.0, 3233.06807673789, -3808.357275528583, -7293.307160533329, -4900.3070474036995, -6691.03940618508, -4447.706573928186, -4903.145718949523, -4561.722822394708, 0.052000000000000005, 0.764, 0.41600000000000004, 192.0, 0.0, 0.0, 0.0, 0.0, 0.0, 0.0, 0.0, 0.0, 0.0, 1.7398203520532246E9, 0.0, 2025-02-17 16:25:52.053
8.0, 3232.598690104329, -3813.297011053206, -7310.182727597085, -4865.214808608867, -6688.983045695191, -4445.136123315826, -4906.945515506925, -4565.701432907753, 0.064, 0.838, 0.392, 192.0, 2.0, 0.0, 26.0, 48.0, 12.0, 64.0, 0.0, 0.0, 0.0, 1.739820352053244E9, 0.0, 2025-02-17 16:25:52.053
9.0, 3231.1458267147336, -3768.07943202012, -7315.8153671998225, -4946.239882259355, -6632.187263034256, -4388.496802866078, -4865.505381286786, -4528.2175574562025, 0.064, 0.838, 0.392, 192.0, 0.0, 0.0, 0.0, 0.0, 0.0, 0.0, 0.0, 0.0, 0.0, 1.7398203520532653E9, 0.0, 2025-02-17 16:25:52.053
10.0, 3231.5481581149293, -3760.211617971852, -7289.552067464837, -4963.786001656771, -6629.058018810513, -4386.887477265296, -4858.53163701673, -4520.148577707837, 0.064, 0.838, 0.392, 192.0, 0.0, 0.0, 0.0, 0.0, 0.0, 0.0, 0.0, 0.0, 0.0, 1.739820352053285E9, 0.0, 2025-02-17 16:25:52.053
11.0, 3232.68809708215, -3782.697472893891, -7276.610407425214, -4903.659809071995, -6661.423344781798, -4418.604602647377, -4878.603503537596, -4536.688868604764, 0.064, 0.838, 0.392, 192.0, 0.0, 0.0, 0.0, 0.0, 0.0, 0.0, 0.0, 0.0, 0.0, 1.7398203520533044E9, 0.0, 2025-02-17 16:25:52.053
12.0, 3232.1293034707674, -3794.745063155301, -7287.562762208315, -4851.714354957861, -6671.503981531141, -4429.35579173038, -4890.315817632177, -4547.663575132319, 0.064, 0.838, 0.392, 192.0, 0.0, 0.0, 0.0, 0.0, 0.0, 0.0, 0.0, 0.0, 0.0, 1.7398203520533242E9, 0.0, 2025-02-17 16:25:52.053
13.0, 3229.8494255363257, -3747.5381788656928, -7296.928143135088, -4923.888137804048, -6611.0201610350805, -4375.555142826455, -4848.965090389859, -4511.230231670169, 0.064, 0.838, 0.392, 192.0, 0.0, 0.0, 0.0, 0.0, 0.0, 0.0, 0.0, 0.0, 0.0, 1.7398203520533438E9, 0.0, 2025-02-17 16:25:52.053
14.0, 3228.5753761023734, -3725.6111175550363, -7269.681366644069, -4962.847228389648, -6594.658684093796, -4357.070250161916, -4828.6920581688955, -4492.722987261175, 0.064, 0.838, 0.392, 192.0, 0.0, 0.0, 0.0, 0.0, 0.0, 0.0, 0.0, 0.0, 0.0, 1.739820352053363E9, 0.0, 2025-02-17 16:25:52.053
15.0, 3229.5588528584067, -3736.719934549324, -7249.251872211918, -4919.395437168531, -6617.368056460387, -4373.275264892014, -4838.012735606759, -4501.104891431915, 0.064, 0.838, 0.392, 192.0, 0.0, 0.0, 0.0, 0.0, 0.0, 0.0, 0.0, 0.0, 0.0, 1.7398203520533829E9, 0.0, 2025-02-17 16:25:52.053
16.0, 3231.369344159287, -3750.309795178151, -7249.989479778944, -4860.431535295432, -6635.36121074691, -4388.563858099444, -4850.574415990641, -4512.526632848577, 0.064, 0.838, 0.392, 192.0, 0.0, 0.0, 0.0, 0.0, 0.0, 0.0, 0.0, 0.0, 0.0, 1.7398203520534024E9, 0.0, 2025-02-17 16:25:52.053
17.0, 3233.0904284823455, -3710.5013383032488, -7262.551160162826, -4917.428483656465, -6572.038718705025, -4336.774866196498, -4816.443302207387, -4483.625827267865, 0.064, 0.838, 0.392, 192.0, 0.0, 0.0, 0.0, 0.0, 0.0, 0.0, 0.0, 0.0, 0.0, 1.7398203520534215E9, 0.0, 2025-02-17 16:25:52.053
18.0, 3232.8892627822474, -3678.2477710542407, -7235.349087160717, -4966.915245880514, -6550.312823094467, -4310.645676928243, -4785.687301836884, -4454.970890876161, 0.106, 0.802, 0.396, 192.0, 3.0, 80.0, 25.0, 16.0, 12.0, 96.0, 0.0, 0.0, 0.0, 1.7398203520534413E9, 0.0, 2025-02-17 16:25:52.053
19.0, 3228.0165824909905, -3682.606361223026, -7204.458976323483, -4915.908565033504, -6558.694727265207, -4320.4804444885785, -4787.877772793505, -4453.78624842003, 0.106, 0.802, 0.396, 192.0, 0.0, 0.0, 0.0, 0.0, 0.0, 0.0, 0.0, 0.0, 0.0, 1.7398203520534687E9, 0.0, 2025-02-17 16:25:52.053
20.0, 3226.87664352377, -3699.1913556088634, -7198.178136131542, -4836.984555361814, -6579.951236242204, -4337.1548458522375, -4803.725159612317, -4467.309053815491, 0.106, 0.802, 0.396, 192.0, 0.0, 0.0, 0.0, 0.0, 0.0, 0.0, 0.0, 0.0, 0.0, 1.7398203520534883E9, 0.0, 2025-02-17 16:25:52.053
21.0, 3227.5918993463397, -3667.407174993417, -7212.23738339393, -4866.354747576088, -6532.789055441506, -4293.635999397755, -4774.533781353686, -4442.833893636929, 0.106, 0.802, 0.396, 192.0, 0.0, 0.0, 0.0, 0.0, 0.0, 0.0, 0.0, 0.0, 0.0, 1.7398203520535133E9, 0.0, 2025-02-17 16:25:52.053
22.0, 3230.2070534476106, -3630.8397210645344, -7194.04306340731, -4931.733600107861, -6500.602543425864, -4258.499057114012, -4740.268557103701, -4411.92143105524, 0.106, 0.802, 0.396, 192.0, 0.0, 0.0, 0.0, 0.0, 0.0, 0.0, 0.0, 0.0, 0.0, 1.7398203520535324E9, 0.0, 2025-02-17 16:25:52.053
23.0, 3230.676440081172, -3635.891215311434, -7165.32107178224, -4896.171974679467, -6509.252668530067, -4267.104478729306, -4743.487208305265, -4412.144948499793, 0.106, 0.802, 0.396, 192.0, 0.0, 0.0, 0.0, 0.0, 0.0, 0.0, 0.0, 0.0, 0.0, 1.7398203520535593E9, 0.0, 2025-02-17 16:25:52.053
24.0, 3231.1905302036444, -3658.8017533781235, -7156.380374000118, -4812.464691694342, -6539.852206689383, -4294.574772664878, -4763.603778315041, -4427.455893451678, 0.106, 0.802, 0.396, 192.0, 0.0, 0.0, 0.0, 0.0, 0.0, 0.0, 0.0, 0.0, 0.0, 1.7398203520535789E9, 0.0, 2025-02-17 16:25:52.053
25.0, 3230.6317365922614, -3640.8085990916015, -7171.378394529628, -4810.050703293169, -6512.203098798168, -4272.334786931848, -4745.141237394958, -4410.557974643466, 0.106, 0.802, 0.396, 192.0, 0.0, 0.0, 0.0, 0.0, 0.0, 0.0, 0.0, 0.0, 0.0, 1.7398203520535982E9, 0.0, 2025-02-17 16:25:52.053
27.0, 3230.4082191477087, -3607.3033341530963, -7134.274498733819, -4851.870817169049, -6485.559819407442, -4240.014164449473, -4714.474644002276, -4379.109070194849, 0.106, 0.802, 0.396, 192.0, 0.0, 0.0, 0.0, 0.0, 0.0, 0.0, 0.0, 0.0, 0.0, 1.7398203520536175E9, 0.0, 2025-02-17 16:25:52.053
28.0, 3228.329506913365, -3631.1973489758193, -7123.3444956951735, -4764.98958647127, -6515.555860466464, -4272.357138676302, -4735.708801234818, -4395.448195391678, 0.14200000000000002, 0.78, 0.396, 192.0, 4.0, 112.0, 24.0, 96.0, 12.0, 96.0, 0.0, 0.0, 0.0, 1.7398203520536366E9, 0.0, 2025-02-17 16:25:52.053
29.0, 3224.9320417561585, -3627.3975524184175, -7139.102475536165, -4736.871091946494, -6502.435386471198, -4263.729365316554, -4730.210272098812, -4390.351997655868, 0.14200000000000002, 0.78, 0.396, 192.0, 0.0, 0.0, 0.0, 0.0, 0.0, 0.0, 0.0, 0.0, 0.0, 1.7398203520536568E9, 0.0, 2025-02-17 16:25:52.053
30.0, 3222.9203847551807, -3587.611447287971, -7139.884786592101, -4812.934078327904, -6458.245987683057, -4217.014219404962, -4693.843983870028, -4358.836037973886, 0.14200000000000002, 0.78, 0.396, 192.0, 0.0, 0.0, 0.0, 0.0, 0.0, 0.0, 0.0, 0.0, 0.0, 1.7398203520536757E9, 0.0, 2025-02-17 16:25:52.053
31.0, 3222.205128932611, -3586.0021216871887, -7114.247335701863, -4809.335447470599, -6465.867932542316, -4225.262013108971, -4690.4018152239105, -4353.158694882238, 0.14200000000000002, 0.78, 0.396, 192.0, 0.0, 0.0, 0.0, 0.0, 0.0, 0.0, 0.0, 0.0, 0.0, 1.7398203520536952E9, 0.0, 2025-02-17 16:25:52.053
32.0, 3220.6405068207396, -3609.739674298725, -7102.132690207088, -4735.3064698346225, -6492.533563677498, -4248.88780699823, -4712.083007345558, -4370.146020668271, 0.14200000000000002, 0.78, 0.396, 192.0, 0.0, 0.0, 0.0, 0.0, 0.0, 0.0, 0.0, 0.0, 0.0, 1.7398203520537145E9, 0.0, 2025-02-17 16:25:52.053
33.0, 3218.0253527194686, -3616.311087168585, -7114.3590944241405, -4690.893553601927, -6490.544258420976, -4249.446600609613, -4716.843928914539, -4375.018700959528, 0.14200000000000002, 0.78, 0.396, 192.0, 0.0, 0.0, 0.0, 0.0, 0.0, 0.0, 0.0, 0.0, 0.0, 1.7398203520537336E9, 0.0, 2025-02-17 16:25:52.053
34.0, 3220.3499341428205, -3582.5823047855265, -7126.786664341291, -4769.236417917778, -6450.109952701325, -4212.834443191819, -4685.640893654931, -4348.867159946819, 0.14200000000000002, 0.78, 0.396, 192.0, 0.0, 0.0, 0.0, 0.0, 0.0, 0.0, 0.0, 0.0, 0.0, 1.739820352053753E9, 0.0, 2025-02-17 16:25:52.053
35.0, 3220.528748098463, -3578.3131215945627, -7105.2619344308305, -4784.4356041473875, -6454.379135892289, -4215.6954664821, -4682.154021519902, -4343.659203488732, 0.14200000000000002, 0.78, 0.396, 192.0, 0.0, 0.0, 0.0, 0.0, 0.0, 0.0, 0.0, 0.0, 0.0, 1.7398203520537717E9, 0.0, 2025-02-17 16:25:52.053
36.0, 3220.1040649538118, -3604.0399794626214, -7094.823669770202, -4718.453254515321, -6486.9903310525815, -4245.311527885381, -4704.572821208575, -4361.138267652782, 0.14200000000000002, 0.78, 0.396, 192.0, 0.0, 0.0, 0.0, 0.0, 0.0, 0.0, 0.0, 0.0, 0.0, 1.739820352053798E9, 0.0, 2025-02-17 16:25:52.053
37.0, 3218.673553308672, -3624.022439005666, -7108.100605976654, -4656.807143307584, -6509.207965041157, -4262.231798438049, -4721.001353383226, -4376.002177715562, 0.14200000000000002, 0.78, 0.396, 192.0, 0.0, 0.0, 0.0, 0.0, 0.0, 0.0, 0.0, 0.0, 0.0, 1.7398203520538173E9, 0.0, 2025-02-17 16:25:52.053
38.0, 3215.723123040572, -3594.3169706245626, -7125.60202188516, -4720.286097560656, -6459.56474060592, -4223.675039252644, -4693.240486769734, -4352.264625104025, 0.14400000000000002, 0.8280000000000001, 0.394, 192.0, 4.0, 128.0, 25.0, 224.0, 12.0, 80.0, 0.0, 0.0, 0.0, 1.7398203520538423E9, 0.0, 2025-02-17 16:25:52.053
39.0, 3214.806701517904, -3584.012816430666, -7110.067559488722, -4756.875903233994, -6459.520037117009, -4217.662419994166, -4684.523306432165, -4342.943947666162, 0.14400000000000002, 0.8280000000000001, 0.394, 192.0, 0.0, 0.0, 0.0, 0.0, 0.0, 0.0, 0.0, 0.0, 0.0, 1.7398203520538628E9, 0.0, 2025-02-17 16:25:52.053
40.0, 3215.2537364070104, -3607.9291829978447, -7101.171565195509, -4706.69623693183, -6490.633665398796, -4249.64776630971, -4706.897402631927, -4361.182971141693, 0.14400000000000002, 0.8280000000000001, 0.394, 192.0, 0.0, 0.0, 0.0, 0.0, 0.0, 0.0, 0.0, 0.0, 0.0, 1.739820352053882E9, 0.0, 2025-02-17 16:25:52.053
41.0, 3214.5161288399854, -3636.3158984560846, -7112.682713589992, -4639.998631477193, -6517.500462234076, -4278.5709236348775, -4733.563033767108, -4383.534715597, 0.14400000000000002, 0.8280000000000001, 0.394, 192.0, 0.0, 0.0, 0.0, 0.0, 0.0, 0.0, 0.0, 0.0, 0.0, 1.7398203520539007E9, 0.0, 2025-02-17 16:25:52.053
42.0, 3213.77852127296, -3614.5229476121604, -7137.962536568944, -4693.6875216588405, -6482.81055483944, -4240.5506063164, -4712.3512282790225, -4367.843790989375, 0.14400000000000002, 0.8280000000000001, 0.394, 192.0, 0.0, 0.0, 0.0, 0.0, 0.0, 0.0, 0.0, 0.0, 0.0, 1.73982035205392E9, 0.0, 2025-02-17 16:25:52.053
43.0, 3214.650239306717, -3599.055540449088, -7128.664210875537, -4754.730135766285, -6470.159467477735, -4230.157045144683, -4699.83425138405, -4356.556160039444, 0.14400000000000002, 0.8280000000000001, 0.394, 192.0, 0.0, 0.0, 0.0, 0.0, 0.0, 0.0, 0.0, 0.0, 0.0, 1.7398203520539396E9, 0.0, 2025-02-17 16:25:52.053
44.0, 3215.4996055960187, -3619.7532558147022, -7117.756559581347, -4720.979001638771, -6499.417900969733, -4255.302757656903, -4719.928469649371, -4373.655244547755, 0.14400000000000002, 0.8280000000000001, 0.394, 192.0, 0.0, 0.0, 0.0, 0.0, 0.0, 0.0, 0.0, 0.0, 0.0, 1.739820352053959E9, 0.0, 2025-02-17 16:25:52.053
45.0, 3213.130320683756, -3648.117619528487, -7123.389199184085, -4649.207550192779, -6538.15347411078, -4290.774976107476, -4746.214121128813, -4396.9681140146395, 0.14400000000000002, 0.8280000000000001, 0.394, 192.0, 0.0, 0.0, 0.0, 0.0, 0.0, 0.0, 0.0, 0.0, 0.0, 1.7398203520539784E9, 0.0, 2025-02-17 16:25:52.053
46.0, 3208.905840981703, -3630.52679664216, -7146.143275039587, -4679.583570907542, -6504.134119049802, -4266.344519417825, -4728.578594753575, -4383.847640019374, 0.14400000000000002, 0.8280000000000001, 0.394, 192.0, 0.0, 0.0, 0.0, 0.0, 0.0, 0.0, 0.0, 0.0, 0.0, 1.7398203520539978E9, 0.0, 2025-02-17 16:25:52.053
47.0, 3205.553079313407, -3605.2693254076635, -7139.41539995854, -4753.076106676592, -6477.222618725613, -4235.454408580591, -4707.299734032123, -4365.318043865925, 0.14400000000000002, 0.8280000000000001, 0.394, 192.0, 0.0, 0.0, 0.0, 0.0, 0.0, 0.0, 0.0, 0.0, 0.0, 1.7398203520540173E9, 0.0, 2025-02-17 16:25:52.054
48.0, 3205.329561868854, -3619.6191453479705, -7125.557318396249, -4731.953708166327, -6504.514098705542, -4256.621510579766, -4720.867242916494, -4376.449212604668, 0.154, 0.798, 0.406, 192.0, 4.0, 208.0, 24.0, 240.0, 12.0, 176.0, 0.0, 0.0, 0.0, 1.7398203520540364E9, 0.0, 2025-02-17 16:25:52.054
49.0, 3208.9505444706137, -3657.0583173106097, -7133.022801044322, -4664.518495144665, -6544.05433464698, -4303.314304746903, -4756.026536944692, -4407.585192630911, 0.154, 0.798, 0.406, 192.0, 0.0, 0.0, 0.0, 0.0, 0.0, 0.0, 0.0, 0.0, 0.0, 1.739820352054057E9, 0.0, 2025-02-17 16:25:52.054
50.0, 3206.849480491815, -3651.760953874702, -7157.050926333777, -4672.453364426299, -6524.831834415417, -4287.779842350465, -4751.064449675614, -4405.886460052307, 0.154, 0.798, 0.406, 192.0, 0.0, 0.0, 0.0, 0.0, 0.0, 0.0, 0.0, 0.0, 0.0, 1.7398203520540762E9, 0.0, 2025-02-17 16:25:52.054
51.0, 3205.8660037357813, -3620.826139548557, -7158.347327512184, -4758.5522840681415, -6495.461642201143, -4252.620548322267, -4723.236527828757, -4383.087680707894, 0.154, 0.798, 0.406, 192.0, 0.0, 0.0, 0.0, 0.0, 0.0, 0.0, 0.0, 0.0, 0.0, 1.7398203520540955E9, 0.0, 2025-02-17 16:25:52.054
52.0, 3206.49185258053, -3632.270232709674, -7142.879920349112, -4754.305452621634, -6507.397473740277, -4268.110307229795, -4735.261766345712, -4391.983675001106, 0.154, 0.798, 0.406, 192.0, 0.0, 0.0, 0.0, 0.0, 0.0, 0.0, 0.0, 0.0, 0.0, 1.7398203520541236E9, 0.0, 2025-02-17 16:25:52.054
53.0, 3207.1177014252785, -3664.2779307696737, -7142.74580988238, -4687.719605889274, -6552.257424862079, -4310.064531572406, -4765.056641704637, -4417.77758810253, 0.154, 0.798, 0.406, 192.0, 0.0, 0.0, 0.0, 0.0, 0.0, 0.0, 0.0, 0.0, 0.0, 1.7398203520541494E9, 0.0, 2025-02-17 16:25:52.054
54.0, 3205.307210124399, -3669.5752942055815, -7164.89638863759, -4671.000501036704, -6551.005727172581, -4308.276392015981, -4768.722327795306, -4423.20906200517, 0.154, 0.798, 0.406, 192.0, 0.0, 0.0, 0.0, 0.0, 0.0, 0.0, 0.0, 0.0, 0.0, 1.7398203520541687E9, 0.0, 2025-02-17 16:25:52.054
55.0, 3207.497681081019, -3640.406267691406, -7176.116964354153, -4763.939054481871, -6508.671523174229, -4270.568999119878, -4742.503731549231, -4402.4219396617345, 0.154, 0.798, 0.406, 192.0, 0.0, 0.0, 0.0, 0.0, 0.0, 0.0, 0.0, 0.0, 0.0, 1.7398203520541945E9, 0.0, 2025-02-17 16:25:52.054
56.0, 3207.25181189201, -3645.6812793828585, -7158.74965891238, -4774.064394720125, -6521.881404147316, -4285.65642662721, -4747.264653118212, -4404.768872829542, 0.154, 0.798, 0.406, 192.0, 0.0, 0.0, 0.0, 0.0, 0.0, 0.0, 0.0, 0.0, 0.0, 1.7398203520542145E9, 0.0, 2025-02-17 16:25:52.054
57.0, 3205.597782802318, -3674.246808796741, -7153.720516409936, -4709.221984055279, -6564.372070356855, -4329.66701145971, -4773.974987742304, -4426.762989373564, 0.154, 0.798, 0.406, 192.0, 0.0, 0.0, 0.0, 0.0, 0.0, 0.0, 0.0, 0.0, 0.0, 1.7398203520542338E9, 0.0, 2025-02-17 16:25:52.054
58.0, 3204.390788601731, -3690.0718438710983, -7174.597045731193, -4674.152097004902, -6573.737451283629, -4335.254947573537, -4788.056586749147, -4440.889291869318, 0.188, 0.774, 0.404, 192.0, 5.0, 224.0, 24.0, 48.0, 12.0, 160.0, 0.0, 0.0, 0.0, 1.739820352054253E9, 0.0, 2025-02-17 16:25:52.054
59.0, 3204.8378234908373, -3656.72304114378, -7190.4891360389165, -4767.113002194525, -6527.648154216785, -4285.254095227015, -4758.306414879134, -4417.9787538026285, 0.188, 0.774, 0.404, 192.0, 0.0, 0.0, 0.0, 0.0, 0.0, 0.0, 0.0, 0.0, 0.0, 1.739820352054274E9, 0.0, 2025-02-17 16:25:52.054
60.0, 3207.58708805884, -3658.310015000107, -7174.775859686835, -4798.450147920865, -6535.381857798321, -4297.4134442107015, -4759.55811256863, -4417.129387513326, 0.188, 0.774, 0.404, 192.0, 0.0, 0.0, 0.0, 0.0, 0.0, 0.0, 0.0, 0.0, 0.0, 1.7398203520542932E9, 0.0, 2025-02-17 16:25:52.054
61.0, 3207.58708805884, -3692.307018316629, -7169.679661951025, -4733.607737256019, -6585.293303167022, -4341.915767421218, -4789.174173971913, -4440.263443024569, 0.188, 0.774, 0.404, 192.0, 0.0, 0.0, 0.0, 0.0, 0.0, 0.0, 0.0, 0.0, 0.0, 1.7398203520543125E9, 0.0, 2025-02-17 16:25:52.054
62.0, 3208.548213070418, -3725.1640826659304, -7192.5454965288045, -4674.196800493813, -6610.0813877679575, -4376.0692329489275, -4818.969049330837, -4466.951425904206, 0.188, 0.774, 0.404, 192.0, 0.0, 0.0, 0.0, 0.0, 0.0, 0.0, 0.0, 0.0, 0.0, 1.7398203520543315E9, 0.0, 2025-02-17 16:25:52.054
63.0, 3206.8271287473594, -3698.006713152732, -7216.506566584893, -4748.873978718994, -6572.01636696057, -4344.217997100115, -4793.37630192951, -4448.019498350561, 0.188, 0.774, 0.404, 192.0, 0.0, 0.0, 0.0, 0.0, 0.0, 0.0, 0.0, 0.0, 0.0, 1.7398203520543509E9, 0.0, 2025-02-17 16:25:52.054
64.0, 3206.4247973471643, -3691.5470590051486, -7206.113005413175, -4802.540517156186, -6565.288491879523, -4337.288956318969, -4788.883601293994, -4442.87859712584, 0.188, 0.774, 0.404, 192.0, 0.0, 0.0, 0.0, 0.0, 0.0, 0.0, 0.0, 0.0, 0.0, 1.73982035205437E9, 0.0, 2025-02-17 16:25:52.054
65.0, 3206.49185258053, -3719.3079256186397, -7201.5308977998375, -4760.787458513672, -6605.566335387985, -4363.932235709695, -4815.213956262345, -4464.2915683140245, 0.188, 0.774, 0.404, 192.0, 0.0, 0.0, 0.0, 0.0, 0.0, 0.0, 0.0, 0.0, 0.0, 1.739820352054389E9, 0.0, 2025-02-17 16:25:52.054
66.0, 3204.033160690446, -3751.7403068232907, -7215.299572384307, -4693.128728047458, -6640.278594527077, -4402.891326295296, -4843.690078698406, -4487.98441743665, 0.188, 0.774, 0.404, 192.0, 0.0, 0.0, 0.0, 0.0, 0.0, 0.0, 0.0, 0.0, 0.0, 1.7398203520544086E9, 0.0, 2025-02-17 16:25:52.054
67.0, 3203.653181034706, -3734.8423880150785, -7244.24508145393, -4752.673775276396, -6606.438053421743, -4373.163506169737, -4828.110912813057, -4478.954312676706, 0.188, 0.774, 0.404, 192.0, 0.0, 0.0, 0.0, 0.0, 0.0, 0.0, 0.0, 0.0, 0.0, 1.7398203520544348E9, 0.0, 2025-02-17 16:25:52.054
68.0, 3204.033160690446, -3718.6150215405255, -7238.634793595647, -4827.216843034845, -6594.748091071617, -4359.551293796456, -4813.962258572848, -4467.197295093214, 0.20800000000000002, 0.858, 0.41200000000000003, 192.0, 6.0, 128.0, 26.0, 208.0, 12.0, 224.0, 0.0, 0.0, 0.0, 1.739820352054454E9, 0.0, 2025-02-17 16:25:52.054
69.0, 3204.368436857276, -3731.243757157774, -7228.308287657295, -4812.822319605627, -6617.703332627218, -4380.271360906525, -4827.730933157317, -4479.557809776999, 0.20800000000000002, 0.858, 0.41200000000000003, 192.0, 0.0, 0.0, 0.0, 0.0, 0.0, 0.0, 0.0, 0.0, 0.0, 1.7398203520544808E9, 0.0, 2025-02-17 16:25:52.054
70.0, 3199.786329243938, -3751.7403068232907, -7227.503624856905, -4755.825371244594, -6634.310678757511, -4401.505518139067, -4848.227482822834, -4497.7521297636185, 0.20800000000000002, 0.858, 0.41200000000000003, 192.0, 0.0, 0.0, 0.0, 0.0, 0.0, 0.0, 0.0, 0.0, 0.0, 1.7398203520545068E9, 0.0, 2025-02-17 16:25:52.054
71.0, 3199.786329243938, -3723.957088465344, -7245.094447743231, -4809.156633514957, -6591.551791614508, -4365.161581654737, -4823.305287755166, -4482.485888300645, 0.20800000000000002, 0.858, 0.41200000000000003, 192.0, 0.0, 0.0, 0.0, 0.0, 0.0, 0.0, 0.0, 0.0, 0.0, 1.739820352054527E9, 0.0, 2025-02-17 16:25:52.054
72.0, 3198.9593146990915, -3683.1875065788636, -7227.302459156806, -4906.029093984258, -6548.904663193783, -4321.061589844417, -4786.201391959356, -4448.69005068422, 0.20800000000000002, 0.858, 0.41200000000000003, 192.0, 0.0, 0.0, 0.0, 0.0, 0.0, 0.0, 0.0, 0.0, 0.0, 1.7398203520545464E9, 0.0, 2025-02-17 16:25:52.054
73.0, 3199.138128654734, -3684.4615560128163, -7201.553249544293, -4890.5616868211855, -6563.723869767651, -4328.080037603383, -4788.8388978050825, -4447.3265942724465, 0.20800000000000002, 0.858, 0.41200000000000003, 192.0, 0.0, 0.0, 0.0, 0.0, 0.0, 0.0, 0.0, 0.0, 0.0, 1.739820352054566E9, 0.0, 2025-02-17 16:25:52.054
74.0, 3199.3392943548315, -3705.405140567439, -7195.741795985913, -4815.772749873728, -6595.061015493991, -4356.712622250631, -4809.603668404063, -4464.35862354739, 0.20800000000000002, 0.858, 0.41200000000000003, 192.0, 0.0, 0.0, 0.0, 0.0, 0.0, 0.0, 0.0, 0.0, 0.0, 1.7398203520545857E9, 0.0, 2025-02-17 16:25:52.054
75.0, 3200.367474599776, -3674.0679948410984, -7208.929325214544, -4844.561796732163, -6549.552863782986, -4316.032447341972, -4782.826278546605, -4449.919396629261, 0.20800000000000002, 0.858, 0.41200000000000003, 192.0, 0.0, 0.0, 0.0, 0.0, 0.0, 0.0, 0.0, 0.0, 0.0, 1.7398203520546055E9, 0.0, 2025-02-17 16:25:52.054
76.0, 3199.0263699324573, -3612.8242150335573, -7183.023653390844, -4953.392440485053, -6473.1322494902915, -4246.719687786065, -4726.075199374581, -4401.527869883522, 0.20800000000000002, 0.858, 0.41200000000000003, 192.0, 0.0, 0.0, 0.0, 0.0, 0.0, 0.0, 0.0, 0.0, 0.0, 1.739820352054625E9, 0.0, 2025-02-17 16:25:52.054
77.0, 3199.741625755027, -3608.5550318425935, -7144.422190716528, -4934.9969547983355, -6477.2449704700675, -4249.8712837542635, -4718.833234171061, -4386.619256331833, 0.20800000000000002, 0.858, 0.41200000000000003, 192.0, 0.0, 0.0, 0.0, 0.0, 0.0, 0.0, 0.0, 0.0, 0.0, 1.7398203520546443E9, 0.0, 2025-02-17 16:25:52.054
78.0, 3201.663875778184, -3632.113770498487, -7132.352248710662, -4842.5501397311855, -6510.727883664118, -4277.408632923202, -4740.268557103701, -4400.119709982838, 0.20400000000000001, 0.838, 0.41600000000000004, 192.0, 6.0, 96.0, 26.0, 48.0, 13.0, 0.0, 0.0, 0.0, 0.0, 1.7398203520546637E9, 0.0, 2025-02-17 16:25:52.054
79.0, 3203.0943874233235, -3624.0000872612104, -7144.51159769435, -4813.00113356127, -6496.802746868461, -4267.8867897852415, -4731.953708166327, -4396.386968658801, 0.20400000000000001, 0.838, 0.41600000000000004, 192.0, 0.0, 0.0, 0.0, 0.0, 0.0, 0.0, 0.0, 0.0, 0.0, 1.739820352054684E9, 0.0, 2025-02-17 16:25:52.054
80.0, 3200.30041936641, -3562.175162097831, -7131.949917310467, -4904.173899194468, -6429.836920480361, -4198.238754062504, -4675.649663883408, -4350.811761714431, 0.20400000000000001, 0.838, 0.41600000000000004, 192.0, 0.0, 0.0, 0.0, 0.0, 0.0, 0.0, 0.0, 0.0, 0.0, 1.7398203520547032E9, 0.0, 2025-02-17 16:25:52.054
81.0, 3201.462710078086, -3542.1256473214207, -7093.549620336249, -4912.153471965012, -6419.331600586367, -4185.475907978524, -4657.455343896788, -4331.499854505045, 0.20400000000000001, 0.838, 0.41600000000000004, 192.0, 0.0, 0.0, 0.0, 0.0, 0.0, 0.0, 0.0, 0.0, 0.0, 1.7398203520547223E9, 0.0, 2025-02-17 16:25:52.054
82.0, 3200.9039164667033, -3547.17714156832, -7067.219265367898, -4837.409238506465, -6431.289783869956, -4202.485585509013, -4661.590416621019, -4330.851653915841, 0.20400000000000001, 0.838, 0.41600000000000004, 192.0, 0.0, 0.0, 0.0, 0.0, 0.0, 0.0, 0.0, 0.0, 0.0, 1.7398203520547416E9, 0.0, 2025-02-17 16:25:52.054
83.0, 3202.200317645111, -3544.830208400513, -7066.861637456613, -4784.860287292038, -6420.449187809132, -4195.40008251668, -4658.2376549527235, -4327.14126433626, 0.20400000000000001, 0.838, 0.41600000000000004, 192.0, 0.0, 0.0, 0.0, 0.0, 0.0, 0.0, 0.0, 0.0, 0.0, 1.739820352054768E9, 0.0, 2025-02-17 16:25:52.054
84.0, 3202.200317645111, -3493.6223618534045, -7061.452515298429, -4855.514151515264, -6357.372564956256, -4128.858939273231, -4610.315514840546, -4286.595199894333, 0.20400000000000001, 0.838, 0.41600000000000004, 192.0, 0.0, 0.0, 0.0, 0.0, 0.0, 0.0, 0.0, 0.0, 0.0, 1.7398203520547876E9, 0.0, 2025-02-17 16:25:52.054
85.0, 3202.5132420674854, -3470.644768553349, -7025.399151492018, -4868.455811554887, -6344.252090960991, -4113.838566999265, -4587.114404095937, -4261.896522271219, 0.20400000000000001, 0.838, 0.41600000000000004, 192.0, 0.0, 0.0, 0.0, 0.0, 0.0, 0.0, 0.0, 0.0, 0.0, 1.739820352054813E9, 0.0, 2025-02-17 16:25:52.054
86.0, 3203.1167391677786, -3484.0111117376223, -7001.795709347214, -4787.229572204301, -6369.956597084594, -4135.9891457544745, -4596.09980536697, -4263.751717061009, 0.20400000000000001, 0.838, 0.41600000000000004, 192.0, 0.0, 0.0, 0.0, 0.0, 0.0, 0.0, 0.0, 0.0, 0.0, 1.7398203520548377E9, 0.0, 2025-02-17 16:25:52.054
87.0, 3200.5015850665077, -3498.472690400206, -7001.549840158205, -4694.089853059037, -6391.570733972876, -4151.367145939726, -4605.7557589716625, -4268.333824674347, 0.20400000000000001, 0.838, 0.41600000000000004, 192.0, 0.0, 0.0, 0.0, 0.0, 0.0, 0.0, 0.0, 0.0, 0.0, 1.7398203520548573E9, 0.0, 2025-02-17 16:25:52.054
88.0, 3198.065244920879, -3464.9227219727904, -7009.797633862214, -4735.820559957095, -6333.411494900167, -4113.704456532533, -4572.496363222166, -4240.394144105214, 0.196, 0.8280000000000001, 0.4, 192.0, 6.0, 32.0, 25.0, 224.0, 12.0, 128.0, 0.0, 0.0, 0.0, 1.7398203520548768E9, 0.0, 2025-02-17 16:25:52.054
89.0, 3197.2158786315777, -3453.791553234047, -6989.278732452242, -4757.099420678547, -6324.8060732848735, -4097.119462146695, -4561.700470650252, -4227.072504409851, 0.196, 0.8280000000000001, 0.4, 192.0, 0.0, 0.0, 0.0, 0.0, 0.0, 0.0, 0.0, 0.0, 0.0, 1.7398203520548973E9, 0.0, 2025-02-17 16:25:52.054
90.0, 3198.042893176424, -3484.681664071282, -6980.561552114672, -4678.6000941515085, -6369.375451728756, -4130.758837551933, -4588.768433185629, -4245.155065674194, 0.196, 0.8280000000000001, 0.4, 192.0, 0.0, 0.0, 0.0, 0.0, 0.0, 0.0, 0.0, 0.0, 0.0, 1.7398203520549164E9, 0.0, 2025-02-17 16:25:52.054
91.0, 3195.7406634975273, -3522.6125744119377, -6994.598447632605, -4577.637264446887, -6411.553193515921, -4172.534247938901, -4622.027828935126, -4271.373661920269, 0.196, 0.8280000000000001, 0.4, 192.0, 0.0, 0.0, 0.0, 0.0, 0.0, 0.0, 0.0, 0.0, 0.0, 1.7398203520549352E9, 0.0, 2025-02-17 16:25:52.054
92.0, 3191.627942517751, -3504.127681747399, -7020.526471200761, -4612.550689286076, -6378.629073933253, -4145.2651197034265, -4602.805328703562, -4259.46018212559, 0.196, 0.8280000000000001, 0.4, 192.0, 0.0, 0.0, 0.0, 0.0, 0.0, 0.0, 0.0, 0.0, 0.0, 1.7398203520549543E9, 0.0, 2025-02-17 16:25:52.054
93.0, 3191.5161837954743, -3487.028597239089, -7013.552726930706, -4674.397966193911, -6369.978948829049, -4136.123256221206, -4587.0920523514815, -4245.7585627744875, 0.196, 0.8280000000000001, 0.4, 192.0, 0.0, 0.0, 0.0, 0.0, 0.0, 0.0, 0.0, 0.0, 0.0, 1.7398203520549736E9, 0.0, 2025-02-17 16:25:52.054
94.0, 3191.6726460066616, -3518.1422255208763, -7007.361293716585, -4627.012267948659, -6409.027446392471, -4173.003634572463, -4614.785863731607, -4265.025766494962, 0.196, 0.8280000000000001, 0.4, 192.0, 0.0, 0.0, 0.0, 0.0, 0.0, 0.0, 0.0, 0.0, 0.0, 1.739820352054993E9, 0.0, 2025-02-17 16:25:52.054
95.0, 3188.8116227163823, -3566.1984760997866, -7023.476901468862, -4534.923080792794, -6452.188664935668, -4214.086140881317, -4661.165733476369, -4303.247249513537, 0.196, 0.8280000000000001, 0.4, 192.0, 0.0, 0.0, 0.0, 0.0, 0.0, 0.0, 0.0, 0.0, 0.0, 1.739820352055012E9, 0.0, 2025-02-17 16:25:52.055
96.0, 3185.7047302370943, -3563.9185981653454, -7058.144457119043, -4554.838485102473, -6441.325717130389, -4206.777120444432, -4657.790620063618, -4305.750644892531, 0.196, 0.8280000000000001, 0.4, 192.0, 0.0, 0.0, 0.0, 0.0, 0.0, 0.0, 0.0, 0.0, 0.0, 1.7398203520550313E9, 0.0, 2025-02-17 16:25:52.055
97.0, 3184.8553639477927, -3546.7524584236694, -7063.531227532772, -4641.876178011439, -6422.438493065655, -4187.532268468412, -4643.1502274453915, -4295.558249420911, 0.196, 0.8280000000000001, 0.4, 192.0, 0.0, 0.0, 0.0, 0.0, 0.0, 0.0, 0.0, 0.0, 0.0, 1.7398203520550504E9, 0.0, 2025-02-17 16:25:52.055
98.0, 3185.235343603533, -3573.8427727035014, -7060.334928075663, -4624.218299891746, -6459.587092350375, -4222.780969474432, -4668.54180914662, -4314.1996042966375, 0.184, 0.892, 0.386, 192.0, 5.0, 192.0, 27.0, 224.0, 12.0, 16.0, 0.0, 0.0, 0.0, 1.7398203520550692E9, 0.0, 2025-02-17 16:25:52.055
99.0, 3185.1906401146225, -3620.446159892817, -7077.679881772981, -4551.418668200811, -6513.611258698852, -4270.546647375422, -4713.938202135349, -4351.86229370383, 0.184, 0.892, 0.386, 192.0, 0.0, 0.0, 0.0, 0.0, 0.0, 0.0, 0.0, 0.0, 0.0, 1.7398203520550976E9, 0.0, 2025-02-17 16:25:52.055
100.0, 3185.101233136801, -3629.4092094193948, -7114.381446168595, -4563.578017184498, -6510.258497030556, -4274.637016610744, -4722.2754028171785, -4365.295692121469, 0.184, 0.892, 0.386, 192.0, 0.0, 0.0, 0.0, 0.0, 0.0, 0.0, 0.0, 0.0, 0.0, 1.739820352055117E9, 0.0, 2025-02-17 16:25:52.055
101.0, 3184.654198247695, -3601.581287572538, -7122.986867783889, -4675.4037946944, -6473.847505312861, -4241.779952261442, -4698.0908153165365, -4349.3588983248355, 0.184, 0.892, 0.386, 192.0, 0.0, 0.0, 0.0, 0.0, 0.0, 0.0, 0.0, 0.0, 0.0, 1.7398203520552056E9, 0.0, 2025-02-17 16:25:52.055
102.0, 3185.078881392346, -3618.0992267250094, -7114.269687446319, -4685.3056174881, -6495.931028834704, -4258.543760602923, -4713.893498646438, -4360.735936252587, 0.184, 0.892, 0.386, 192.0, 0.0, 0.0, 0.0, 0.0, 0.0, 0.0, 0.0, 0.0, 0.0, 1.739820352055225E9, 0.0, 2025-02-17 16:25:52.055
103.0, 3185.6376750037284, -3659.494657456238, -7124.685600362493, -4620.3737998454335, -6551.743334739606, -4308.23168852707, -4752.94199620986, -4393.39183490179, 0.184, 0.892, 0.386, 192.0, 0.0, 0.0, 0.0, 0.0, 0.0, 0.0, 0.0, 0.0, 0.0, 1.7398203520552447E9, 0.0, 2025-02-17 16:25:52.055
104.0, 3183.111927880279, -3675.6102652085146, -7153.832275132213, -4604.504061282166, -6551.810389972972, -4324.771979423997, -4768.856438262038, -4410.647381621287, 0.184, 0.892, 0.386, 192.0, 0.0, 0.0, 0.0, 0.0, 0.0, 0.0, 0.0, 0.0, 0.0, 1.7398203520552647E9, 0.0, 2025-02-17 16:25:52.055
105.0, 3182.3743203132535, -3641.926186314367, -7166.908045638567, -4716.419245769888, -6507.7103981626515, -4278.459164912601, -4739.977984425782, -4391.201363945171, 0.184, 0.892, 0.386, 192.0, 0.0, 0.0, 0.0, 0.0, 0.0, 0.0, 0.0, 0.0, 0.0, 1.739820352055284E9, 0.0, 2025-02-17 16:25:52.055
106.0, 3179.8932766787148, -3642.4849799257495, -7151.597100686682, -4742.839007716061, -6523.267212303545, -4285.432909182658, -4741.4084960709215, -4390.3296459114135, 0.184, 0.892, 0.386, 192.0, 0.0, 0.0, 0.0, 0.0, 0.0, 0.0, 0.0, 0.0, 0.0, 1.739820352055303E9, 0.0, 2025-02-17 16:25:52.055
107.0, 3177.9933784000136, -3675.1632303194083, -7151.865321620146, -4683.4057192094, -6568.328329125444, -4328.035334114473, -4771.829220274594, -4414.44717817869, 0.184, 0.892, 0.386, 192.0, 0.0, 0.0, 0.0, 0.0, 0.0, 0.0, 0.0, 0.0, 0.0, 1.739820352055323E9, 0.0, 2025-02-17 16:25:52.055
108.0, 3176.2499423324994, -3697.11264337452, -7175.669929465048, -4643.351393145489, -6589.49543112462, -4346.09554363436, -4790.984665272792, -4433.624974921343, 0.15, 0.926, 0.362, 192.0, 4.0, 176.0, 28.0, 240.0, 11.0, 80.0, 0.0, 0.0, 0.0, 1.739820352055342E9, 0.0, 2025-02-17 16:25:52.055
109.0, 3175.646445232206, -3664.6802621698694, -7191.383205817128, -4745.364754839511, -6528.00578212807, -4304.454243714124, -4763.89435099296, -4415.877689823829, 0.15, 0.926, 0.362, 192.0, 0.0, 0.0, 0.0, 0.0, 0.0, 0.0, 0.0, 0.0, 0.0, 1.7398203520553627E9, 0.0, 2025-02-17 16:25:52.055
110.0, 3176.853439432793, -3658.466477211294, -7176.5192957543495, -4793.175136229413, -6534.398381042288, -4303.582525680366, -4758.03819394567, -4409.3509804428795, 0.15, 0.926, 0.362, 192.0, 0.0, 0.0, 0.0, 0.0, 0.0, 0.0, 0.0, 0.0, 0.0, 1.7398203520553827E9, 0.0, 2025-02-17 16:25:52.055
111.0, 3173.6347882312284, -3684.618018224003, -7170.081993351221, -4736.7146297353065, -6571.68109079374, -4333.6232702283, -4781.395766901465, -4426.7853411180195, 0.15, 0.926, 0.362, 192.0, 0.0, 0.0, 0.0, 0.0, 0.0, 0.0, 0.0, 0.0, 0.0, 1.739820352055402E9, 0.0, 2025-02-17 16:25:52.055
112.0, 3173.3218638088542, -3714.658762771936, -7189.058624393777, -4674.532076660643, -6601.9230010417705, -4362.255854875548, -4809.670723637429, -4452.400440263801, 0.15, 0.926, 0.362, 192.0, 0.0, 0.0, 0.0, 0.0, 0.0, 0.0, 0.0, 0.0, 0.0, 1.739820352055421E9, 0.0, 2025-02-17 16:25:52.055
113.0, 3176.205238843589, -3687.590800236559, -7212.013865949377, -4758.41817360141, -6561.846323233405, -4327.901223647741, -4785.307322181145, -4439.9952220911055, 0.15, 0.926, 0.362, 192.0, 0.0, 0.0, 0.0, 0.0, 0.0, 0.0, 0.0, 0.0, 0.0, 1.739820352055441E9, 0.0, 2025-02-17 16:25:52.055
114.0, 3178.10513712229, -3672.793945407146, -7199.496889054405, -4825.786331389705, -6549.843436460905, -4316.278316530981, -4774.064394720125, -4429.556957430477, 0.15, 0.926, 0.362, 192.0, 0.0, 0.0, 0.0, 0.0, 0.0, 0.0, 0.0, 0.0, 0.0, 1.7398203520554605E9, 0.0, 2025-02-17 16:25:52.055
115.0, 3177.8369161888263, -3695.279800329185, -7191.159688372575, -4783.072147735614, -6581.851134520904, -4347.9507384241515, -4796.2820287087, -4444.711440171175, 0.15, 0.926, 0.362, 192.0, 0.0, 0.0, 0.0, 0.0, 0.0, 0.0, 0.0, 0.0, 0.0, 1.7398203520554872E9, 0.0, 2025-02-17 16:25:52.055
116.0, 3176.1381836102228, -3727.8686437450224, -7203.453147822995, -4708.104396832514, -6619.9385070727485, -4384.004102230561, -4825.316944756144, -4468.650158482809, 0.15, 0.926, 0.362, 192.0, 0.0, 0.0, 0.0, 0.0, 0.0, 0.0, 0.0, 0.0, 0.0, 1.7398203520555136E9, 0.0, 2025-02-17 16:25:52.055
117.0, 3176.8310876883374, -3709.696675502858, -7228.151825446109, -4765.213103915823, -6578.163096685779, -4350.789409969975, -4809.849537593072, -4463.017518880072, 0.15, 0.926, 0.362, 192.0, 0.0, 0.0, 0.0, 0.0, 0.0, 0.0, 0.0, 0.0, 0.0, 1.7398203520555391E9, 0.0, 2025-02-17 16:25:52.055
118.0, 3176.495811521508, -3682.651064711936, -7216.327752629251, -4846.953433388881, -6556.526608053042, -4325.755456180031, -4787.095461737569, -4444.867902382362, 0.10400000000000001, 0.898, 0.358, 192.0, 3.0, 64.0, 28.0, 16.0, 11.0, 48.0, 0.0, 0.0, 0.0, 1.7398203520555587E9, 0.0, 2025-02-17 16:25:52.055
119.0, 3175.5346865099295, -3699.951314920344, -7203.609610034181, -4814.543403928686, -6590.97064625867, -4350.342375080869, -4801.244115977778, -4452.467495497167, 0.10400000000000001, 0.898, 0.358, 192.0, 0.0, 0.0, 0.0, 0.0, 0.0, 0.0, 0.0, 0.0, 0.0, 1.7398203520555797E9, 0.0, 2025-02-17 16:25:52.055
120.0, 3176.29464582141, -3738.1951496833744, -7213.489081083427, -4735.954670423826, -6624.766483875094, -4393.704759324165, -4837.900976884482, -4481.725928989164, 0.10400000000000001, 0.898, 0.358, 192.0, 0.0, 0.0, 0.0, 0.0, 0.0, 0.0, 0.0, 0.0, 0.0, 1.739820352055599E9, 0.0, 2025-02-17 16:25:52.055
121.0, 3175.9593696545803, -3727.3545536225506, -7238.210110450997, -4762.240321903268, -6601.073634752469, -4373.34232012538, -4827.90974711296, -4479.870734199373, 0.10400000000000001, 0.898, 0.358, 192.0, 0.0, 0.0, 0.0, 0.0, 0.0, 0.0, 0.0, 0.0, 0.0, 1.739820352055618E9, 0.0, 2025-02-17 16:25:52.055
122.0, 3173.9030091646923, -3693.178736350386, -7229.7611510468905, -4856.117648615557, -6566.070802935458, -4334.316174306414, -4796.796118831172, -4455.529684487544, 0.10400000000000001, 0.898, 0.358, 192.0, 0.0, 0.0, 0.0, 0.0, 0.0, 0.0, 0.0, 0.0, 0.0, 1.739820352533259E9, 0.0, 2025-02-17 16:25:52.533
123.0, 3174.327692309343, -3705.695713245358, -7214.338447372729, -4840.426724007932, -6592.982303259648, -4352.085811148383, -4807.860232336549, -4460.782344434541, 0.10400000000000001, 0.898, 0.358, 192.0, 0.0, 0.0, 0.0, 0.0, 0.0, 0.0, 0.0, 0.0, 0.0, 1.739820352533326E9, 0.0, 2025-02-17 16:25:52.533
124.0, 3176.361701054776, -3744.520693364226, -7221.33454338724, -4763.2461504037565, -6632.2096147787115, -4396.208154703159, -4843.891244398505, -4488.543211048032, 0.10400000000000001, 0.898, 0.358, 192.0, 0.0, 0.0, 0.0, 0.0, 0.0, 0.0, 0.0, 0.0, 0.0, 1.7398203525333605E9, 0.0, 2025-02-17 16:25:52.533
125.0, 3179.0439103894128, -3747.761696310246, -7247.6648983555915, -4764.028461459692, -6627.269879254089, -4397.884535537307, -4844.315927543155, -4494.5111268176, 0.10400000000000001, 0.898, 0.358, 192.0, 0.0, 0.0, 0.0, 0.0, 0.0, 0.0, 0.0, 0.0, 0.0, 1.739820352533381E9, 0.0, 2025-02-17 16:25:52.533
126.0, 3179.558000511885, -3712.110663904031, -7247.977822777966, -4867.226465609845, -6582.074651965458, -4354.276282105003, -4812.688209138895, -4472.6287689958535, 0.10400000000000001, 0.898, 0.358, 192.0, 0.0, 0.0, 0.0, 0.0, 0.0, 0.0, 0.0, 0.0, 0.0, 1.7398203525334005E9, 0.0, 2025-02-17 16:25:52.533
127.0, 3180.4744220345524, -3719.240870385274, -7231.795159792324, -4870.020433666758, -6598.145556228824, -4361.294729863969, -4820.846595865082, -4475.892123686329, 0.10400000000000001, 0.898, 0.358, 192.0, 0.0, 0.0, 0.0, 0.0, 0.0, 0.0, 0.0, 0.0, 0.0, 1.73982035253342E9, 0.0, 2025-02-17 16:25:52.533
128.0, 3180.2509045899997, -3752.343803923584, -7232.778636548357, -4794.404482174455, -6638.781027648572, -4401.907849539262, -4850.909692157471, -4497.685074530253, 0.07, 0.906, 0.35000000000000003, 192.0, 2.0, 48.0, 28.0, 80.0, 10.0, 240.0, 0.0, 0.0, 0.0, 1.7398203525334415E9, 0.0, 2025-02-17 16:25:52.533
129.0, 3179.3121313228767, -3764.79372558519, -7255.108029259209, -4763.201446914845, -6644.972460862692, -4408.971000787139, -4859.895093428504, -4508.100987446426, 0.07, 0.906, 0.35000000000000003, 192.0, 0.0, 0.0, 0.0, 0.0, 0.0, 0.0, 0.0, 0.0, 0.0, 1.739820352533464E9, 0.0, 2025-02-17 16:25:52.533
130.0, 3179.1109656227786, -3726.952222222355, -7260.785372350857, -4864.231331852833, -6593.697559082218, -4367.732032267098, -4824.266412766745, -4484.02815866806, 0.07, 0.906, 0.35000000000000003, 192.0, 0.0, 0.0, 0.0, 0.0, 0.0, 0.0, 0.0, 0.0, 0.0, 1.739820352533582E9, 0.0, 2025-02-17 16:25:52.533
131.0, 3180.563829012374, -3726.661649544436, -7243.5521773758155, -4888.01358795328, -6603.375864431366, -4371.934160224696, -4823.417046477442, -4481.055376655505, 0.07, 0.906, 0.35000000000000003, 192.0, 0.0, 0.0, 0.0, 0.0, 0.0, 0.0, 0.0, 0.0, 0.0, 1.7398203525336015E9, 0.0, 2025-02-17 16:25:52.533
132.0, 3179.7368144675274, -3756.4565249033603, -7241.3840581636505, -4819.639601664496, -6642.849045139438, -4402.846622806385, -4851.982575891326, -4501.663685043298, 0.07, 0.906, 0.35000000000000003, 192.0, 0.0, 0.0, 0.0, 0.0, 0.0, 0.0, 0.0, 0.0, 0.0, 1.739820352533634E9, 0.0, 2025-02-17 16:25:52.533
133.0, 3178.172192355656, -3778.1824205139187, -7260.271282228385, -4765.906007993938, -6654.449600511743, -4423.544338172, -4872.8367534681265, -4521.556737608521, 0.07, 0.906, 0.35000000000000003, 192.0, 0.0, 0.0, 0.0, 0.0, 0.0, 0.0, 0.0, 0.0, 0.0, 1.7398203525336533E9, 0.0, 2025-02-17 16:25:52.533
134.0, 3180.7649947124714, -3745.9735567538214, -7275.425764969083, -4859.29159632821, -6610.729588357161, -4383.601770830366, -4842.348974031088, -4502.513051332599, 0.07, 0.906, 0.35000000000000003, 192.0, 0.0, 0.0, 0.0, 0.0, 0.0, 0.0, 0.0, 0.0, 0.0, 1.7398203525336723E9, 0.0, 2025-02-17 16:25:52.533
135.0, 3182.5084307799857, -3736.8316932716007, -7259.377212450173, -4904.397416639021, -6611.35543720191, -4381.8806865073075, -4833.900014626982, -4491.98537969415, 0.07, 0.906, 0.35000000000000003, 192.0, 0.0, 0.0, 0.0, 0.0, 0.0, 0.0, 0.0, 0.0, 0.0, 1.7398203525336912E9, 0.0, 2025-02-17 16:25:52.533
136.0, 3181.4802505350413, -3760.3457284385836, -7252.001136779922, -4845.992308377303, -6650.247472554144, -4414.2236607341365, -4855.558855004175, -4505.307019389513, 0.07, 0.906, 0.35000000000000003, 192.0, 0.0, 0.0, 0.0, 0.0, 0.0, 0.0, 0.0, 0.0, 0.0, 1.73982035253371E9, 0.0, 2025-02-17 16:25:52.533
137.0, 3181.1226226237563, -3790.4758799643378, -7268.943759077044, -4776.925418010404, -6673.046251898558, -4436.016611578061, -4885.532544318741, -4530.743304579652, 0.07, 0.906, 0.35000000000000003, 192.0, 0.0, 0.0, 0.0, 0.0, 0.0, 0.0, 0.0, 0.0, 0.0, 1.7398203525337293E9, 0.0, 2025-02-17 16:25:52.533
138.0, 3181.077919134846, -3761.753888339268, -7286.892209874655, -4850.350898546088, -6627.560451932008, -4393.548297112978, -4858.6880992279175, -4516.527595106077, 0.074, 0.89, 0.374, 192.0, 2.0, 80.0, 27.0, 208.0, 11.0, 176.0, 0.0, 0.0, 0.0, 1.739820352533748E9, 0.0, 2025-02-17 16:25:52.533
139.0, 3179.5132970229743, -3738.396315383472, -7267.982634065465, -4914.813329555193, -6613.255335480611, -4375.711605037643, -4837.185721061912, -4497.260391385602, 0.074, 0.89, 0.374, 192.0, 0.0, 0.0, 0.0, 0.0, 0.0, 0.0, 0.0, 0.0, 0.0, 1.7398203525337684E9, 0.0, 2025-02-17 16:25:52.533
140.0, 3178.10513712229, -3755.1154202360417, -7254.951567048021, -4870.512172044775, -6638.557510204018, -4404.232430962615, -4852.63077648053, -4505.08350194496, 0.074, 0.89, 0.374, 192.0, 0.0, 0.0, 0.0, 0.0, 0.0, 0.0, 0.0, 0.0, 0.0, 1.7398203525338E9, 0.0, 2025-02-17 16:25:52.533
141.0, 3177.5016400219965, -3783.300969994184, -7264.4510584415275, -4794.13626124099, -6671.682795486784, -4434.630803421832, -4880.01166343828, -4526.742342322153, 0.074, 0.89, 0.374, 192.0, 0.0, 0.0, 0.0, 0.0, 0.0, 0.0, 0.0, 0.0, 0.0, 1.73982035253382E9, 0.0, 2025-02-17 16:25:52.533
142.0, 3177.9933784000136, -3760.7033563498685, -7283.852372628734, -4846.618157222051, -6626.509919942609, -4398.264515193047, -4859.649224239495, -4517.823996284485, 0.074, 0.89, 0.374, 192.0, 0.0, 0.0, 0.0, 0.0, 0.0, 0.0, 0.0, 0.0, 0.0, 1.7398203525338387E9, 0.0, 2025-02-17 16:25:52.533
143.0, 3176.9875498995248, -3723.5100535762376, -7265.456886942016, -4931.621841385584, -6593.5858003599415, -4366.949721211162, -4828.6920581688955, -4491.739510505141, 0.074, 0.89, 0.374, 192.0, 0.0, 0.0, 0.0, 0.0, 0.0, 0.0, 0.0, 0.0, 0.0, 1.739820352533858E9, 0.0, 2025-02-17 16:25:52.533
144.0, 3179.4015383006977, -3732.629565314003, -7249.497741400927, -4906.453777128909, -6615.199937248223, -4379.824326017419, -4839.510302485264, -4496.4110250963, 0.074, 0.89, 0.374, 192.0, 0.0, 0.0, 0.0, 0.0, 0.0, 0.0, 0.0, 0.0, 0.0, 1.739820352533877E9, 0.0, 2025-02-17 16:25:52.533
145.0, 3181.9496371686027, -3758.915216793444, -7252.29170945784, -4828.423837235432, -6653.421420266798, -4412.524928155533, -4864.924235930948, -4515.544118350043, 0.074, 0.89, 0.374, 192.0, 0.0, 0.0, 0.0, 0.0, 0.0, 0.0, 0.0, 0.0, 0.0, 1.739820352533896E9, 0.0, 2025-02-17 16:25:52.533
146.0, 3181.2790848349437, -3742.2855189186957, -7266.194494509041, -4846.886378155516, -6619.893803583837, -4390.240238933592, -4847.355764789077, -4506.17873742327, 0.074, 0.89, 0.374, 192.0, 0.0, 0.0, 0.0, 0.0, 0.0, 0.0, 0.0, 0.0, 0.0, 1.7398203525339224E9, 0.0, 2025-02-17 16:25:52.533
147.0, 3180.0497388899016, -3701.0912538875646, -7250.7717908348795, -4938.081495533168, -6573.737451283629, -4342.474561032601, -4809.402502703965, -4474.998053908116, 0.074, 0.89, 0.374, 192.0, 0.0, 0.0, 0.0, 0.0, 0.0, 0.0, 0.0, 0.0, 0.0, 1.739820352533943E9, 0.0, 2025-02-17 16:25:52.533
148.0, 3180.5414772679187, -3704.3099050891287, -7227.928308001556, -4919.529547635263, -6588.735471813139, -4351.996404170562, -4811.078883538114, -4469.700690472208, 0.108, 0.932, 0.382, 192.0, 3.0, 96.0, 29.0, 32.0, 11.0, 240.0, 0.0, 0.0, 0.0, 1.7398203525339718E9, 0.0, 2025-02-17 16:25:52.533
149.0, 3179.1556691116893, -3728.8074170121454, -7223.279145154852, -4834.257642538267, -6619.603230905918, -4380.025491717517, -4834.2129390493565, -4483.938751690239, 0.108, 0.932, 0.382, 192.0, 0.0, 0.0, 0.0, 0.0, 0.0, 0.0, 0.0, 0.0, 0.0, 1.7398203525339923E9, 0.0, 2025-02-17 16:25:52.533
150.0, 3179.1109656227786, -3724.0017919542543, -7237.964241261989, -4822.05359006567, -6600.0454545075245, -4370.05661369045, -4828.133264557513, -4483.044681912027, 0.108, 0.932, 0.382, 192.0, 0.0, 0.0, 0.0, 0.0, 0.0, 0.0, 0.0, 0.0, 0.0, 1.7398203525340111E9, 0.0, 2025-02-17 16:25:52.534
151.0, 3180.4520702900973, -3679.700634443836, -7230.297592913818, -4920.200099968923, -6551.050430661492, -4319.09463633235, -4787.7213105823175, -4453.473323997656, 0.108, 0.932, 0.382, 192.0, 0.0, 0.0, 0.0, 0.0, 0.0, 0.0, 0.0, 0.0, 0.0, 1.7398203525340304E9, 0.0, 2025-02-17 16:25:52.534
152.0, 3183.067224391368, -3677.085480342565, -7207.364703102673, -4922.189405225445, -6555.185503385724, -4322.469749745101, -4786.179040214902, -4447.0360215945275, 0.108, 0.932, 0.382, 192.0, 0.0, 0.0, 0.0, 0.0, 0.0, 0.0, 0.0, 0.0, 0.0, 1.7398203525340493E9, 0.0, 2025-02-17 16:25:52.534
153.0, 3182.776651713449, -3698.1408236194643, -7199.51924079886, -4843.555968231674, -6585.807393289494, -4349.694174491665, -4806.183851502401, -4457.3625275328795, 0.108, 0.932, 0.382, 192.0, 0.0, 0.0, 0.0, 0.0, 0.0, 0.0, 0.0, 0.0, 0.0, 1.739820352534076E9, 0.0, 2025-02-17 16:25:52.534
154.0, 3183.5366110249297, -3702.2535445992407, -7212.9526392165, -4804.820395090627, -6585.941503756226, -4350.632947758788, -4809.983648059803, -4463.844533424918, 0.108, 0.932, 0.382, 192.0, 0.0, 0.0, 0.0, 0.0, 0.0, 0.0, 0.0, 0.0, 0.0, 1.7398203525340948E9, 0.0, 2025-02-17 16:25:52.534
155.0, 3183.469555791564, -3655.0913637985427, -7209.66693278157, -4897.468375857875, -6529.257479817567, -4298.441624455646, -4765.436621360376, -4432.172111531748, 0.108, 0.932, 0.382, 192.0, 0.0, 0.0, 0.0, 0.0, 0.0, 0.0, 0.0, 0.0, 0.0, 1.7398203525341136E9, 0.0, 2025-02-17 16:25:52.534
156.0, 3182.3072650798877, -3642.887311325945, -7182.598970246193, -4914.7462743218275, -6520.450892502176, -4286.2599237275035, -4754.037231688169, -4417.576422402432, 0.108, 0.932, 0.382, 192.0, 0.0, 0.0, 0.0, 0.0, 0.0, 0.0, 0.0, 0.0, 0.0, 1.7398203525341325E9, 0.0, 2025-02-17 16:25:52.534
157.0, 3180.1167941232675, -3659.204084778319, -7169.4784962509275, -4841.097276341591, -6546.960061426171, -4308.768130393998, -4770.733984796284, -4425.734809128619, 0.108, 0.932, 0.382, 192.0, 0.0, 0.0, 0.0, 0.0, 0.0, 0.0, 0.0, 0.0, 0.0, 1.7398203525341513E9, 0.0, 2025-02-17 16:25:52.534
158.0, 3179.558000511885, -3671.922227373389, -7178.083917866221, -4778.065356977625, -6554.738468496617, -4324.391999768258, -4782.0886709795805, -4436.083666811427, 0.12, 0.904, 0.378, 192.0, 3.0, 192.0, 28.0, 64.0, 11.0, 208.0, 0.0, 0.0, 0.0, 1.73982035253417E9, 0.0, 2025-02-17 16:25:52.534
159.0, 3181.234381346033, -3632.0467152651213, -7182.37545280164, -4859.604520750585, -6501.0719300594255, -4271.887752042741, -4742.660193760418, -4410.669733365743, 0.12, 0.904, 0.378, 192.0, 0.0, 0.0, 0.0, 0.0, 0.0, 0.0, 0.0, 0.0, 0.0, 1.73982035253419E9, 0.0, 2025-02-17 16:25:52.534
160.0, 3182.4413755466194, -3611.8183865330684, -7157.341499011696, -4898.988294480836, -6489.069043286925, -4252.3299756443475, -4723.035362128659, -4390.709625567153, 0.12, 0.904, 0.378, 192.0, 0.0, 0.0, 0.0, 0.0, 0.0, 0.0, 0.0, 0.0, 0.0, 1.7398203525342093E9, 0.0, 2025-02-17 16:25:52.534
161.0, 3183.514259280474, -3626.659944851392, -7142.432885460006, -4837.900976884482, -6508.135081307302, -4269.898446786219, -4738.167493124902, -4397.079872736916, 0.12, 0.904, 0.378, 192.0, 0.0, 0.0, 0.0, 0.0, 0.0, 0.0, 0.0, 0.0, 0.0, 1.7398203525342278E9, 0.0, 2025-02-17 16:25:52.534
162.0, 3184.7659569699717, -3648.0058608062104, -7149.093705307688, -4760.2733683912, -6531.291488563, -4296.4746709435785, -4756.585330556075, -4411.139119999304, 0.12, 0.904, 0.378, 192.0, 0.0, 0.0, 0.0, 0.0, 0.0, 0.0, 0.0, 0.0, 0.0, 1.7398203525342536E9, 0.0, 2025-02-17 16:25:52.534
163.0, 3184.6989017366054, -3613.315953411574, -7155.486304221905, -4820.153691786968, -6479.927179804705, -4254.162818689682, -4721.3366295500555, -4388.697968566175, 0.12, 0.904, 0.378, 192.0, 0.0, 0.0, 0.0, 0.0, 0.0, 0.0, 0.0, 0.0, 0.0, 1.7398203525342724E9, 0.0, 2025-02-17 16:25:52.534
164.0, 3182.3519685687984, -3580.28007510663, -7128.910080064546, -4876.72595700335, -6455.072039970403, -4224.747922986498, -4690.200649523813, -4359.350128096357, 0.12, 0.904, 0.378, 192.0, 0.0, 0.0, 0.0, 0.0, 0.0, 0.0, 0.0, 0.0, 0.0, 1.7398203525342977E9, 0.0, 2025-02-17 16:25:52.534
165.0, 3181.592009257318, -3587.3879298434176, -7108.771158310314, -4825.004020333769, -6477.557894892442, -4238.941280715619, -4696.705007160307, -4357.71845075112, 0.12, 0.904, 0.378, 192.0, 0.0, 0.0, 0.0, 0.0, 0.0, 0.0, 0.0, 0.0, 0.0, 1.7398203525343165E9, 0.0, 2025-02-17 16:25:52.534
166.0, 3182.396672057709, -3611.6172208329704, -7111.855699045146, -4740.380315825977, -6492.377101466311, -4262.522371115968, -4720.062580116103, -4373.163506169737, 0.12, 0.904, 0.378, 192.0, 0.0, 0.0, 0.0, 0.0, 0.0, 0.0, 0.0, 0.0, 0.0, 1.7398203525343354E9, 0.0, 2025-02-17 16:25:52.534
167.0, 3181.592009257318, -3586.3597495984736, -7121.176376483009, -4774.153801697946, -6450.624042823797, -4223.563280530368, -4694.849812370517, -4359.886569963285, 0.12, 0.904, 0.378, 192.0, 0.0, 0.0, 0.0, 0.0, 0.0, 0.0, 0.0, 0.0, 0.0, 1.7398203525343542E9, 0.0, 2025-02-17 16:25:52.534
168.0, 3181.6814162351393, -3549.3676125249403, -7100.12103320611, -4848.1827793339235, -6418.906917441716, -4189.16394581365, -4659.377593919944, -4330.024639370995, 0.11, 0.9380000000000001, 0.394, 192.0, 3.0, 112.0, 29.0, 80.0, 12.0, 80.0, 0.0, 0.0, 0.0, 1.7398203525343728E9, 0.0, 2025-02-17 16:25:52.534
169.0, 3181.8602301907817, -3553.9497201382783, -7079.155096907031, -4811.123587027024, -6437.280051383978, -4200.250411063482, -4662.439782910322, -4325.66604920221, 0.11, 0.9380000000000001, 0.394, 192.0, 0.0, 0.0, 0.0, 0.0, 0.0, 0.0, 0.0, 0.0, 0.0, 1.7398203525343926E9, 0.0, 2025-02-17 16:25:52.534
170.0, 3182.3072650798877, -3575.765022726658, -7077.9704544509, -4723.102417362024, -6466.896112787261, -4227.251318365493, -4683.740995376229, -4339.166502853215, 0.11, 0.9380000000000001, 0.394, 192.0, 0.0, 0.0, 0.0, 0.0, 0.0, 0.0, 0.0, 0.0, 0.0, 1.7398203525344117E9, 0.0, 2025-02-17 16:25:52.534
171.0, 3184.430680803142, -3561.7728306976355, -7090.576838323694, -4732.870129688994, -6435.871891483294, -4208.542908256401, -4669.413527180377, -4332.639793472265, 0.11, 0.9380000000000001, 0.394, 192.0, 0.0, 0.0, 0.0, 0.0, 0.0, 0.0, 0.0, 0.0, 0.0, 1.73982035253443E9, 0.0, 2025-02-17 16:25:52.534
172.0, 3184.497736036508, -3521.6290976559044, -7074.997672438344, -4820.2878022537, -6386.094556581325, -4162.319500722826, -4631.437913350811, -4301.749682635032, 0.11, 0.9380000000000001, 0.394, 192.0, 0.0, 0.0, 0.0, 0.0, 0.0, 0.0, 0.0, 0.0, 0.0, 1.7398203525344484E9, 0.0, 2025-02-17 16:25:52.534
173.0, 3183.6707214916614, -3521.0032488111556, -7050.947195404434, -4798.003113031758, -6396.085786352848, -4164.509971679446, -4630.745009272696, -4294.4183104536905, 0.11, 0.9380000000000001, 0.394, 192.0, 0.0, 0.0, 0.0, 0.0, 0.0, 0.0, 0.0, 0.0, 0.0, 1.7398203525344667E9, 0.0, 2025-02-17 16:25:52.534
174.0, 3182.173154613156, -3541.633908943404, -7045.53807324625, -4708.3055625326115, -6428.317001857401, -4192.650817948677, -4648.849922281494, -4303.9848570805625, 0.11, 0.9380000000000001, 0.394, 192.0, 0.0, 0.0, 0.0, 0.0, 0.0, 0.0, 0.0, 0.0, 0.0, 1.7398203525344853E9, 0.0, 2025-02-17 16:25:52.534
175.0, 3181.904933679692, -3538.2587955306526, -7057.92093967449, -4685.506783188198, -6418.169309874691, -4180.7820416429095, -4642.479675111732, -4303.649580913732, 0.11, 0.9380000000000001, 0.394, 192.0, 0.0, 0.0, 0.0, 0.0, 0.0, 0.0, 0.0, 0.0, 0.0, 1.739820352534504E9, 0.0, 2025-02-17 16:25:52.534
176.0, 3181.5696575128627, -3494.114100231421, -7047.482675013862, -4774.489077864776, -6367.54260868342, -4138.783113811388, -4599.296104824079, -4270.948978775618, 0.11, 0.9380000000000001, 0.394, 192.0, 0.0, 0.0, 0.0, 0.0, 0.0, 0.0, 0.0, 0.0, 0.0, 1.7398203525345223E9, 0.0, 2025-02-17 16:25:52.534
177.0, 3182.7990034579043, -3491.7001118302483, -7025.287392769742, -4773.863229020028, -6365.150972026703, -4138.313727177826, -4599.430215290811, -4263.684661827643, 0.11, 0.9380000000000001, 0.394, 192.0, 0.0, 0.0, 0.0, 0.0, 0.0, 0.0, 0.0, 0.0, 0.0, 1.7398203525345476E9, 0.0, 2025-02-17 16:25:52.534
178.0, 3182.4413755466194, -3513.090731273977, -7019.34182874463, -4692.659341413897, -6397.717463698085, -4159.525532665913, -4620.1949858897915, -4276.291045700436, 0.088, 0.9380000000000001, 0.294, 192.0, 2.0, 192.0, 29.0, 80.0, 9.0, 48.0, 0.0, 0.0, 0.0, 1.7398203525345664E9, 0.0, 2025-02-17 16:25:52.534
179.0, 3181.882581935237, -3520.444455199773, -7030.987087605845, -4646.324175158045, -6397.918629398183, -4163.1688670121275, -4624.397113847389, -4282.460127170101, 0.088, 0.9380000000000001, 0.294, 192.0, 0.0, 0.0, 0.0, 0.0, 0.0, 0.0, 0.0, 0.0, 0.0, 1.7398203525345929E9, 0.0, 2025-02-17 16:25:52.534
180.0, 3181.882581935237, -3477.1044227009324, -7027.746084659825, -4733.4289233003765, -6346.442561917611, -4117.101921689739, -4582.755813927151, -4253.894597756219, 0.088, 0.9380000000000001, 0.294, 192.0, 0.0, 0.0, 0.0, 0.0, 0.0, 0.0, 0.0, 0.0, 0.0, 1.7398203525346117E9, 0.0, 2025-02-17 16:25:52.534
181.0, 3178.0827853778346, -3462.218160893698, -7000.342845957619, -4748.203426385335, -6338.217119958058, -4106.306029117826, -4568.607159686942, -4234.515635313468, 0.088, 0.9380000000000001, 0.294, 192.0, 0.0, 0.0, 0.0, 0.0, 0.0, 0.0, 0.0, 0.0, 0.0, 1.7398203525346303E9, 0.0, 2025-02-17 16:25:52.534
182.0, 3176.495811521508, -3481.4630128697177, -6990.552781886195, -4675.560256905586, -6361.820562102862, -4127.29431716136, -4586.712072695741, -4241.958766217085, 0.088, 0.9380000000000001, 0.294, 192.0, 0.0, 0.0, 0.0, 0.0, 0.0, 0.0, 0.0, 0.0, 0.0, 1.739820352534649E9, 0.0, 2025-02-17 16:25:52.534
183.0, 3174.372395798254, -3497.064530499522, -6999.269962223764, -4607.186270616802, -6374.315187253379, -4138.827817300298, -4599.676084479819, -4253.335804144836, 0.088, 0.9380000000000001, 0.294, 192.0, 0.0, 0.0, 0.0, 0.0, 0.0, 0.0, 0.0, 0.0, 0.0, 1.7398203525346675E9, 0.0, 2025-02-17 16:25:52.534
184.0, 3175.7582039544827, -3462.4640300827064, -7004.209697748387, -4681.774041864162, -6326.325991907835, -4099.578154036779, -4564.695604407264, -4232.50397831249, 0.088, 0.9380000000000001, 0.294, 192.0, 0.0, 0.0, 0.0, 0.0, 0.0, 0.0, 0.0, 0.0, 0.0, 1.7398203525346923E9, 0.0, 2025-02-17 16:25:52.534
185.0, 3177.7698609554604, -3445.5661112744942, -6984.674273094449, -4723.147120850936, -6319.240488915502, -4089.2963515873375, -4549.89874957785, -4216.254260093482, 0.088, 0.9380000000000001, 0.294, 192.0, 0.0, 0.0, 0.0, 0.0, 0.0, 0.0, 0.0, 0.0, 0.0, 1.739820352534711E9, 0.0, 2025-02-17 16:25:52.534
186.0, 3177.4122330441755, -3463.961596961212, -6975.465354378862, -4662.529189888142, -6346.800189828896, -4107.490671573958, -4568.316587009023, -4223.228004363537, 0.088, 0.9380000000000001, 0.294, 192.0, 0.0, 0.0, 0.0, 0.0, 0.0, 0.0, 0.0, 0.0, 0.0, 1.7398203525347297E9, 0.0, 2025-02-17 16:25:52.534
187.0, 3174.6406167317173, -3483.8770012708906, -6982.550857371195, -4581.638226704386, -6372.124716296758, -4135.00566899844, -4585.52743023961, -4235.454408580591, 0.088, 0.9380000000000001, 0.294, 192.0, 0.0, 0.0, 0.0, 0.0, 0.0, 0.0, 0.0, 0.0, 0.0, 1.7398203525347483E9, 0.0, 2025-02-17 16:25:52.534
188.0, 3174.5065062649855, -3458.306605614019, -6992.877363309546, -4636.601166319986, -6325.409570385167, -4099.153470892128, -4559.957034582739, -4221.953954929585, 0.096, 0.932, 0.34800000000000003, 192.0, 3.0, 0.0, 29.0, 32.0, 10.0, 224.0, 0.0, 0.0, 0.0, 1.7398203525347672E9, 0.0, 2025-02-17 16:25:52.534
189.0, 3175.2441138320105, -3436.1113233698993, -6976.0688514791555, -4697.934353105349, -6304.689503275097, -4074.320682802282, -4541.315679707012, -4205.614829732755, 0.096, 0.932, 0.34800000000000003, 192.0, 0.0, 0.0, 0.0, 0.0, 0.0, 0.0, 0.0, 0.0, 0.0, 1.7398203525347984E9, 0.0, 2025-02-17 16:25:52.534
190.0, 3172.9195324086586, -3448.583596775961, -6963.216598417354, -4649.296957170601, -6331.131616965726, -4090.346883576737, -4553.989118813171, -4209.97341990154, 0.096, 0.932, 0.34800000000000003, 192.0, 0.0, 0.0, 0.0, 0.0, 0.0, 0.0, 0.0, 0.0, 0.0, 1.739820352534818E9, 0.0, 2025-02-17 16:25:52.534
191.0, 3172.092517863812, -3476.635036067371, -6971.039708976711, -4564.963825340727, -6362.178190014147, -4123.919203748608, -4579.671273192319, -4228.391257332713, 0.096, 0.932, 0.34800000000000003, 192.0, 0.0, 0.0, 0.0, 0.0, 0.0, 0.0, 0.0, 0.0, 0.0, 1.7398203525348368E9, 0.0, 2025-02-17 16:25:52.534
192.0, 3171.6678347191614, -3461.4358498377624, -6986.060081250678, -4595.518660011132, -6330.550471609888, -4103.087377916262, -4561.879284605895, -4222.602155518789, 0.096, 0.932, 0.34800000000000003, 192.0, 0.0, 0.0, 0.0, 0.0, 0.0, 0.0, 0.0, 0.0, 0.0, 1.7398203525348556E9, 0.0, 2025-02-17 16:25:52.534
193.0, 3171.5784277413404, -3433.0491343795225, -6973.0960694666, -4673.101565015503, -6303.10252941877, -4076.3099880588043, -4535.236005215169, -4199.9151348966525, 0.096, 0.932, 0.34800000000000003, 192.0, 0.0, 0.0, 0.0, 0.0, 0.0, 0.0, 0.0, 0.0, 0.0, 1.7398203525348816E9, 0.0, 2025-02-17 16:25:52.534
194.0, 3169.164439340167, -3443.9120821848014, -6958.746249526293, -4640.669183810853, -6322.168567439147, -4085.4965550299357, -4546.5906913984645, -4203.133786098217, 0.096, 0.932, 0.34800000000000003, 192.0, 0.0, 0.0, 0.0, 0.0, 0.0, 0.0, 0.0, 0.0, 0.0, 1.7398203525349004E9, 0.0, 2025-02-17 16:25:52.534
195.0, 3168.0915556063123, -3473.0811086989775, -6965.161200184965, -4557.163066525825, -6358.534855667932, -4116.990162967463, -4574.932703367795, -4222.535100285423, 0.096, 0.932, 0.34800000000000003, 192.0, 0.0, 0.0, 0.0, 0.0, 0.0, 0.0, 0.0, 0.0, 0.0, 1.7398203525349257E9, 0.0, 2025-02-17 16:25:52.534
196.0, 3169.3879567847202, -3469.437774352762, -6984.450755649896, -4565.2543980186465, -6343.268614204957, -4110.083473930773, -4568.964787598227, -4225.5078822979785, 0.096, 0.932, 0.34800000000000003, 192.0, 0.0, 0.0, 0.0, 0.0, 0.0, 0.0, 0.0, 0.0, 0.0, 1.7398203525349445E9, 0.0, 2025-02-17 16:25:52.534
197.0, 3166.4822300055303, -3431.998602390123, -6973.3642904000635, -4654.057878739582, -6305.807090497862, -4074.2536275689163, -4533.51492089211, -4199.959838385563, 0.096, 0.932, 0.34800000000000003, 192.0, 0.0, 0.0, 0.0, 0.0, 0.0, 0.0, 0.0, 0.0, 0.0, 1.7398203525349634E9, 0.0, 2025-02-17 16:25:52.534
198.0, 3164.7611456824716, -3437.675945481771, -6957.203979158876, -4641.742067544707, -6314.479567346521, -4084.0213398958854, -4540.063982017516, -4198.126995340228, 0.11, 0.932, 0.332, 192.0, 3.0, 112.0, 29.0, 32.0, 10.0, 96.0, 0.0, 0.0, 0.0, 1.739820352534982E9, 0.0, 2025-02-17 16:25:52.534
199.0, 3163.643558459706, -3465.6603295398154, -6959.372098371041, -4564.360328240434, -6346.822541573351, -4111.558689064824, -4569.098898064959, -4217.237736849515, 0.11, 0.932, 0.332, 192.0, 0.0, 0.0, 0.0, 0.0, 0.0, 0.0, 0.0, 0.0, 0.0, 1.7398203525350015E9, 0.0, 2025-02-17 16:25:52.535
200.0, 3164.0682416043574, -3469.5495330750387, -6977.253493935286, -4546.143656509359, -6346.800189828896, -4118.800654268343, -4569.680043420797, -4222.780969474432, 0.11, 0.932, 0.332, 192.0, 0.0, 0.0, 0.0, 0.0, 0.0, 0.0, 0.0, 0.0, 0.0, 1.7398203525350204E9, 0.0, 2025-02-17 16:25:52.535
201.0, 3163.3529857817875, -3433.809093691003, -6975.174781700944, -4642.0326402226265, -6302.275514873924, -4071.3926042786366, -4535.995964526649, -4200.518631996945, 0.11, 0.932, 0.332, 192.0, 0.0, 0.0, 0.0, 0.0, 0.0, 0.0, 0.0, 0.0, 0.0, 1.739820352535039E9, 0.0, 2025-02-17 16:25:52.535
202.0, 3161.430735758631, -3429.8081314335027, -6955.795819258192, -4650.749820560196, -6303.951895708072, -4069.1127263441954, -4533.783141825574, -4193.187259815605, 0.11, 0.932, 0.332, 192.0, 0.0, 0.0, 0.0, 0.0, 0.0, 0.0, 0.0, 0.0, 0.0, 1.7398203525350578E9, 0.0, 2025-02-17 16:25:52.535
203.0, 3161.4530875030864, -3448.87416945388, -6952.912444223457, -4586.667369206831, -6335.132579223226, -4095.867764457198, -4552.893883334861, -4204.7878151879095, 0.11, 0.932, 0.332, 192.0, 0.0, 0.0, 0.0, 0.0, 0.0, 0.0, 0.0, 0.0, 0.0, 1.7398203525350764E9, 0.0, 2025-02-17 16:25:52.535
204.0, 3160.5366659804185, -3453.791553234047, -6963.171894928443, -4551.508075178633, -6333.567957111354, -4103.087377916262, -4556.38075546989, -4210.711027468566, 0.11, 0.932, 0.332, 192.0, 0.0, 0.0, 0.0, 0.0, 0.0, 0.0, 0.0, 0.0, 0.0, 1.7398203525350947E9, 0.0, 2025-02-17 16:25:52.535
205.0, 3160.5143142359634, -3413.9160411257794, -6960.310871638164, -4646.055954224581, -6276.571008750321, -4051.4101447355924, -4517.935755006762, -4186.168812056639, 0.11, 0.932, 0.332, 192.0, 0.0, 0.0, 0.0, 0.0, 0.0, 0.0, 0.0, 0.0, 0.0, 1.7398203525351136E9, 0.0, 2025-02-17 16:25:52.535
206.0, 3159.5755409688404, -3398.8509653629026, -6935.791007970693, -4672.609826637487, -6270.1560580916475, -4039.0943335407183, -4505.4634816007, -4171.103736293761, 0.11, 0.932, 0.332, 192.0, 0.0, 0.0, 0.0, 0.0, 0.0, 0.0, 0.0, 0.0, 0.0, 1.739820352535132E9, 0.0, 2025-02-17 16:25:52.535
207.0, 3156.1557240671787, -3411.837328891436, -6923.162272353444, -4603.364122314945, -6297.089910160293, -4062.5860169632456, -4517.980458495672, -4174.903532851164, 0.11, 0.932, 0.332, 192.0, 0.0, 0.0, 0.0, 0.0, 0.0, 0.0, 0.0, 0.0, 0.0, 1.7398203525351505E9, 0.0, 2025-02-17 16:25:52.535
208.0, 3154.300529277388, -3430.0987041114217, -6932.818225958136, -4534.9677842817055, -6312.490262089999, -4074.8794764136646, -4534.073714503493, -4186.504088223468, 0.092, 0.926, 0.292, 192.0, 2.0, 224.0, 28.0, 240.0, 9.0, 32.0, 0.0, 0.0, 0.0, 1.739820352535169E9, 0.0, 2025-02-17 16:25:52.535
209.0, 3154.1887705551117, -3399.5215176965617, -6937.802664971669, -4604.168785115336, -6263.003499865949, -4037.8202841067655, -4502.490699588144, -4167.527457180912, 0.092, 0.926, 0.292, 192.0, 0.0, 0.0, 0.0, 0.0, 0.0, 0.0, 0.0, 0.0, 0.0, 1.7398203525351956E9, 0.0, 2025-02-17 16:25:52.535
210.0, 3154.4122879996644, -3380.164906998266, -6918.446054273374, -4647.8440937810055, -6257.504970729944, -4024.677458367045, -4483.737585990141, -4149.623709872211, 0.092, 0.926, 0.292, 192.0, 0.0, 0.0, 0.0, 0.0, 0.0, 0.0, 0.0, 0.0, 0.0, 1.7398203525352144E9, 0.0, 2025-02-17 16:25:52.535
211.0, 3156.62511070074, -3398.6945031517153, -6912.276972803709, -4597.1279856119145, -6279.968473907527, -4044.9281388435534, -4503.362417621901, -4158.922035565619, 0.092, 0.926, 0.292, 192.0, 0.0, 0.0, 0.0, 0.0, 0.0, 0.0, 0.0, 0.0, 0.0, 1.7398203525352404E9, 0.0, 2025-02-17 16:25:52.535
212.0, 3156.5357037229187, -3420.9791923736566, -6920.3012490631645, -4523.613098098409, -6299.727416006019, -4066.51992398738, -4525.825920799484, -4176.06582356284, 0.092, 0.926, 0.292, 192.0, 0.0, 0.0, 0.0, 0.0, 0.0, 0.0, 0.0, 0.0, 0.0, 1.7398203525352588E9, 0.0, 2025-02-17 16:25:52.535
213.0, 3151.90889262067, -3381.774232599048, -6923.877528176014, -4573.435136489289, -6256.119162573715, -4030.153635758595, -4493.728815761664, -4159.34671871027, 0.092, 0.926, 0.292, 192.0, 0.0, 0.0, 0.0, 0.0, 0.0, 0.0, 0.0, 0.0, 0.0, 1.7398203525352776E9, 0.0, 2025-02-17 16:25:52.535
214.0, 3142.6776221606283, -3289.595638465362, -6901.346969765064, -4637.070552953548, -6231.241670994958, -4002.83980403421, -4464.157457847293, -4132.301107919348, 0.092, 0.926, 0.292, 192.0, 0.0, 0.0, 0.0, 0.0, 0.0, 0.0, 0.0, 0.0, 0.0, 1.7398203525353012E9, 0.0, 2025-02-17 16:25:52.535
215.0, 3142.6776221606283, -3318.004705668057, -6885.79015562417, -4595.272790822124, -6248.720735159009, -4010.8193768047545, -4471.779402706552, -4130.915299763119, 0.092, 0.926, 0.292, 192.0, 0.0, 0.0, 0.0, 0.0, 0.0, 0.0, 0.0, 0.0, 0.0, 1.7398203525353208E9, 0.0, 2025-02-17 16:25:52.535
216.0, 3148.913758863659, -3386.6022094013942, -6890.729891148793, -4516.169967194792, -6273.553523248855, -4039.966051574475, -4495.181679151258, -4147.410887171136, 0.092, 0.926, 0.292, 192.0, 0.0, 0.0, 0.0, 0.0, 0.0, 0.0, 0.0, 0.0, 0.0, 1.7398203525354211E9, 0.0, 2025-02-17 16:25:52.535
217.0, 3148.5784826968293, -3335.3496593653754, -6901.346969765064, -4544.04259253056, -6242.551653689344, -4016.2061472184837, -4477.5014492871105, -4140.303032434348, 0.092, 0.926, 0.292, 192.0, 0.0, 0.0, 0.0, 0.0, 0.0, 0.0, 0.0, 0.0, 0.0, 1.7398203525354953E9, 0.0, 2025-02-17 16:25:52.535
218.0, 3141.33651749331, -3099.717569317528, -6885.477231201796, -4621.357276601467, -6210.8121765628075, -3981.0468531902857, -4446.678393683243, -4115.559651322324, 0.062, 0.9480000000000001, 0.31, 192.0, 1.0, 240.0, 29.0, 160.0, 9.0, 176.0, 0.0, 0.0, 0.0, 1.7398203525355167E9, 0.0, 2025-02-17 16:25:52.535
219.0, 3139.436619214609, -3092.050920969358, -6869.5851408940725, -4593.4846512656995, -6223.03858077986, -3989.36170212766, -4452.467495497167, -4113.056255943329, 0.062, 0.9480000000000001, 0.31, 192.0, 0.0, 0.0, 0.0, 0.0, 0.0, 0.0, 0.0, 0.0, 0.0, 1.739820352535538E9, 0.0, 2025-02-17 16:25:52.535
220.0, 3144.2422442724996, -3273.591789435362, -6870.970949050302, -4512.414874126301, -6252.252310782947, -4017.41314141907, -4475.802716708507, -4127.7190003060105, 0.062, 0.9480000000000001, 0.31, 192.0, 0.0, 0.0, 0.0, 0.0, 0.0, 0.0, 0.0, 0.0, 0.0, 1.7398203525355573E9, 0.0, 2025-02-17 16:25:52.535
221.0, 3145.560997195363, -3283.1806878066886, -6881.252751499743, -4508.659781057809, -6235.197929763548, -4006.8854697806205, -4464.246864825113, -4124.925032249097, 0.062, 0.9480000000000001, 0.31, 192.0, 0.0, 0.0, 0.0, 0.0, 0.0, 0.0, 0.0, 0.0, 0.0, 1.7398203525355759E9, 0.0, 2025-02-17 16:25:52.535
222.0, 3137.5143691914523, -2911.247660070379, -6869.4063269384305, -4593.283485565601, -6193.690740310042, -3964.685376249001, -4429.042867308005, -4099.645209270145, 0.062, 0.9480000000000001, 0.31, 192.0, 0.0, 0.0, 0.0, 0.0, 0.0, 0.0, 0.0, 0.0, 0.0, 1.7398203525355947E9, 0.0, 2025-02-17 16:25:52.535
223.0, 3134.6980493900837, -2864.8007350922508, -6850.83202729607, -4580.900619137361, -6199.613952590698, -3965.914722194043, -4429.6016609193875, -4093.6549417561228, 0.062, 0.9480000000000001, 0.31, 192.0, 0.0, 0.0, 0.0, 0.0, 0.0, 0.0, 0.0, 0.0, 0.0, 1.739820352535614E9, 0.0, 2025-02-17 16:25:52.535
224.0, 3134.921566834637, -3103.2267931970114, -6849.9826610067685, -4501.753092021119, -6228.827682593785, -3993.608533574168, -4451.618129207865, -4105.47901457298, 0.062, 0.9480000000000001, 0.31, 192.0, 0.0, 0.0, 0.0, 0.0, 0.0, 0.0, 0.0, 0.0, 0.0, 1.739820352535633E9, 0.0, 2025-02-17 16:25:52.535
225.0, 3138.43079071412, -3229.1788732026666, -6863.1925419798545, -4473.612245751888, -6228.335944215768, -3998.45886212097, -4453.115696086371, -4109.1670524081055, 0.062, 0.9480000000000001, 0.31, 192.0, 0.0, 0.0, 0.0, 0.0, 0.0, 0.0, 0.0, 0.0, 0.0, 1.7398203525356755E9, 0.0, 2025-02-17 16:25:52.535
226.0, 3133.8039796118715, -2856.3070721992344, -6858.275158199687, -4558.347708981956, -6181.397280859624, -3954.1130011216405, -4419.968059059151, -4087.441156797547, 0.062, 0.9480000000000001, 0.31, 192.0, 0.0, 0.0, 0.0, 0.0, 0.0, 0.0, 0.0, 0.0, 0.0, 1.739820352535702E9, 0.0, 2025-02-17 16:25:52.535
227.0, 3134.0945522897905, -2759.2110942853806, -6842.785399292159, -4564.695604407264, -6190.203868175015, -3956.7281552229115, -4418.336381713913, -4080.1768398495724, 0.062, 0.9480000000000001, 0.31, 192.0, 0.0, 0.0, 0.0, 0.0, 0.0, 0.0, 0.0, 0.0, 0.0, 1.7398203525357213E9, 0.0, 2025-02-17 16:25:52.535
228.0, 3134.1839592676115, -2985.857783062194, -6842.695992314339, -4494.242905884136, -6226.078418025782, -3984.287856136305, -4439.481131968633, -4093.09614814474, 0.058, 0.932, 0.336, 192.0, 1.0, 208.0, 29.0, 32.0, 10.0, 128.0, 0.0, 0.0, 0.0, 1.73982035253574E9, 0.0, 2025-02-17 16:25:52.535
229.0, 3135.569767423841, -3205.9554107136028, -6856.911701787913, -4447.371297761357, -6226.301935470336, -3996.0225219753415, -4454.479152498145, -4108.630610541179, 0.058, 0.932, 0.336, 192.0, 0.0, 0.0, 0.0, 0.0, 0.0, 0.0, 0.0, 0.0, 0.0, 1.7398203525357604E9, 0.0, 2025-02-17 16:25:52.535
230.0, 3132.887558089204, -2861.9397118019715, -6856.934053532369, -4528.396371411845, -6181.084356437249, -3954.1800563550064, -4421.219756748647, -4089.609276009712, 0.058, 0.932, 0.336, 192.0, 0.0, 0.0, 0.0, 0.0, 0.0, 0.0, 0.0, 0.0, 0.0, 1.7398203525357797E9, 0.0, 2025-02-17 16:25:52.535
231.0, 3132.395819711187, -2670.161744375437, -6839.320878901587, -4557.341880481467, -6181.240818648436, -3949.35207955266, -4410.602678132377, -4075.3041595583154, 0.058, 0.932, 0.336, 192.0, 0.0, 0.0, 0.0, 0.0, 0.0, 0.0, 0.0, 0.0, 0.0, 1.7398203525357988E9, 0.0, 2025-02-17 16:25:52.535
232.0, 3130.697087132584, -2887.085424314192, -6833.799998021126, -4496.791004752041, -6206.677103838576, -3971.0109199298527, -4429.176977774737, -4083.7084154735107, 0.058, 0.932, 0.336, 192.0, 0.0, 0.0, 0.0, 0.0, 0.0, 0.0, 0.0, 0.0, 0.0, 1.739820352535818E9, 0.0, 2025-02-17 16:25:52.535
233.0, 3131.5688051663406, -3120.1023602607684, -6846.272271427188, -4435.457817966678, -6229.6546971386315, -3992.4015393735817, -4447.863036139373, -4100.114595903707, 0.058, 0.932, 0.336, 192.0, 0.0, 0.0, 0.0, 0.0, 0.0, 0.0, 0.0, 0.0, 0.0, 1.7398203525358372E9, 0.0, 2025-02-17 16:25:52.535
234.0, 3132.1275987777235, -2810.664810021497, -6851.748448818737, -4504.949391478228, -6187.544010584833, -3956.9963761563754, -4416.123559012837, -4083.931932918064, 0.058, 0.932, 0.336, 192.0, 0.0, 0.0, 0.0, 0.0, 0.0, 0.0, 0.0, 0.0, 0.0, 1.739820352535856E9, 0.0, 2025-02-17 16:25:52.535
235.0, 3130.8311975993156, -2542.98031842474, -6831.631878808961, -4556.984252570182, -6158.576149770755, -3938.042096858275, -4395.179974458215, -4061.6919471850333, 0.058, 0.932, 0.336, 192.0, 0.0, 0.0, 0.0, 0.0, 0.0, 0.0, 0.0, 0.0, 0.0, 1.739820352535875E9, 0.0, 2025-02-17 16:25:52.535
236.0, 3130.5406249213966, -2609.2532407347253, -6820.724227514771, -4518.226327684681, -6176.010510445894, -3947.094553362674, -4402.556050128466, -4061.289615784838, 0.058, 0.932, 0.336, 192.0, 0.0, 0.0, 0.0, 0.0, 0.0, 0.0, 0.0, 0.0, 0.0, 1.73982035253591E9, 0.0, 2025-02-17 16:25:52.535
237.0, 3129.6465551431843, -2661.9586541603394, -6821.1042071705115, -4463.442202024723, -6185.621760561677, -3950.5367220087915, -4410.4685676656445, -4067.2128280654943, 0.058, 0.932, 0.336, 192.0, 0.0, 0.0, 0.0, 0.0, 0.0, 0.0, 0.0, 0.0, 0.0, 1.7398203525359297E9, 0.0, 2025-02-17 16:25:52.535
238.0, 3128.2607469869554, -2101.3321997323274, -6813.035227422146, -4529.558662123521, -6125.204995298982, -3896.3784451935826, -4365.832133988397, -4039.317850985271, 0.062, 0.9480000000000001, 0.34, 192.0, 1.0, 240.0, 29.0, 160.0, 10.0, 160.0, 0.0, 0.0, 0.0, 1.739820352535949E9, 0.0, 2025-02-17 16:25:52.535
239.0, 3127.3219737198324, -1474.2316572942327, -6776.847753149003, -4608.370913072934, -6073.192485951482, -3850.2444446378286, -4324.593165468355, -4004.6279435906345, 0.062, 0.9480000000000001, 0.34, 192.0, 0.0, 0.0, 0.0, 0.0, 0.0, 0.0, 0.0, 0.0, 0.0, 1.7398203525359693E9, 0.0, 2025-02-17 16:25:52.535
240.0, 3127.7019533755724, -1315.35545770591, -6745.801180100582, -4574.61977894542, -6073.103078973661, -3839.649717766013, -4315.183081052671, -3987.797080015788, 0.062, 0.9480000000000001, 0.34, 192.0, 0.0, 0.0, 0.0, 0.0, 0.0, 0.0, 0.0, 0.0, 0.0, 1.739820352535996E9, 0.0, 2025-02-17 16:25:52.535
241.0, 3128.081933031313, -1392.2007551432557, -6732.256022960666, -4488.02912092556, -6085.262427957347, -3849.104505670608, -4319.742836921553, -3983.7961177582883, 0.062, 0.9480000000000001, 0.34, 192.0, 0.0, 0.0, 0.0, 0.0, 0.0, 0.0, 0.0, 0.0, 0.0, 1.7398203525360222E9, 0.0, 2025-02-17 16:25:52.536
242.0, 3126.6514213861733, -1097.6271149667639, -6725.572851368529, -4488.923190703773, -6046.169226905015, -3819.913127411977, -4290.797327851931, -3963.2101611149506, 0.062, 0.9480000000000001, 0.34, 192.0, 0.0, 0.0, 0.0, 0.0, 0.0, 0.0, 0.0, 0.0, 0.0, 1.7398203528113608E9, 0.0, 2025-02-17 16:25:52.811
243.0, 3127.0537527863685, -638.0752489656508, -6701.857650501448, -4542.053287274038, -6011.725188699387, -3784.5750194281363, -4255.302757656903, -3932.2753467888056, 0.062, 0.9480000000000001, 0.34, 192.0, 0.0, 0.0, 0.0, 0.0, 0.0, 0.0, 0.0, 0.0, 0.0, 1.7398203528114235E9, 0.0, 2025-02-17 16:25:52.811
244.0, 3127.2772702309217, -668.6077318916001, -6681.919894447315, -4494.801699495519, -6020.777645203787, -3792.174612542941, -4258.633167580744, -3925.2792507742947, 0.062, 0.9480000000000001, 0.34, 192.0, 0.0, 0.0, 0.0, 0.0, 0.0, 0.0, 0.0, 0.0, 0.0, 1.7398203528114471E9, 0.0, 2025-02-17 16:25:52.811
245.0, 3128.7077818760613, -949.2115317835251, -6681.674025258306, -4397.929239026218, -6050.371354862614, -3816.493310510315, -4279.934380046651, -3936.656288702046, 0.062, 0.9480000000000001, 0.34, 192.0, 0.0, 0.0, 0.0, 0.0, 0.0, 0.0, 0.0, 0.0, 0.0, 1.739820352811467E9, 0.0, 2025-02-17 16:25:52.811
246.0, 3126.6290696417177, -919.5507668913326, -6689.363025350932, -4372.649416047266, -6035.015706421817, -3803.6410574485135, -4271.016034008984, -3934.108189834141, 0.062, 0.9480000000000001, 0.34, 192.0, 0.0, 0.0, 0.0, 0.0, 0.0, 0.0, 0.0, 0.0, 0.0, 1.7398203528114865E9, 0.0, 2025-02-17 16:25:52.811
247.0, 3124.9303370631146, -500.0532269541296, -6677.047214156058, -4440.643422680309, -5996.414243747502, -3766.2018854858743, -4237.399010348202, -3910.2141750114174, 0.062, 0.9480000000000001, 0.34, 192.0, 0.0, 0.0, 0.0, 0.0, 0.0, 0.0, 0.0, 0.0, 0.0, 1.7398203528115053E9, 0.0, 2025-02-17 16:25:52.811
248.0, 3124.7291713630166, -490.2408111382498, -6660.12694360339, -4423.074951538438, -6004.3714647735915, -3772.0580425331646, -4237.756638259487, -3902.748692363345, 0.066, 0.9460000000000001, 0.34, 192.0, 2.0, 16.0, 29.0, 144.0, 10.0, 160.0, 0.0, 0.0, 0.0, 1.7398203528115244E9, 0.0, 2025-02-17 16:25:52.811
249.0, 3123.298659717877, -748.3364043636805, -6657.9811761356805, -4343.212168599626, -6028.019610407307, -3797.270810278751, -4257.001490235507, -3911.3094104897277, 0.066, 0.9460000000000001, 0.34, 192.0, 0.0, 0.0, 0.0, 0.0, 0.0, 0.0, 0.0, 0.0, 0.0, 1.739820352811545E9, 0.0, 2025-02-17 16:25:52.811
250.0, 3124.4162469406424, -822.7006581664871, -6670.431097797286, -4309.818662383397, -6031.998220920351, -3798.0307695902316, -4258.923740258663, -3917.724361148401, 0.066, 0.9460000000000001, 0.34, 192.0, 0.0, 0.0, 0.0, 0.0, 0.0, 0.0, 0.0, 0.0, 0.0, 1.7398203528115635E9, 0.0, 2025-02-17 16:25:52.811
251.0, 3125.623241141229, -408.29931596509414, -6666.787763451071, -4390.419052889234, -5988.56878144369, -3759.1610859824523, -4228.83829222182, -3900.3570557066273, 0.066, 0.9460000000000001, 0.34, 192.0, 0.0, 0.0, 0.0, 0.0, 0.0, 0.0, 0.0, 0.0, 0.0, 1.7398203528115823E9, 0.0, 2025-02-17 16:25:52.811
252.0, 3122.493996917486, -305.9730298486984, -6646.335917274466, -4396.185802958704, -5987.2276767763715, -3756.523580136726, -4219.830539206331, -3886.454270655426, 0.066, 0.9460000000000001, 0.34, 192.0, 0.0, 0.0, 0.0, 0.0, 0.0, 0.0, 0.0, 0.0, 0.0, 1.7398203528116007E9, 0.0, 2025-02-17 16:25:52.811
253.0, 3120.8399678277933, -539.2581867287382, -6641.396181749843, -4327.945927136651, -6009.624124720589, -3769.0629087761536, -4238.31543187087, -3895.8196515821996, 0.066, 0.9460000000000001, 0.34, 192.0, 0.0, 0.0, 0.0, 0.0, 0.0, 0.0, 0.0, 0.0, 0.0, 1.7398203528116195E9, 0.0, 2025-02-17 16:25:52.811
254.0, 3120.884671316704, -688.2996187567256, -6650.627452209885, -4277.676853856666, -6016.329648057181, -3784.262095005762, -4246.295004641414, -3903.2851342302724, 0.066, 0.9460000000000001, 0.34, 192.0, 0.0, 0.0, 0.0, 0.0, 0.0, 0.0, 0.0, 0.0, 0.0, 1.739820352811638E9, 0.0, 2025-02-17 16:25:52.811
255.0, 3118.627145126718, -306.46476822671514, -6647.319394030499, -4347.436648301679, -5975.269493492782, -3746.9346817653995, -4211.091007124306, -3881.7604043198116, 0.066, 0.9460000000000001, 0.34, 192.0, 0.0, 0.0, 0.0, 0.0, 0.0, 0.0, 0.0, 0.0, 0.0, 1.7398203528116565E9, 0.0, 2025-02-17 16:25:52.811
0.0, 3118.8283108268156, -152.01421404054332, -6630.555585689019, -4373.767003270031, -5969.860371334597, -3741.4361526293937, -4202.373826786737, -3869.8022210362224, 0.066, 0.9460000000000001, 0.34, 192.0, 0.0, 0.0, 0.0, 0.0, 0.0, 0.0, 0.0, 0.0, 0.0, 1.7398203528117087E9, 0.0, 2025-02-17 16:25:52.811
1.0, 3119.8341393273045, -389.41209190035966, -6627.9851350766585, -4316.23361304207, -5992.7485576568315, -3758.6469958599805, -4223.607984019278, -3880.5757618636803, 0.066, 0.9460000000000001, 0.34, 192.0, 0.0, 0.0, 0.0, 0.0, 0.0, 0.0, 0.0, 0.0, 0.0, 1.7398203528117273E9, 0.0, 2025-02-17 16:25:52.811
2.0, 3118.917717804637, -653.8779322955528, -6637.998716592636, -4248.708993042587, -6014.943839900951, -3776.8636675910557, -4240.863530738775, -3893.8526980701326, 0.084, 0.928, 0.324, 192.0, 2.0, 160.0, 29.0, 0.0, 10.0, 32.0, 0.0, 0.0, 0.0, 1.739820352811758E9, 0.0, 2025-02-17 16:25:52.811
3.0, 3116.5484328923744, -399.35861818297127, -6642.334955016966, -4301.772034379486, -5979.85160110612, -3750.1309812225086, -4214.734341470521, -3881.5368868752585, 0.084, 0.928, 0.324, 192.0, 0.0, 0.0, 0.0, 0.0, 0.0, 0.0, 0.0, 0.0, 0.0, 1.739820352811778E9, 0.0, 2025-02-17 16:25:52.811
4.0, 3117.4425026705867, -207.15596761178585, -6630.242661266645, -4347.391944812768, -5976.94587432693, -3745.794742798179, -4202.105605853272, -3868.885799513555, 0.084, 0.928, 0.324, 192.0, 0.0, 0.0, 0.0, 0.0, 0.0, 0.0, 0.0, 0.0, 0.0, 1.739820352811797E9, 0.0, 2025-02-17 16:25:52.811
5.0, 3117.5766131373184, -454.1650955873842, -6627.873376354382, -4301.6155721683, -5999.074101337684, -3763.2738069622287, -4223.272707852449, -3879.8605060411105, 0.084, 0.928, 0.324, 192.0, 0.0, 0.0, 0.0, 0.0, 0.0, 0.0, 0.0, 0.0, 0.0, 1.7398203528118155E9, 0.0, 2025-02-17 16:25:52.811
6.0, 3116.369618936732, -807.9485068259844, -6639.563338704507, -4229.2629753664705, -6023.661020238522, -3785.580847928625, -4249.088972698328, -3899.3512272061384, 0.084, 0.928, 0.324, 192.0, 0.0, 0.0, 0.0, 0.0, 0.0, 0.0, 0.0, 0.0, 0.0, 1.7398203528118343E9, 0.0, 2025-02-17 16:25:52.811
7.0, 3116.1908049810895, -671.5134586707901, -6651.879149899381, -4267.305644429403, -6001.644551950044, -3770.3593099545615, -4234.269766124459, -3896.5125556603143, 0.084, 0.928, 0.324, 192.0, 0.0, 0.0, 0.0, 0.0, 0.0, 0.0, 0.0, 0.0, 0.0, 1.7398203528118532E9, 0.0, 2025-02-17 16:25:52.811
8.0, 3114.849700313771, -451.751107186211, -6642.31260327251, -4330.2258050710925, -5985.953627342418, -3758.199960970874, -4217.193033360605, -3881.62629385308, 0.084, 0.928, 0.324, 192.0, 0.0, 0.0, 0.0, 0.0, 0.0, 0.0, 0.0, 0.0, 0.0, 1.739820352811872E9, 0.0, 2025-02-17 16:25:52.811
9.0, 3111.876918301215, -636.6000338316004, -6635.808245636016, -4297.011112810506, -6007.299543297237, -3767.788859342201, -4231.676963767643, -3885.6719595994905, 0.084, 0.928, 0.324, 192.0, 0.0, 0.0, 0.0, 0.0, 0.0, 0.0, 0.0, 0.0, 0.0, 1.7398203528118913E9, 0.0, 2025-02-17 16:25:52.811
10.0, 3112.726284590517, -976.9947501414717, -6647.207635308223, -4228.7935887329095, -6039.553110546245, -3799.260115535273, -4257.560283846889, -3904.2686109863057, 0.084, 0.928, 0.324, 192.0, 0.0, 0.0, 0.0, 0.0, 0.0, 0.0, 0.0, 0.0, 0.0, 1.73982035281191E9, 0.0, 2025-02-17 16:25:52.811
11.0, 3112.6592293571507, -926.5468629058437, -6661.602158737441, -4249.893635498719, -6022.677543482488, -3792.0628538206643, -4249.0442692094175, -3906.7720063653, 0.084, 0.928, 0.324, 192.0, 0.0, 0.0, 0.0, 0.0, 0.0, 0.0, 0.0, 0.0, 0.0, 1.7398203528119292E9, 0.0, 2025-02-17 16:25:52.811
12.0, 3111.9886770234916, -645.6301385915446, -6655.142504589857, -4329.421142270701, -5996.7942234032425, -3769.0852605206087, -4227.787760232421, -3892.5786486361803, 0.08600000000000001, 0.9580000000000001, 0.296, 192.0, 2.0, 176.0, 29.0, 240.0, 9.0, 64.0, 0.0, 0.0, 0.0, 1.739820352811948E9, 0.0, 2025-02-17 16:25:52.811
13.0, 3110.871089800726, -775.7396430658869, -6647.900539386337, -4314.221956041093, -6017.648400980044, -3777.824792602634, -4237.399010348202, -3893.8303463256775, 0.08600000000000001, 0.9580000000000001, 0.296, 192.0, 0.0, 0.0, 0.0, 0.0, 0.0, 0.0, 0.0, 0.0, 0.0, 1.739820352811968E9, 0.0, 2025-02-17 16:25:52.811
14.0, 3110.4240549116203, -1121.0964466448363, -6655.298966801044, -4246.742039530521, -6043.375258848102, -3809.4748627513486, -4264.869304283775, -3911.577631423191, 0.08600000000000001, 0.9580000000000001, 0.296, 192.0, 0.0, 0.0, 0.0, 0.0, 0.0, 0.0, 0.0, 0.0, 0.0, 1.7398203528119867E9, 0.0, 2025-02-17 16:25:52.811
15.0, 3110.6028688672627, -1202.456796462154, -6672.308644331532, -4242.1152284282725, -6040.603642535644, -3806.3232667831503, -4268.266769440981, -3921.4347507279817, 0.08600000000000001, 0.9580000000000001, 0.296, 192.0, 0.0, 0.0, 0.0, 0.0, 0.0, 0.0, 0.0, 0.0, 0.0, 1.7398203528120055E9, 0.0, 2025-02-17 16:25:52.812
16.0, 3108.4571013995533, -907.1231969741818, -6669.022937896602, -4323.721447434598, -6009.624124720589, -3782.429251960427, -4243.568091817867, -3907.6660761435123, 0.08600000000000001, 0.9580000000000001, 0.296, 192.0, 0.0, 0.0, 0.0, 0.0, 0.0, 0.0, 0.0, 0.0, 0.0, 1.7398203528120306E9, 0.0, 2025-02-17 16:25:52.812
17.0, 3105.618429853729, -987.9471049245722, -6659.054059869535, -4321.1286450777825, -6024.890366183564, -3793.8286416326337, -4248.083144197839, -3904.3356662196716, 0.08600000000000001, 0.9580000000000001, 0.296, 192.0, 0.0, 0.0, 0.0, 0.0, 0.0, 0.0, 0.0, 0.0, 0.0, 1.7398203528120494E9, 0.0, 2025-02-17 16:25:52.812
18.0, 3106.0654647428355, -1325.838425855449, -6668.173571607301, -4259.437830381135, -6064.743526547376, -3816.8956419105107, -4275.016996266484, -3921.6359164280793, 0.08600000000000001, 0.9580000000000001, 0.296, 192.0, 0.0, 0.0, 0.0, 0.0, 0.0, 0.0, 0.0, 0.0, 0.0, 1.739820352812074E9, 0.0, 2025-02-17 16:25:52.812
