%OpenBCI Raw EXG Data
%Number of channels = 8
%Sample Rate = 250 Hz
%Board = OpenBCI_GUI$BoardCytonSerial
Sample Index, EXG Channel 0, EXG Channel 1, EXG Channel 2, EXG Channel 3, EXG Channel 4, EXG Channel 5, EXG Channel 6, EXG Channel 7, Accel Channel 0, Accel Channel 1, Accel Channel 2, Not Used, Digital Channel 0 (D11), Digital Channel 1 (D12), Digital Channel 2 (D13), Digital Channel 3 (D17), Not Used, Digital Channel 4 (D18), Analog Channel 0, Analog Channel 1, Analog Channel 2, Timestamp, Marker Channel, Timestamp (Formatted)
212.0, 3252.3129287139095, -3889.851735812633, -7453.770333977978, -5068.90625583008, -6765.3366047545205, -4524.149539965337, -4999.995827674369, -4658.550579375098, -0.002, 0.978, 0.272, 192.0, 0.0, 0.0, 0.0, 0.0, 0.0, 0.0, 0.0, 0.0, 0.0, 1.7398203625475984E9, 0.0, 2025-02-17 16:26:02.547
213.0, 3250.7930100909484, -3872.6632443265016, -7433.8549296682995, -5100.355160278697, -6750.807970858571, -4508.279801402068, -4982.2261908324, -4640.892701255405, -0.002, 0.978, 0.272, 192.0, 0.0, 0.0, 0.0, 0.0, 0.0, 0.0, 0.0, 0.0, 0.0, 1.7398203625476234E9, 0.0, 2025-02-17 16:26:02.547
214.0, 3252.0894112693563, -3887.527154389281, -7422.65670569619, -5062.536008660318, -6772.2656455356655, -4527.748170822641, -4993.290304337776, -4648.291128670112, -0.002, 0.978, 0.272, 192.0, 0.0, 0.0, 0.0, 0.0, 0.0, 0.0, 0.0, 0.0, 0.0, 1.739820362547654E9, 0.0, 2025-02-17 16:26:02.547
215.0, 3252.6929083696496, -3907.0849307876747, -7429.071656354864, -5005.047321921268, -6793.812727190581, -4549.250548988646, -5011.350513857665, -4663.467963155265, -0.002, 0.978, 0.272, 192.0, 0.0, 0.0, 0.0, 0.0, 0.0, 0.0, 0.0, 0.0, 0.0, 1.7398203625476785E9, 0.0, 2025-02-17 16:26:02.547
216.0, 3254.54810315944, -3886.0295875107754, -7443.868511184277, -5041.190092705499, -6762.3414709975095, -4519.835653285462, -4994.65376074955, -4652.515608372165, -0.002, 0.978, 0.272, 192.0, 0.0, 0.0, 0.0, 0.0, 0.0, 0.0, 0.0, 0.0, 0.0, 1.7398203625477035E9, 0.0, 2025-02-17 16:26:02.547
217.0, 3253.7657921035043, -3862.8731802550774, -7427.7529034320005, -5087.681721172538, -6739.766209097649, -4496.187507651747, -4972.503181994341, -4631.907299984372, -0.01, 0.984, 0.29, 192.0, 255.0, 176.0, 30.0, 192.0, 9.0, 16.0, 0.0, 0.0, 0.0, 1.7398203625477364E9, 0.0, 2025-02-17 16:26:02.547
218.0, 3251.3518037023314, -3869.2210756803843, -7409.692693912112, -5057.842142324704, -6752.864331348459, -4507.65395255732, -4975.766536684816, -4632.130817428925, -0.01, 0.984, 0.29, 192.0, 0.0, 0.0, 0.0, 0.0, 0.0, 0.0, 0.0, 0.0, 0.0, 1.7398203625477746E9, 0.0, 2025-02-17 16:26:02.547
219.0, 3249.138981001256, -3886.6554363555238, -7408.664513667169, -4995.123147383112, -6775.529000226141, -4527.770522567096, -4991.7033304814495, -4644.670146068353, -0.01, 0.984, 0.29, 192.0, 0.0, 0.0, 0.0, 0.0, 0.0, 0.0, 0.0, 0.0, 0.0, 1.7398203625478005E9, 0.0, 2025-02-17 16:26:02.547
220.0, 3249.228387979077, -3870.5398286032473, -7423.550775474403, -5011.194051646477, -6749.3104039800655, -4506.268144401091, -4979.566333242218, -4637.137608186914, -0.01, 0.984, 0.29, 192.0, 0.0, 0.0, 0.0, 0.0, 0.0, 0.0, 0.0, 0.0, 0.0, 1.7398203625478313E9, 0.0, 2025-02-17 16:26:02.547
221.0, 3249.1836844901663, -3842.913072456488, -7412.553717202391, -5068.570979663251, -6719.85080478797, -4477.277931842557, -4953.973585840891, -4614.651753264875, -0.01, 0.984, 0.29, 192.0, 0.0, 0.0, 0.0, 0.0, 0.0, 0.0, 0.0, 0.0, 0.0, 1.7398203625478568E9, 0.0, 2025-02-17 16:26:02.547
222.0, 3250.1671612462, -3848.2774911257616, -7395.298170482894, -5053.640014367105, -6731.4066566713645, -4486.866830213885, -4956.208760286422, -4614.3388288425, -0.01, 0.984, 0.29, 192.0, 0.0, 0.0, 0.0, 0.0, 0.0, 0.0, 0.0, 0.0, 0.0, 1.7398203625478947E9, 0.0, 2025-02-17 16:26:02.547
223.0, 3251.552969402429, -3868.952854746921, -7393.778251859934, -4996.553659028252, -6757.468790706253, -4510.671438058786, -4974.492487250864, -4630.029753450126, -0.01, 0.984, 0.29, 192.0, 0.0, 0.0, 0.0, 0.0, 0.0, 0.0, 0.0, 0.0, 0.0, 1.7398203625479252E9, 0.0, 2025-02-17 16:26:02.547
224.0, 3251.1506380022333, -3858.872217997577, -7406.764615388467, -4993.491470037874, -6740.012078286658, -4496.4110250963, -4968.479867992386, -4627.079323182025, -0.01, 0.984, 0.29, 192.0, 0.0, 0.0, 0.0, 0.0, 0.0, 0.0, 0.0, 0.0, 0.0, 1.7398203625479507E9, 0.0, 2025-02-17 16:26:02.547
225.0, 3250.591844390851, -3825.1210838700636, -7399.053263551386, -5056.165761490555, -6702.595258068473, -4459.620053722865, -4938.863806589104, -4600.726616469218, -0.01, 0.984, 0.29, 192.0, 0.0, 0.0, 0.0, 0.0, 0.0, 0.0, 0.0, 0.0, 0.0, 1.7398203625479763E9, 0.0, 2025-02-17 16:26:02.547
226.0, 3252.715260114105, -3826.6410024930246, -7380.456612164571, -5053.461200411463, -6708.965505238236, -4463.911588658284, -4937.321536221688, -4596.122157111426, -0.01, 0.984, 0.29, 192.0, 0.0, 0.0, 0.0, 0.0, 0.0, 0.0, 0.0, 0.0, 0.0, 1.7398203625480032E9, 0.0, 2025-02-17 16:26:02.548
227.0, 3254.838675837359, -3846.6681655249795, -7375.583931873314, -4998.4535573069525, -6735.318211951043, -4488.36439709239, -4954.510027707819, -4609.354389828967, -0.01, 0.984, 0.29, 192.0, 0.0, 0.0, 30.0, 80.0, 9.0, 32.0, 0.0, 0.0, 0.0, 1.739820362548036E9, 0.0, 2025-02-17 16:26:02.548
228.0, 3255.486876426563, -3847.9422149589323, -7388.369129701749, -4975.163039584522, -6730.713752593249, -4485.950408691217, -4956.78990564226, -4612.908317197361, -0.01, 0.984, 0.29, 192.0, 0.0, 0.0, 0.0, 0.0, 0.0, 0.0, 0.0, 0.0, 0.0, 1.7398203625480764E9, 0.0, 2025-02-17 16:26:02.548
229.0, 3252.8270188363817, -3813.207604075385, -7385.284588966917, -5032.919947257036, -6689.2065631397445, -4446.074896582949, -4925.408056427009, -4586.734424440197, -0.01, 0.984, 0.29, 192.0, 0.0, 0.0, 0.0, 0.0, 0.0, 0.0, 0.0, 0.0, 0.0, 1.739820362548112E9, 0.0, 2025-02-17 16:26:02.548
230.0, 3250.9941757910465, -3806.055045849687, -7362.843437533789, -5038.127903715123, -6686.814926483027, -4441.269271525058, -4915.6850475889505, -4575.647959190364, -0.01, 0.984, 0.29, 192.0, 0.0, 0.0, 0.0, 0.0, 0.0, 0.0, 0.0, 0.0, 0.0, 1.7398203625481367E9, 0.0, 2025-02-17 16:26:02.548
231.0, 3249.228387979077, -3819.466092522871, -7351.287585650395, -4985.824821689704, -6707.04325521508, -4460.089440356426, -4926.145663994034, -4583.113441838436, -0.01, 0.984, 0.29, 192.0, 0.0, 0.0, 0.0, 0.0, 0.0, 0.0, 0.0, 0.0, 0.0, 1.7398203625481713E9, 0.0, 2025-02-17 16:26:02.548
232.0, 3248.222559478588, -3824.651697236502, -7359.200103187573, -4946.530454937274, -6709.2784296606105, -4463.844533424918, -4932.806483841716, -4589.170764585825, -0.01, 0.984, 0.29, 192.0, 0.0, 0.0, 0.0, 0.0, 0.0, 0.0, 0.0, 0.0, 0.0, 1.7398203625482016E9, 0.0, 2025-02-17 16:26:02.548
233.0, 3248.6919461121497, -3793.135737554519, -7363.916321267644, -5003.192127131478, -6667.994757651658, -4425.4442364507, -4905.894983517526, -4567.623682930909, -0.01, 0.984, 0.29, 192.0, 0.0, 0.0, 0.0, 0.0, 0.0, 0.0, 0.0, 0.0, 0.0, 1.7398203625482397E9, 0.0, 2025-02-17 16:26:02.548
234.0, 3248.490780412052, -3780.7752228707345, -7343.196254157574, -5024.158063430556, -6660.596330236952, -4415.140082256804, -4892.081605444147, -4553.296214735057, -0.01, 0.984, 0.29, 192.0, 0.0, 0.0, 0.0, 0.0, 0.0, 0.0, 0.0, 0.0, 0.0, 1.7398203625482757E9, 0.0, 2025-02-17 16:26:02.548
235.0, 3248.3790216897755, -3794.298028266195, -7330.187538884586, -4979.253408819844, -6680.019996168613, -4433.155588287782, -4902.095186960124, -4559.71116539373, -0.01, 0.984, 0.29, 192.0, 0.0, 0.0, 0.0, 0.0, 0.0, 0.0, 0.0, 0.0, 0.0, 1.739820362548313E9, 0.0, 2025-02-17 16:26:02.548
236.0, 3249.1166292568005, -3809.4525110068935, -7337.07187617682, -4927.196195983433, -6695.08507193149, -4449.293547784513, -4916.310896433699, -4571.691700421775, -0.01, 0.984, 0.29, 192.0, 0.0, 0.0, 0.0, 0.0, 0.0, 0.0, 0.0, 0.0, 0.0, 1.739820362548344E9, 0.0, 2025-02-17 16:26:02.548
237.0, 3250.1671612462, -3785.692606650902, -7348.605376315758, -4969.418641259509, -6660.685737214772, -4418.515195669555, -4895.970808979369, -4555.777258369596, -0.006, 0.97, 0.292, 192.0, 255.0, 208.0, 30.0, 80.0, 9.0, 32.0, 0.0, 0.0, 0.0, 1.7398203625483704E9, 0.0, 2025-02-17 16:26:02.548
238.0, 3251.7988385914373, -3772.8403535891002, -7334.277908119907, -5002.923906198014, -6649.9345481317705, -4406.579364130422, -4882.559762306186, -4542.455618674233, -0.006, 0.97, 0.292, 192.0, 0.0, 0.0, 0.0, 0.0, 0.0, 0.0, 0.0, 0.0, 0.0, 1.7398203625484116E9, 0.0, 2025-02-17 16:26:02.548
239.0, 3250.971824046591, -3784.686778150413, -7321.06802714682, -4965.082402835179, -6669.17940010779, -4423.052599793983, -4891.478108343853, -4548.334127465979, -0.006, 0.97, 0.292, 192.0, 0.0, 0.0, 0.0, 0.0, 0.0, 0.0, 0.0, 0.0, 0.0, 1.7398203625484376E9, 0.0, 2025-02-17 16:26:02.548
240.0, 3251.530617657974, -3805.742121427312, -7326.3206870938175, -4906.274963173266, -6692.849897485959, -4445.672565182754, -4910.566498108685, -4563.935645095783, -0.006, 0.97, 0.292, 192.0, 0.0, 0.0, 0.0, 0.0, 0.0, 0.0, 0.0, 0.0, 0.0, 1.7398203625484693E9, 0.0, 2025-02-17 16:26:02.548
241.0, 3253.6540333812277, -3789.6712171639465, -7344.090323935786, -4936.628632143573, -6665.98310065068, -4423.074951538438, -4898.071872958169, -4555.620796158409, -0.006, 0.97, 0.292, 192.0, 0.0, 0.0, 0.0, 0.0, 0.0, 0.0, 0.0, 0.0, 0.0, 1.7398203625484953E9, 0.0, 2025-02-17 16:26:02.548
242.0, 3252.268225224999, -3768.7946878426897, -7331.372181340716, -4982.784984443782, -6645.777123663083, -4402.220773961637, -4877.932951203937, -4537.180606982781, -0.006, 0.97, 0.292, 192.0, 0.0, 0.0, 0.0, 0.0, 0.0, 0.0, 0.0, 0.0, 0.0, 1.739820362548526E9, 0.0, 2025-02-17 16:26:02.548
243.0, 3248.5131321565073, -3776.818964102145, -7314.340152065773, -4953.571254440696, -6659.568149992007, -4413.418997933745, -4882.604465795096, -4538.409952927823, -0.006, 0.97, 0.292, 192.0, 0.0, 0.0, 0.0, 0.0, 0.0, 0.0, 0.0, 0.0, 0.0, 1.73982036254856E9, 0.0, 2025-02-17 16:26:02.548
244.0, 3246.1438472442446, -3798.1648800569633, -7315.25657358844, -4890.248762398811, -6685.9208567048145, -4438.296489512502, -4901.916373004481, -4553.698546135252, -0.006, 0.97, 0.292, 192.0, 0.0, 0.0, 0.0, 0.0, 0.0, 0.0, 0.0, 0.0, 0.0, 1.739820362548586E9, 0.0, 2025-02-17 16:26:02.548
245.0, 3245.741515844049, -3789.782975886223, -7333.629707530703, -4899.971771236869, -6667.681833229284, -4424.058428294472, -4895.412015367987, -4550.971633311705, -0.006, 0.97, 0.292, 192.0, 0.0, 0.0, 0.0, 0.0, 0.0, 0.0, 0.0, 0.0, 0.0, 1.739820362548617E9, 0.0, 2025-02-17 16:26:02.548
246.0, 3242.075829753379, -3764.2125802293517, -7325.359562082239, -4953.571254440696, -6639.36217300441, -4396.878707036818, -4871.674462756451, -4531.302098191035, -0.006, 0.97, 0.292, 192.0, 0.0, 0.0, 0.0, 0.0, 0.0, 0.0, 0.0, 0.0, 0.0, 1.7398203625486412E9, 0.0, 2025-02-17 16:26:02.548
247.0, 3239.9300622856695, -3771.0522140326757, -7310.629762486192, -4938.439123444453, -6653.197902822245, -4408.367503686846, -4875.764831991772, -4531.838540057962, -0.004, 0.966, 0.29, 192.0, 255.0, 224.0, 30.0, 48.0, 9.0, 16.0, 0.0, 0.0, 0.0, 1.7398203625486674E9, 0.0, 2025-02-17 16:26:02.548
248.0, 3239.550082629929, -3795.817946889156, -7312.306143320339, -4880.771622749761, -6684.289179359577, -4436.843626122907, -4898.697721802917, -4549.518769922111, -0.004, 0.966, 0.29, 192.0, 0.0, 0.0, 0.0, 0.0, 0.0, 0.0, 0.0, 0.0, 0.0, 1.739820362548693E9, 0.0, 2025-02-17 16:26:02.548
249.0, 3238.0525157514235, -3795.1473945554967, -7330.299297606862, -4873.149677890501, -6675.817868211016, -4430.87571035334, -4899.5470880922185, -4552.200979256747, -0.004, 0.966, 0.29, 192.0, 0.0, 0.0, 0.0, 0.0, 0.0, 0.0, 0.0, 0.0, 0.0, 1.7398203625487244E9, 0.0, 2025-02-17 16:26:02.548
251.0, 3237.851350051326, -3775.6343216460136, -7317.402341056149, -4938.707344377916, -6656.595367979452, -4410.759140343564, -4879.654035526995, -4533.51492089211, 0.0, 0.0, 0.0, 192.0, 0.0, 0.0, 0.0, 0.0, 0.0, 0.0, 0.0, 0.0, 0.0, 1.7398203630191374E9, 0.0, 2025-02-17 16:26:03.019
252.0, 3238.7230680850826, -3800.4224062469493, -7317.156471867142, -4888.639436798029, -6688.290141617077, -4440.419905235756, -4901.782262537749, -4551.865703089918, 0.0, 0.0, 0.0, 192.0, 0.0, 0.0, 0.0, 0.0, 0.0, 0.0, 0.0, 0.0, 0.0, 1.7398203630191894E9, 0.0, 2025-02-17 16:26:03.019
253.0, 3238.6783645961723, -3809.1619383289744, -7335.328440109306, -4866.734727231828, -6691.2629236296325, -4446.0972483274045, -4911.326457420166, -4562.125153794904, 0.0, 0.0, 0.0, 192.0, 0.0, 0.0, 0.0, 0.0, 0.0, 0.0, 0.0, 0.0, 0.0, 1.73982036301922E9, 0.0, 2025-02-17 16:26:03.019
254.0, 3238.9242337851806, -3783.5021356942816, -7342.59275705728, -4932.895890819537, -6657.645899968851, -4415.095378767894, -4889.242933898322, -4545.249586731146, 0.0, 0.0, 0.0, 192.0, 0.0, 0.0, 0.0, 0.0, 0.0, 0.0, 0.0, 0.0, 0.0, 1.7398203630192497E9, 0.0, 2025-02-17 16:26:03.019
255.0, 3240.108876241312, -3784.016225816754, -7329.114655150731, -4949.6149956721065, -6663.658519227329, -4418.87282358084, -4888.102994931101, -4542.790894841063, 0.0, 0.0, 0.0, 192.0, 0.0, 0.0, 0.0, 0.0, 0.0, 0.0, 0.0, 0.0, 0.0, 1.7398203630192797E9, 0.0, 2025-02-17 16:26:03.019
0.0, 3240.712373341605, -3805.764473171768, -7325.8513004602555, -4905.917335261981, -6693.341635863976, -4446.611338449877, -4907.861937029593, -4558.99590957116, 0.0, 0.0, 0.0, 192.0, 0.0, 0.0, 0.0, 0.0, 0.0, 0.0, 0.0, 0.0, 0.0, 1.7398203630193083E9, 0.0, 2025-02-17 16:26:03.019
1.0, 3239.5053791410187, -3819.913127411977, -7339.798789000367, -4868.276997599244, -6705.121005191923, -4459.26242581158, -4922.323515692176, -4572.853991133451, 0.0, 0.0, 0.0, 192.0, 0.0, 0.0, 30.0, 32.0, 9.0, 128.0, 0.0, 0.0, 0.0, 1.7398203630193355E9, 0.0, 2025-02-17 16:26:03.019
2.0, 3237.6054808623176, -3793.5157172102595, -7350.125294938719, -4926.682105860961, -6668.687661729773, -4425.623050406343, -4899.994122981325, -4555.6878513917745, 0.0, 0.0, 0.0, 192.0, 0.0, 0.0, 0.0, 0.0, 0.0, 0.0, 0.0, 0.0, 0.0, 1.7398203630193646E9, 0.0, 2025-02-17 16:26:03.019
3.0, 3236.845521550837, -3786.0278828177316, -7335.574309298314, -4955.873484119593, -6665.424307039298, -4421.040942793005, -4891.343997877121, -4546.702450120742, 0.0, 0.0, 0.0, 192.0, 0.0, 0.0, 0.0, 0.0, 0.0, 0.0, 0.0, 0.0, 0.0, 1.739820363019392E9, 0.0, 2025-02-17 16:26:03.019
4.0, 3236.465541895097, -3804.780996415734, -7328.600565028259, -4918.635477857051, -6691.173516651812, -4445.1584750602815, -4907.034922484747, -4559.465296204722, 0.0, 0.0, 0.0, 192.0, 0.0, 0.0, 0.0, 0.0, 0.0, 0.0, 0.0, 0.0, 0.0, 1.7398203630276132E9, 0.0, 2025-02-17 16:26:03.027
5.0, 3236.5996523618287, -3826.1492641150076, -7340.894024478677, -4871.115669145068, -6712.631191328906, -4467.174943348759, -4927.64323087254, -4578.129002824903, 0.0, 0.0, 0.0, 192.0, 0.0, 0.0, 0.0, 0.0, 0.0, 0.0, 0.0, 0.0, 0.0, 1.739820363027648E9, 0.0, 2025-02-17 16:26:03.027
6.0, 3235.5714721168843, -3804.423368504449, -7356.74141129749, -4918.2107947124005, -6680.511734546631, -4438.855283123885, -4910.275925430766, -4565.880246863395, 0.0, 0.0, 0.0, 192.0, 0.0, 0.0, 0.0, 0.0, 0.0, 0.0, 0.0, 0.0, 0.0, 1.7398203630276933E9, 0.0, 2025-02-17 16:26:03.027
7.0, 3234.364477916298, -3790.5429351977036, -7344.246786146973, -4961.215551044411, -6669.067641385513, -4426.204195762181, -4896.686064801939, -4553.09504903496, 0.0, 0.0, 0.0, 192.0, 0.0, 0.0, 0.0, 0.0, 0.0, 0.0, 0.0, 0.0, 0.0, 1.7398203630277233E9, 0.0, 2025-02-17 16:26:03.027
8.0, 3234.208015705111, -3806.747949927801, -7335.395495342672, -4933.186463497456, -6692.0228829411135, -4446.92426287225, -4909.985352752848, -4563.533313695588, 0.0, 0.0, 0.0, 192.0, 0.0, 0.0, 0.0, 0.0, 0.0, 0.0, 0.0, 0.0, 0.0, 1.7398203630277529E9, 0.0, 2025-02-17 16:26:03.027
9.0, 3233.6045186048173, -3830.4407990504264, -7343.084495435298, -4878.379986093043, -6719.09084547649, -4472.852286440407, -4932.292393719244, -4582.889924393884, 0.0, 0.0, 0.0, 192.0, 0.0, 0.0, 0.0, 0.0, 0.0, 0.0, 0.0, 0.0, 0.0, 1.7398203630277815E9, 0.0, 2025-02-17 16:26:03.027
10.0, 3232.933966271158, -3815.487482009826, -7362.17288520013, -4909.717131819383, -6693.587505052985, -4450.768762918564, -4921.1612249805, -4575.983235357194, 0.0, 0.0, 0.0, 192.0, 0.0, 0.0, 0.0, 0.0, 0.0, 0.0, 0.0, 0.0, 0.0, 1.7398203630278208E9, 0.0, 2025-02-17 16:26:03.027
11.0, 3233.649222093728, -3797.851955634589, -7355.60147233027, -4967.049356347246, -6675.594350766462, -4432.373277231846, -4904.620934083573, -4561.119325294415, 0.002, 0.9380000000000001, 0.308, 192.0, 0.0, 16.0, 29.0, 80.0, 9.0, 160.0, 0.0, 0.0, 0.0, 1.739820363027954E9, 0.0, 2025-02-17 16:26:03.027
12.0, 3234.3868296607534, -3811.553574985692, -7345.163207669641, -4949.547940438741, -6695.822679498516, -4450.277024540547, -4915.014495255291, -4568.897732364861, 0.002, 0.9380000000000001, 0.308, 192.0, 0.0, 0.0, 0.0, 0.0, 0.0, 0.0, 0.0, 0.0, 0.0, 1.7398203630279896E9, 0.0, 2025-02-17 16:26:03.027
13.0, 3233.917443027192, -3837.23572936484, -7349.3876873716945, -4892.573343822163, -6727.025714758124, -4479.311940587991, -4938.439123444453, -4588.701377952263, 0.002, 0.9380000000000001, 0.308, 192.0, 0.0, 0.0, 0.0, 0.0, 0.0, 0.0, 0.0, 0.0, 0.0, 1.7398203630280185E9, 0.0, 2025-02-17 16:26:03.028
14.0, 3234.7221058275827, -3831.6701449954685, -7371.31474868235, -4906.453777128909, -6711.848880272971, -4467.510219515589, -4935.734562365361, -4589.751909941663, 0.002, 0.9380000000000001, 0.308, 192.0, 0.0, 0.0, 0.0, 0.0, 0.0, 0.0, 0.0, 0.0, 0.0, 1.7398203630280464E9, 0.0, 2025-02-17 16:26:03.028
15.0, 3234.7221058275827, -3808.334923784128, -7368.073745736331, -4971.899684894048, -6685.160897393334, -4441.78336164753, -4915.059198744202, -4572.697528922264, 0.002, 0.9380000000000001, 0.308, 192.0, 0.0, 0.0, 0.0, 0.0, 0.0, 0.0, 0.0, 0.0, 0.0, 1.7398203630280752E9, 0.0, 2025-02-17 16:26:03.028
16.0, 3235.0573819944125, -3817.2756215662507, -7354.528588596415, -4964.590664457162, -6700.091862689479, -4455.0826495984375, -4920.758893580305, -4576.184401057291, 0.002, 0.9380000000000001, 0.308, 192.0, 0.0, 0.0, 0.0, 0.0, 0.0, 0.0, 0.0, 0.0, 0.0, 1.7398203630281136E9, 0.0, 2025-02-17 16:26:03.028
17.0, 3233.492759882541, -3841.4155055779825, -7353.992146729487, -4907.5266608627635, -6730.512586893152, -4483.737585990141, -4942.730658379872, -4593.886982665895, 0.002, 0.9380000000000001, 0.308, 192.0, 0.0, 0.0, 0.0, 0.0, 0.0, 0.0, 0.0, 0.0, 0.0, 1.7398203630281475E9, 0.0, 2025-02-17 16:26:03.028
18.0, 3232.35282091532, -3841.907243955999, -7372.9240742831325, -4899.59179158113, -6723.270621689632, -4480.116603388382, -4945.591681670151, -4598.111462367948, 0.002, 0.9380000000000001, 0.308, 192.0, 0.0, 0.0, 0.0, 0.0, 0.0, 0.0, 0.0, 0.0, 0.0, 1.7398203630281763E9, 0.0, 2025-02-17 16:26:03.028
19.0, 3234.0515534939236, -3817.1191593550634, -7376.992091773998, -4971.340891282665, -6692.604028296952, -4450.83581815193, -4923.619916870584, -4580.1630115703365, 0.002, 0.9380000000000001, 0.308, 192.0, 0.0, 0.0, 0.0, 0.0, 0.0, 0.0, 0.0, 0.0, 0.0, 1.739820363028205E9, 0.0, 2025-02-17 16:26:03.028
20.0, 3233.6045186048173, -3820.3154588121724, -7361.256463677462, -4976.012405873824, -6701.65648480135, -4457.384879277334, -4923.888137804048, -4579.581866214498, 0.002, 0.9380000000000001, 0.308, 192.0, 0.0, 0.0, 0.0, 0.0, 0.0, 0.0, 0.0, 0.0, 0.0, 1.739820363028242E9, 0.0, 2025-02-17 16:26:03.028
21.0, 3230.5199778699853, -3841.8625404670884, -7356.339079897294, -4921.943536036437, -6729.99849677068, -4483.581123778954, -4942.64125140205, -4594.512831510643, 0.006, 0.9380000000000001, 0.31, 192.0, 0.0, 48.0, 29.0, 80.0, 9.0, 176.0, 0.0, 0.0, 0.0, 1.7398203630282717E9, 0.0, 2025-02-17 16:26:03.028
22.0, 3231.0787714813678, -3852.747840016823, -7375.516876639948, -4897.3119136466885, -6736.368743940443, -4491.247772127124, -4954.867655619104, -4605.845165949484, 0.006, 0.9380000000000001, 0.31, 192.0, 0.0, 0.0, 0.0, 0.0, 0.0, 0.0, 0.0, 0.0, 0.0, 1.7398203630283084E9, 0.0, 2025-02-17 16:26:03.028
23.0, 3232.1516552152225, -3826.1939676039183, -7384.837554077811, -4966.64702494705, -6701.142394678878, -4459.083611855938, -4932.627669886073, -4588.120232596425, 0.006, 0.9380000000000001, 0.31, 192.0, 0.0, 0.0, 0.0, 0.0, 0.0, 0.0, 0.0, 0.0, 0.0, 1.7398203630283368E9, 0.0, 2025-02-17 16:26:03.028
24.0, 3231.5258063704737, -3823.7352757138347, -7368.453725392071, -4984.930751911492, -6703.534031335596, -4459.038908367027, -4927.978507039369, -4582.420537760322, 0.006, 0.9380000000000001, 0.31, 192.0, 0.0, 0.0, 0.0, 0.0, 0.0, 0.0, 0.0, 0.0, 0.0, 1.7398203630283656E9, 0.0, 2025-02-17 16:26:03.028
25.0, 3231.749323815027, -3846.3775928470604, -7363.424582889626, -4940.093152534146, -6732.703057849772, -4485.972760435672, -4947.446876459941, -4598.3573315569565, 0.006, 0.9380000000000001, 0.31, 192.0, 0.0, 0.0, 0.0, 0.0, 0.0, 0.0, 0.0, 0.0, 0.0, 1.7398203630284004E9, 0.0, 2025-02-17 16:26:03.028
26.0, 3231.25758543701, -3863.2531599108174, -7378.064975507853, -4899.100053203113, -6747.678726634828, -4501.931905976761, -4964.009519101324, -4613.958849186761, 0.006, 0.9380000000000001, 0.31, 192.0, 0.0, 0.0, 0.0, 0.0, 0.0, 0.0, 0.0, 0.0, 0.0, 1.7398203630284288E9, 0.0, 2025-02-17 16:26:03.028
27.0, 3230.363515658798, -3836.296956097717, -7390.693711125102, -4958.890969621059, -6710.843051772482, -4468.493696271622, -4942.149513024034, -4597.999703645672, 0.006, 0.9380000000000001, 0.31, 192.0, 0.0, 0.0, 0.0, 0.0, 0.0, 0.0, 0.0, 0.0, 0.0, 1.7398203630284946E9, 0.0, 2025-02-17 16:26:03.028
28.0, 3230.430570892164, -3827.8032932047004, -7376.388594673705, -4992.284475837288, -6706.238592414688, -4462.346966546413, -4933.409980942009, -4588.723729696719, 0.006, 0.9380000000000001, 0.31, 192.0, 0.0, 0.0, 0.0, 0.0, 0.0, 0.0, 0.0, 0.0, 0.0, 1.7398203630285256E9, 0.0, 2025-02-17 16:26:03.028
29.0, 3229.6706115806833, -3846.914034713988, -7368.207856203063, -4954.174751540989, -6731.764284582649, -4485.816298224485, -4948.922091593992, -4600.860726935951, 0.006, 0.9380000000000001, 0.31, 192.0, 0.0, 0.0, 0.0, 0.0, 0.0, 0.0, 0.0, 0.0, 0.0, 1.7398203630285563E9, 0.0, 2025-02-17 16:26:03.028
30.0, 3229.357687158309, -3870.00338673632, -7379.629597619724, -4902.318704404677, -6755.85946510547, -4508.36920837989, -4970.022138359802, -4619.636192278408, 0.006, 0.9380000000000001, 0.31, 192.0, 0.0, 0.0, 0.0, 0.0, 0.0, 0.0, 0.0, 0.0, 0.0, 1.7398203630285864E9, 0.0, 2025-02-17 16:26:03.028
31.0, 3230.2517569365214, -3849.9985754488202, -7398.248600750995, -4950.330251494676, -6723.8964705343815, -4481.010673166594, -4954.845303874648, -4609.6896659957965, -0.01, 0.9380000000000001, 0.312, 192.0, 255.0, 176.0, 29.0, 80.0, 9.0, 192.0, 0.0, 0.0, 0.0, 1.7398203630286164E9, 0.0, 2025-02-17 16:26:03.028
32.0, 3229.0894662248456, -3833.748857229812, -7385.150478500185, -4996.79952821726, -6709.948981994269, -4465.856190425896, -4938.953213566925, -4594.825755933018, -0.01, 0.9380000000000001, 0.312, 192.0, 0.0, 0.0, 0.0, 0.0, 0.0, 0.0, 0.0, 0.0, 0.0, 1.7398203630286484E9, 0.0, 2025-02-17 16:26:03.028
33.0, 3229.625908091773, -3850.6691277824793, -7375.673338851135, -4968.435164503475, -6734.513549150652, -4487.492679058633, -4952.744239895849, -4605.264020593646, -0.01, 0.9380000000000001, 0.312, 192.0, 0.0, 0.0, 0.0, 0.0, 0.0, 0.0, 0.0, 0.0, 0.0, 1.7398203630286784E9, 0.0, 2025-02-17 16:26:03.028
34.0, 3228.5977278468285, -3876.3736339060824, -7382.803545332378, -4909.381855652554, -6763.593168687006, -4516.326429405979, -4977.12999309659, -4626.028791192626, -0.01, 0.9380000000000001, 0.312, 192.0, 0.0, 0.0, 0.0, 0.0, 0.0, 0.0, 0.0, 0.0, 0.0, 1.7398203630287216E9, 0.0, 2025-02-17 16:26:03.028
35.0, 3231.1458267147336, -3865.5330378452586, -7406.3846357327275, -4941.389553712554, -6741.822569587537, -4498.89206873084, -4970.5138767378185, -4623.883023724917, -0.01, 0.9380000000000001, 0.312, 192.0, 0.0, 0.0, 0.0, 0.0, 0.0, 0.0, 0.0, 0.0, 0.0, 1.7398203630287893E9, 0.0, 2025-02-17 16:26:03.028
36.0, 3231.7269720705717, -3846.109371913597, -7399.746167629501, -5001.5604497862405, -6721.415426899842, -4478.12729813186, -4952.498370706841, -4608.169747372835, -0.01, 0.9380000000000001, 0.312, 192.0, 0.0, 0.0, 0.0, 0.0, 0.0, 0.0, 0.0, 0.0, 0.0, 1.73982036302882E9, 0.0, 2025-02-17 16:26:03.028
37.0, 3231.950489515125, -3860.8615232540997, -7388.503240168481, -4982.583818743685, -6743.588357399507, -4497.372150107879, -4963.651891190039, -4615.948154443283, -0.01, 0.9380000000000001, 0.312, 192.0, 0.0, 0.0, 0.0, 0.0, 0.0, 0.0, 0.0, 0.0, 0.0, 1.7398203630288577E9, 0.0, 2025-02-17 16:26:03.028
38.0, 3230.1176464697896, -3889.784680579267, -7393.085347781819, -4920.0883412466455, -6777.808878160582, -4529.692772590252, -4989.51285952483, -4636.847035508995, -0.01, 0.9380000000000001, 0.312, 192.0, 0.0, 0.0, 0.0, 0.0, 0.0, 0.0, 0.0, 0.0, 0.0, 1.7398203630288932E9, 0.0, 2025-02-17 16:26:03.028
39.0, 3230.6317365922614, -3887.169526477996, -7417.292287026917, -4928.760818095305, -6766.074212321546, -4521.668496330797, -4990.541039769774, -4640.400962877388, -0.01, 0.9380000000000001, 0.312, 192.0, 0.0, 0.0, 0.0, 0.0, 0.0, 0.0, 0.0, 0.0, 0.0, 1.7398203630289257E9, 0.0, 2025-02-17 16:26:03.028
40.0, 3233.2468906935324, -3867.030604723764, -7419.505109727992, -4998.766481729327, -6743.051915532579, -4498.668551286287, -4972.8608099056255, -4626.565233059554, -0.01, 0.9380000000000001, 0.312, 192.0, 0.0, 0.0, 0.0, 0.0, 0.0, 0.0, 0.0, 0.0, 0.0, 1.7398203630289605E9, 0.0, 2025-02-17 16:26:03.028
41.0, 3231.97284125958, -3872.0373954817533, -7405.758786887978, -4997.425377062008, -6753.043145304102, -4508.548022335533, -4975.922998896003, -4629.58271856102, -0.002, 0.9420000000000001, 0.318, 192.0, 255.0, 240.0, 29.0, 112.0, 9.0, 240.0, 0.0, 0.0, 0.0, 1.739820363029005E9, 0.0, 2025-02-17 16:26:03.029
42.0, 3232.196358704133, -3888.398872423038, -7403.70242639809, -4959.203894043433, -6773.249122291699, -4528.821054556496, -4992.865621193126, -4645.184236190825, -0.002, 0.9420000000000001, 0.318, 192.0, 0.0, 0.0, 0.0, 0.0, 0.0, 0.0, 0.0, 0.0, 0.0, 1.739820363029038E9, 0.0, 2025-02-17 16:26:03.029
43.0, 3229.6706115806833, -3877.6700350844903, -7413.246621280507, -4959.6509289325395, -6755.278319749632, -4512.392522381845, -4986.495374023363, -4641.2726809111455, -0.002, 0.9420000000000001, 0.318, 192.0, 0.0, 0.0, 0.0, 0.0, 0.0, 0.0, 0.0, 0.0, 0.0, 1.7398203630290873E9, 0.0, 2025-02-17 16:26:03.029
44.0, 3229.8270737918706, -3844.209473634896, -7408.508051455981, -5030.729476300416, -6716.90037451987, -4475.221571352669, -4955.985242841869, -4613.712979997752, -0.002, 0.9420000000000001, 0.318, 192.0, 0.0, 0.0, 0.0, 0.0, 0.0, 0.0, 0.0, 0.0, 0.0, 1.7398203630291164E9, 0.0, 2025-02-17 16:26:03.029
45.0, 3230.810550547904, -3845.0588399241974, -7389.710234369068, -5034.216348435444, -6723.784711812104, -4479.937789432739, -4953.526550951785, -4609.019113662138, -0.002, 0.9420000000000001, 0.318, 192.0, 0.0, 0.0, 0.0, 0.0, 0.0, 0.0, 0.0, 0.0, 0.0, 1.7398203630291448E9, 0.0, 2025-02-17 16:26:03.029
46.0, 3230.296460425432, -3864.1919331779404, -7383.161173243663, -4981.51093500983, -6749.28805223561, -4503.340065877445, -4970.312711037721, -4621.804311490573, -0.002, 0.9420000000000001, 0.318, 192.0, 0.0, 0.0, 0.0, 0.0, 0.0, 0.0, 0.0, 0.0, 0.0, 1.7398203630291731E9, 0.0, 2025-02-17 16:26:03.029
47.0, 3229.625908091773, -3868.7963925357335, -7395.36522571626, -4951.447838717441, -6749.578624913529, -4505.374074622879, -4976.302978551743, -4628.174558660336, -0.002, 0.9420000000000001, 0.318, 192.0, 0.0, 0.0, 0.0, 0.0, 0.0, 0.0, 0.0, 0.0, 0.0, 1.7398203630292015E9, 0.0, 2025-02-17 16:26:03.029
48.0, 3230.341163914343, -3832.877139196055, -7398.159193773174, -5020.179452917511, -6704.718673791728, -4464.380975291846, -4945.636385159062, -4604.213488604247, -0.002, 0.9420000000000001, 0.318, 192.0, 0.0, 0.0, 0.0, 0.0, 0.0, 0.0, 0.0, 0.0, 0.0, 1.7398203630292296E9, 0.0, 2025-02-17 16:26:03.029
49.0, 3231.302288925921, -3822.8635576800775, -7376.343891184794, -5040.877168283126, -6699.868345244926, -4457.809562421985, -4934.616975142596, -4592.210601831746, -0.002, 0.9420000000000001, 0.318, 192.0, 0.0, 0.0, 0.0, 0.0, 0.0, 0.0, 0.0, 0.0, 0.0, 1.7398203630292575E9, 0.0, 2025-02-17 16:26:03.029
50.0, 3230.8552540368146, -3839.2250346213623, -7364.385707901205, -4991.345702570165, -6723.963525767747, -4478.708443487697, -4947.670393904495, -4601.777148458618, -0.002, 0.9420000000000001, 0.318, 192.0, 0.0, 0.0, 0.0, 0.0, 0.0, 0.0, 0.0, 0.0, 0.0, 1.7398203630292854E9, 0.0, 2025-02-17 16:26:03.029
51.0, 3230.363515658798, -3852.1443429165297, -7373.549923127881, -4942.104809535123, -6735.385267184409, -4491.65010352732, -4961.103792322135, -4613.891793953395, 0.002, 0.9460000000000001, 0.34, 192.0, 0.0, 16.0, 29.0, 144.0, 10.0, 160.0, 0.0, 0.0, 0.0, 1.739820363029327E9, 0.0, 2025-02-17 16:26:03.029
52.0, 3230.0505912364238, -3815.107502354086, -7380.456612164571, -5002.253353864355, -6687.507830561141, -4447.527759972544, -4930.548957651729, -4590.198944830769, 0.002, 0.9460000000000001, 0.34, 192.0, 0.0, 0.0, 0.0, 0.0, 0.0, 0.0, 0.0, 0.0, 0.0, 1.739820363029358E9, 0.0, 2025-02-17 16:26:03.029
53.0, 3230.8329022923594, -3796.4214439894495, -7357.635481075702, -5038.753752559871, -6672.576865264996, -4430.4957306976, -4911.102939975613, -4570.752927154652, 0.002, 0.9460000000000001, 0.34, 192.0, 0.0, 0.0, 0.0, 0.0, 0.0, 0.0, 0.0, 0.0, 0.0, 1.7398203630293946E9, 0.0, 2025-02-17 16:26:03.029
54.0, 3229.268280180488, -3808.558441228681, -7340.245823889473, -4993.737339226883, -6691.41938584082, -4447.5054082280885, -4918.6801813459615, -4574.128040567403, 0.002, 0.9460000000000001, 0.34, 192.0, 0.0, 0.0, 0.0, 0.0, 0.0, 0.0, 0.0, 0.0, 0.0, 1.739820363029425E9, 0.0, 2025-02-17 16:26:03.029
55.0, 3229.6706115806833, -3828.429142049449, -7346.370201870228, -4931.264213474299, -6712.0947494619795, -4468.4042892938005, -4936.941556565947, -4589.014302374638, 0.002, 0.9460000000000001, 0.34, 192.0, 0.0, 0.0, 0.0, 0.0, 0.0, 0.0, 0.0, 0.0, 0.0, 1.7398203630294552E9, 0.0, 2025-02-17 16:26:03.029
56.0, 3229.9611842586023, -3799.4836329798263, -7358.596606087281, -4971.7432226828605, -6672.487458287175, -4432.328573742935, -4913.941611521436, -4572.071680077515, 0.002, 0.9460000000000001, 0.34, 192.0, 0.0, 0.0, 0.0, 0.0, 0.0, 0.0, 0.0, 0.0, 0.0, 1.7398203630294857E9, 0.0, 2025-02-17 16:26:03.029
57.0, 3230.229405192066, -3776.2825222352176, -7339.329402366806, -5017.072560438223, -6650.180417320778, -4410.11093975436, -4890.516983332274, -4550.770467611607, 0.002, 0.9460000000000001, 0.34, 192.0, 0.0, 0.0, 0.0, 0.0, 0.0, 0.0, 0.0, 0.0, 0.0, 1.7398203630295231E9, 0.0, 2025-02-17 16:26:03.029
58.0, 3229.625908091773, -3790.051196819687, -7322.811463214334, -4977.1746965855, -6671.258112342133, -4428.707591141176, -4899.59179158113, -4555.821961858507, 0.002, 0.9460000000000001, 0.34, 192.0, 0.0, 0.0, 0.0, 0.0, 0.0, 0.0, 0.0, 0.0, 0.0, 1.739820363029553E9, 0.0, 2025-02-17 16:26:03.029
59.0, 3228.9553557581135, -3817.4767872663488, -7328.019419672421, -4903.369236394076, -6703.824604013515, -4458.927149644751, -4925.07278026018, -4575.089165578981, 0.002, 0.9460000000000001, 0.34, 192.0, 0.0, 0.0, 0.0, 0.0, 0.0, 0.0, 0.0, 0.0, 0.0, 1.739820363029606E9, 0.0, 2025-02-17 16:26:03.029
60.0, 3230.005887747513, -3803.551650470692, -7349.208873416052, -4922.97171628138, -6679.528257790596, -4437.625937178843, -4915.64034410004, -4570.082374820992, 0.002, 0.9460000000000001, 0.34, 192.0, 0.0, 0.0, 0.0, 0.0, 0.0, 0.0, 0.0, 0.0, 0.0, 1.7398203630296376E9, 0.0, 2025-02-17 16:26:03.029
61.0, 3228.68713482465, -3777.6012751580806, -7337.9435942105765, -4980.08042336469, -6651.789742921561, -4410.625029876832, -4890.49463158782, -4547.440057687767, 0.02, 0.932, 0.352, 192.0, 0.0, 160.0, 29.0, 32.0, 11.0, 0.0, 0.0, 0.0, 0.0, 1.7398203630296683E9, 0.0, 2025-02-17 16:26:03.029
62.0, 3228.195396446633, -3792.9122201099663, -7323.906698692644, -4953.88417886307, -6672.263940842622, -4428.774646374542, -4899.904716003503, -4551.5751304119985, 0.02, 0.932, 0.352, 192.0, 0.0, 0.0, 0.0, 0.0, 0.0, 0.0, 0.0, 0.0, 0.0, 1.7398203630297017E9, 0.0, 2025-02-17 16:26:03.029
63.0, 3227.7930650464377, -3825.2551943367953, -7329.516986550926, -4882.470355328364, -6711.37949363941, -4466.035004381538, -4929.006687284314, -4574.910351623339, 0.02, 0.932, 0.352, 192.0, 0.0, 0.0, 0.0, 0.0, 0.0, 0.0, 0.0, 0.0, 0.0, 1.739820363029732E9, 0.0, 2025-02-17 16:26:03.029
64.0, 3225.759056301005, -3820.1813483454407, -7351.891082750689, -4882.336244861633, -6697.856688243948, -4455.797905421007, -4928.4255419284755, -4577.793726658074, 0.02, 0.932, 0.352, 192.0, 0.0, 0.0, 0.0, 0.0, 0.0, 0.0, 0.0, 0.0, 0.0, 1.7398203630297627E9, 0.0, 2025-02-17 16:26:03.029
65.0, 3228.5083208690075, -3794.9685805998542, -7352.651042062169, -4956.767553897805, -6668.240626840667, -4426.852396351385, -4907.079625973657, -4561.096973549959, 0.02, 0.932, 0.352, 192.0, 0.0, 0.0, 0.0, 0.0, 0.0, 0.0, 0.0, 0.0, 0.0, 1.739820363029794E9, 0.0, 2025-02-17 16:26:03.029
66.0, 3231.011716248002, -3808.916069139966, -7341.005783200954, -4951.112562550612, -6688.468955572719, -4444.756143660086, -4916.199137711423, -4566.595502685965, 0.02, 0.932, 0.352, 192.0, 0.0, 0.0, 0.0, 0.0, 0.0, 0.0, 0.0, 0.0, 0.0, 1.7398203630298247E9, 0.0, 2025-02-17 16:26:03.029
67.0, 3231.1905302036444, -3843.6953835124236, -7345.744353025479, -4886.471317585864, -6730.713752593249, -4485.279856357558, -4946.59751017064, -4590.981255886705, 0.02, 0.932, 0.352, 192.0, 0.0, 0.0, 0.0, 0.0, 0.0, 0.0, 0.0, 0.0, 0.0, 1.7398203630298617E9, 0.0, 2025-02-17 16:26:03.029
68.0, 3232.241062193044, -3854.8042005067114, -7372.9240742831325, -4870.981558678336, -6734.982935784214, -4491.784213994052, -4959.740335910361, -4605.91222118285, 0.02, 0.932, 0.352, 192.0, 0.0, 0.0, 0.0, 0.0, 0.0, 0.0, 0.0, 0.0, 0.0, 1.739820363029892E9, 0.0, 2025-02-17 16:26:03.029
69.0, 3232.30811742641, -3825.3893048035275, -7379.5625423863585, -4950.039678816757, -6698.0131504551355, -4456.848437410407, -4935.242823987344, -4588.187287829792, 0.02, 0.932, 0.352, 192.0, 0.0, 0.0, 0.0, 0.0, 0.0, 0.0, 0.0, 0.0, 0.0, 1.7398203630299368E9, 0.0, 2025-02-17 16:26:03.029
70.0, 3231.9281377706693, -3830.2172816058737, -7364.720984068034, -4961.170847555501, -6707.825566271015, -4465.632672981343, -4936.606280399118, -4586.600313973465, 0.02, 0.932, 0.352, 192.0, 0.0, 0.0, 0.0, 0.0, 0.0, 0.0, 0.0, 0.0, 0.0, 1.7398203630299685E9, 0.0, 2025-02-17 16:26:03.029
71.0, 3231.7716755594824, -3862.5155523437925, -7366.263254435451, -4906.118500962079, -6748.483389435219, -4501.551926321021, -4964.478905734886, -4608.326209584023, 0.022, 0.9500000000000001, 0.364, 192.0, 0.0, 176.0, 29.0, 176.0, 11.0, 96.0, 0.0, 0.0, 0.0, 1.7398203630299995E9, 0.0, 2025-02-17 16:26:03.029
72.0, 3231.5258063704737, -3880.1287269745744, -7389.799641346889, -4873.708471501884, -6763.079078564535, -4516.885223017362, -4983.8355164331815, -4627.280488882124, 0.022, 0.9500000000000001, 0.364, 192.0, 0.0, 0.0, 0.0, 0.0, 0.0, 0.0, 0.0, 0.0, 0.0, 1.739820363030032E9, 0.0, 2025-02-17 16:26:03.030
73.0, 3227.390733646242, -3845.5058748133038, -7397.801565861889, -4947.826856115682, -6716.162766952845, -4475.98153066415, -4955.493504463852, -4606.426311305322, 0.022, 0.9500000000000001, 0.364, 192.0, 0.0, 0.0, 0.0, 0.0, 0.0, 0.0, 0.0, 0.0, 0.0, 1.7398203630300703E9, 0.0, 2025-02-17 16:26:03.030
74.0, 3229.4694458805857, -3844.500046312815, -7383.831725577322, -4979.6110367311285, -6719.85080478797, -4477.747318476119, -4951.939577095459, -4601.19600310278, 0.022, 0.9500000000000001, 0.364, 192.0, 0.0, 0.0, 0.0, 0.0, 0.0, 0.0, 0.0, 0.0, 0.0, 1.7398203630301085E9, 0.0, 2025-02-17 16:26:03.030
75.0, 3228.8883005247476, -3871.6797675704684, -7380.590722631303, -4932.985297797358, -6755.680651149828, -4510.872603758884, -4974.894818651059, -4618.518605055643, 0.022, 0.9500000000000001, 0.364, 192.0, 0.0, 0.0, 0.0, 0.0, 0.0, 0.0, 0.0, 0.0, 0.0, 1.7398203630301392E9, 0.0, 2025-02-17 16:26:03.030
76.0, 3228.329506913365, -3896.0878725156635, -7400.081443796331, -4885.487840829831, -6780.334625284032, -4534.654859859331, -4999.6829032519945, -4640.713887299763, 0.022, 0.9500000000000001, 0.364, 192.0, 0.0, 0.0, 0.0, 0.0, 0.0, 0.0, 0.0, 0.0, 0.0, 1.73982036303017E9, 0.0, 2025-02-17 16:26:03.030
77.0, 3229.134169713756, -3868.7069855579125, -7418.119301571764, -4954.174751540989, -6740.682630620317, -4500.479042587166, -4979.275760564299, -4628.666297038352, 0.022, 0.9500000000000001, 0.364, 192.0, 0.0, 0.0, 0.0, 0.0, 0.0, 0.0, 0.0, 0.0, 0.0, 1.7398203630302005E9, 0.0, 2025-02-17 16:26:03.030
78.0, 3229.625908091773, -3856.9946714633315, -7403.165984531162, -5002.186298630989, -6731.384304926909, -4490.2419436266355, -4966.825838902693, -4616.529299799121, 0.022, 0.9500000000000001, 0.364, 192.0, 0.0, 0.0, 0.0, 0.0, 0.0, 0.0, 0.0, 0.0, 0.0, 1.7398203630302303E9, 0.0, 2025-02-17 16:26:03.030
79.0, 3227.6142510907953, -3877.4465176399376, -7394.0017693044865, -4964.233036545877, -6760.039241318613, -4515.678228816775, -4983.008501888336, -4627.056971437571, 0.022, 0.9500000000000001, 0.364, 192.0, 0.0, 0.0, 0.0, 0.0, 0.0, 0.0, 0.0, 0.0, 0.0, 1.7398203630302613E9, 0.0, 2025-02-17 16:26:03.030
80.0, 3225.200262689622, -3903.7321691193783, -7405.758786887978, -4904.822099783672, -6788.940046899324, -4544.735496608674, -5007.774234744816, -4647.911149014371, 0.022, 0.9500000000000001, 0.364, 192.0, 0.0, 0.0, 0.0, 0.0, 0.0, 0.0, 0.0, 0.0, 0.0, 1.7398203630302925E9, 0.0, 2025-02-17 16:26:03.030
81.0, 3225.155559200711, -3880.8663345415994, -7425.8753568977545, -4955.247635274844, -6752.931386581825, -4512.951315993228, -4991.300999081254, -4639.350430887989, 0.014, 0.97, 0.358, 192.0, 0.0, 112.0, 30.0, 80.0, 11.0, 48.0, 0.0, 0.0, 0.0, 1.739820363030324E9, 0.0, 2025-02-17 16:26:03.030
82.0, 3225.423780134175, -3859.4086598645044, -7412.441958480115, -5017.787816260793, -6732.837168316504, -4491.27012387158, -4971.184429071478, -4621.871366723939, 0.014, 0.97, 0.358, 192.0, 0.0, 0.0, 0.0, 0.0, 0.0, 0.0, 0.0, 0.0, 0.0, 1.7398203630303562E9, 0.0, 2025-02-17 16:26:03.030
83.0, 3228.329506913365, -3879.391119407549, -7403.210688020074, -4994.050263649257, -6760.732145396727, -4515.588821838954, -4986.964760656924, -4632.823721507039, 0.014, 0.97, 0.358, 192.0, 0.0, 0.0, 0.0, 0.0, 0.0, 0.0, 0.0, 0.0, 0.0, 1.7398203630303972E9, 0.0, 2025-02-17 16:26:03.030
84.0, 3228.3071551689095, -3910.7506168783448, -7412.397254991205, -4930.16897799599, -6795.86908768047, -4550.144618766859, -5015.75380751536, -4655.957777018282, 0.014, 0.97, 0.358, 192.0, 0.0, 0.0, 0.0, 0.0, 0.0, 0.0, 0.0, 0.0, 0.0, 1.7398203630304282E9, 0.0, 2025-02-17 16:26:03.030
85.0, 3225.5802423453624, -3892.8692213140994, -7431.820920922866, -4955.806428886227, -6767.750593155693, -4526.719990577697, -5004.376769587609, -4650.615710093464, 0.014, 0.97, 0.358, 192.0, 0.0, 0.0, 0.0, 0.0, 0.0, 0.0, 0.0, 0.0, 0.0, 1.7398203630304685E9, 0.0, 2025-02-17 16:26:03.030
86.0, 3225.3120214118985, -3863.5660843331916, -7421.539118473425, -5028.449598365974, -6736.502854407175, -4495.584010551454, -4977.8452489191595, -4629.046276694093, 0.014, 0.97, 0.358, 192.0, 0.0, 0.0, 0.0, 0.0, 0.0, 0.0, 0.0, 0.0, 0.0, 1.7398203630305054E9, 0.0, 2025-02-17 16:26:03.030
87.0, 3225.3120214118985, -3875.077232727675, -7405.959952588076, -5012.781025502804, -6755.524188938641, -4512.325467148479, -4984.997807144858, -4632.53314882912, 0.014, 0.97, 0.358, 192.0, 0.0, 0.0, 0.0, 0.0, 0.0, 0.0, 0.0, 0.0, 0.0, 1.739820363030537E9, 0.0, 2025-02-17 16:26:03.030
88.0, 3224.7085243116053, -3906.101454031641, -7410.296191012406, -4946.709268892917, -6792.181049845344, -4546.925967565295, -5012.691618524983, -4654.862541539972, 0.014, 0.97, 0.358, 192.0, 0.0, 0.0, 0.0, 0.0, 0.0, 0.0, 0.0, 0.0, 0.0, 1.7398203630305758E9, 0.0, 2025-02-17 16:26:03.030
89.0, 3226.228442934566, -3902.905154574532, -7434.637240724235, -4952.118391051101, -6779.731128183738, -4538.5440633945545, -5013.920964470025, -4660.025794509148, 0.014, 0.97, 0.358, 192.0, 0.0, 0.0, 0.0, 0.0, 0.0, 0.0, 0.0, 0.0, 0.0, 1.7398203630306067E9, 0.0, 2025-02-17 16:26:03.030
90.0, 3228.329506913365, -3870.4504216254263, -7432.4467697676155, -5033.858720524159, -6742.9178050658475, -4502.490699588144, -4986.3612635566315, -4638.456361109777, 0.014, 0.97, 0.358, 192.0, 0.0, 0.0, 0.0, 0.0, 0.0, 0.0, 0.0, 0.0, 0.0, 1.739820363030644E9, 0.0, 2025-02-17 16:26:03.030
91.0, 3228.128341213267, -3875.9713025058873, -7414.207746292084, -5031.422380378531, -6756.082982550023, -4512.772502037586, -4987.992940901869, -4636.914090742361, 0.004, 0.9480000000000001, 0.354, 192.0, 0.0, 32.0, 29.0, 160.0, 11.0, 16.0, 0.0, 0.0, 0.0, 1.7398203630306747E9, 0.0, 2025-02-17 16:26:03.030
92.0, 3226.653126079217, -3904.8274045976887, -7413.55954570288, -4966.64702494705, -6792.0469393786125, -4547.149485009848, -5013.295115625277, -4656.091887485014, 0.004, 0.9480000000000001, 0.354, 192.0, 0.0, 0.0, 0.0, 0.0, 0.0, 0.0, 0.0, 0.0, 0.0, 1.739820363030708E9, 0.0, 2025-02-17 16:26:03.030
93.0, 3226.3849051457532, -3911.1305965340853, -7435.576013991358, -4947.0892485486565, -6791.421090533864, -4548.736458866174, -5022.526386085318, -4666.887780056927, 0.004, 0.9480000000000001, 0.354, 192.0, 0.0, 0.0, 0.0, 0.0, 0.0, 0.0, 0.0, 0.0, 0.0, 1.7398203630307393E9, 0.0, 2025-02-17 16:26:03.030
94.0, 3226.2731464234766, -3874.5631426052028, -7437.230043081051, -5027.779046032316, -6747.209340001266, -4507.0281037125715, -4991.792737459271, -4644.15605594588, 0.004, 0.9480000000000001, 0.354, 192.0, 0.0, 0.0, 0.0, 0.0, 0.0, 0.0, 0.0, 0.0, 0.0, 1.7398203630307703E9, 0.0, 2025-02-17 16:26:03.030
95.0, 3226.653126079217, -3874.160811205007, -7417.806377149389, -5041.503017127874, -6752.461999948264, -4510.962010736705, -4987.434147290486, -4638.411657620866, 0.004, 0.9480000000000001, 0.354, 192.0, 0.0, 0.0, 0.0, 0.0, 0.0, 0.0, 0.0, 0.0, 0.0, 1.7398203630308008E9, 0.0, 2025-02-17 16:26:03.030
96.0, 3226.9213470126806, -3902.6145818966133, -7415.280630025939, -4984.7742897003045, -6788.336549799032, -4543.752019852641, -5010.99288594638, -4656.293053185112, 0.004, 0.9480000000000001, 0.354, 192.0, 0.0, 0.0, 0.0, 0.0, 0.0, 0.0, 0.0, 0.0, 0.0, 1.739820363030832E9, 0.0, 2025-02-17 16:26:03.030
97.0, 3224.9990969895243, -3916.58442218118, -7432.826749423355, -4944.183521769467, -6798.216020848277, -4555.285519991579, -5025.789740775793, -4671.156963247891, 0.004, 0.9480000000000001, 0.354, 192.0, 0.0, 0.0, 0.0, 0.0, 0.0, 0.0, 0.0, 0.0, 0.0, 1.7398203630308626E9, 0.0, 2025-02-17 16:26:03.030
98.0, 3223.0097917330017, -3878.4746978848816, -7438.660554726191, -5017.340781371687, -6749.980956313724, -4512.1913566817475, -4994.229077604899, -4649.095791470503, 0.004, 0.9480000000000001, 0.354, 192.0, 0.0, 0.0, 0.0, 0.0, 0.0, 0.0, 0.0, 0.0, 0.0, 1.7398203630309026E9, 0.0, 2025-02-17 16:26:03.030
99.0, 3224.5744138448736, -3871.746822803834, -7420.265069039473, -5048.901444542581, -6749.131590024423, -4507.3186763904905, -4984.707234466939, -4638.657526809875, 0.004, 0.9480000000000001, 0.354, 192.0, 0.0, 0.0, 0.0, 0.0, 0.0, 0.0, 0.0, 0.0, 0.0, 1.739820363030934E9, 0.0, 2025-02-17 16:26:03.030
100.0, 3226.2731464234766, -3898.971247550398, -7415.772368403956, -5001.538098041785, -6782.726261940749, -4538.320545950001, -5006.7237027554165, -4653.789657806117, 0.004, 0.9480000000000001, 0.354, 192.0, 0.0, 0.0, 0.0, 0.0, 0.0, 0.0, 0.0, 0.0, 0.0, 1.7398203630309756E9, 0.0, 2025-02-17 16:26:03.030
101.0, 3228.8659487802925, -3925.3686577521157, -7434.748999446511, -4950.2184927724, -6808.430768064352, -4565.4779154632, -5032.227043178921, -4676.029643539148, -0.032, 0.934, 0.34600000000000003, 192.0, 255.0, 0.0, 29.0, 48.0, 10.0, 208.0, 0.0, 0.0, 0.0, 1.7398203630310068E9, 0.0, 2025-02-17 16:26:03.031
102.0, 3230.296460425432, -3895.551430648736, -7450.5293310319585, -5014.189185403488, -6766.945930355303, -4527.748170822641, -5009.048284178768, -4660.986919520727, -0.032, 0.934, 0.34600000000000003, 192.0, 0.0, 0.0, 0.0, 0.0, 0.0, 0.0, 0.0, 0.0, 0.0, 1.7398203630310423E9, 0.0, 2025-02-17 16:26:03.031
103.0, 3230.5423296144404, -3878.809974051711, -7431.999734878509, -5061.820752837748, -6753.043145304102, -4512.392522381845, -4991.926847926003, -4645.094829213003, -0.032, 0.934, 0.34600000000000003, 192.0, 0.0, 0.0, 0.0, 0.0, 0.0, 0.0, 0.0, 0.0, 0.0, 1.7398203630310893E9, 0.0, 2025-02-17 16:26:03.031
104.0, 3227.167216201689, -3895.7749480932894, -7418.186356805129, -5019.330086628209, -6778.3676717719645, -4535.191301726259, -5004.600287032162, -4652.7167740722625, -0.032, 0.934, 0.34600000000000003, 192.0, 0.0, 0.0, 0.0, 0.0, 0.0, 0.0, 0.0, 0.0, 0.0, 1.7398203630311396E9, 0.0, 2025-02-17 16:26:03.031
105.0, 3226.787236545949, -3923.7593321513336, -7429.719856944068, -4955.202931785933, -6808.944858186825, -4565.880246863395, -5031.221214678432, -4675.06851852757, -0.032, 0.934, 0.34600000000000003, 192.0, 0.0, 0.0, 0.0, 0.0, 0.0, 0.0, 0.0, 0.0, 0.0, 1.739820363031171E9, 0.0, 2025-02-17 16:26:03.031
106.0, 3227.5024923685187, -3899.9547243064317, -7448.920005431177, -5000.062882907735, -6773.271474036154, -4535.347763937445, -5014.367999359131, -4665.97135853426, -0.032, 0.934, 0.34600000000000003, 192.0, 0.0, 0.0, 0.0, 0.0, 0.0, 0.0, 0.0, 0.0, 0.0, 1.7398203630312092E9, 0.0, 2025-02-17 16:26:03.031
107.0, 3227.9048237687143, -3875.7030815724233, -7434.145502346219, -5063.139505760611, -6749.824494102538, -4510.783196781063, -4991.122185125611, -4645.117180957458, -0.032, 0.934, 0.34600000000000003, 192.0, 0.0, 0.0, 0.0, 0.0, 0.0, 0.0, 0.0, 0.0, 0.0, 1.7398203630312395E9, 0.0, 2025-02-17 16:26:03.031
108.0, 3229.648259836228, -3893.8974015590434, -7423.126092329752, -5037.300889170277, -6775.596055459507, -4533.201996469736, -5003.9073829540475, -4653.007346750182, -0.032, 0.934, 0.34600000000000003, 192.0, 0.0, 0.0, 0.0, 0.0, 0.0, 0.0, 0.0, 0.0, 0.0, 1.7398203630312696E9, 0.0, 2025-02-17 16:26:03.031
109.0, 3230.318812169887, -3926.1286170635963, -7432.111493600785, -4970.178600570989, -6812.945820444324, -4568.607159686942, -5033.255223423866, -4677.236637739735, -0.032, 0.934, 0.34600000000000003, 192.0, 0.0, 0.0, 0.0, 0.0, 0.0, 0.0, 0.0, 0.0, 0.0, 1.7398203630313003E9, 0.0, 2025-02-17 16:26:03.031
110.0, 3228.463617380097, -3909.7000848889456, -7451.535159532447, -4990.250467091855, -6785.252009064199, -4545.763676853619, -5022.839310507692, -4672.900399315405, -0.032, 0.934, 0.34600000000000003, 192.0, 0.0, 0.0, 0.0, 0.0, 0.0, 0.0, 0.0, 0.0, 0.0, 1.73982036303133E9, 0.0, 2025-02-17 16:26:03.031
111.0, 3227.9495272576246, -3877.2453519398396, -7440.448694282615, -5064.435906939019, -6750.562101669562, -4511.833728770463, -4993.737339226883, -4649.140494959413, -0.058, 0.896, 0.34, 192.0, 254.0, 48.0, 28.0, 0.0, 10.0, 160.0, 0.0, 0.0, 0.0, 1.7398203630313601E9, 0.0, 2025-02-17 16:26:03.031
112.0, 3227.681306324161, -3887.7059683449233, -7423.439016752126, -5049.840217809703, -6768.3317385115315, -4526.675287088787, -4999.794661974271, -4650.593358349009, -0.058, 0.896, 0.34, 192.0, 0.0, 0.0, 0.0, 0.0, 0.0, 0.0, 0.0, 0.0, 0.0, 1.739820363031392E9, 0.0, 2025-02-17 16:26:03.031
113.0, 3226.7648848014933, -3918.7972448822557, -7426.277688297951, -4980.818030931715, -6805.748558729716, -4561.074621805504, -5027.086141954201, -4671.492239414721, -0.058, 0.896, 0.34, 192.0, 0.0, 0.0, 0.0, 0.0, 0.0, 0.0, 0.0, 0.0, 0.0, 1.739820363031422E9, 0.0, 2025-02-17 16:26:03.031
114.0, 3226.653126079217, -3915.265669258317, -7448.09299088633, -4978.716966952917, -6793.008064390191, -4552.089220534471, -5027.443769865486, -4676.051995283603, -0.058, 0.896, 0.34, 192.0, 0.0, 0.0, 0.0, 0.0, 0.0, 0.0, 0.0, 0.0, 0.0, 1.739820363050367E9, 0.0, 2025-02-17 16:26:03.050
115.0, 3229.1788732026666, -3881.4027764085267, -7446.23779609654, -5062.0219185378455, -6753.713697637761, -4514.113606704904, -4998.162984629033, -4652.82853279454, -0.058, 0.896, 0.34, 192.0, 0.0, 0.0, 0.0, 0.0, 0.0, 0.0, 0.0, 0.0, 0.0, 1.7398203630504267E9, 0.0, 2025-02-17 16:26:03.050
116.0, 3230.095294725334, -3886.946009033443, -7428.334048787839, -5062.692470871505, -6765.9848053437245, -4524.03778124306, -4999.481737551897, -4650.548654860098, -0.058, 0.896, 0.34, 192.0, 0.0, 0.0, 0.0, 0.0, 0.0, 0.0, 0.0, 0.0, 0.0, 1.7398203630505872E9, 0.0, 2025-02-17 16:26:03.050
