%OpenBCI Raw EXG Data
%Number of channels = 8
%Sample Rate = 250 Hz
%Board = OpenBCI_GUI$BoardCytonSerial
Sample Index, EXG Channel 0, EXG Channel 1, EXG Channel 2, EXG Channel 3, EXG Channel 4, EXG Channel 5, EXG Channel 6, EXG Channel 7, Accel Channel 0, Accel Channel 1, Accel Channel 2, Not Used, Digital Channel 0 (D11), Digital Channel 1 (D12), Digital Channel 2 (D13), Digital Channel 3 (D17), Not Used, Digital Channel 4 (D18), Analog Channel 0, Analog Channel 1, Analog Channel 2, Timestamp, Marker Channel, Timestamp (Formatted)
0.0, 0.0, 0.0, 0.0, 0.0, 0.0, 0.0, 0.0, 0.0, -0.03, 0.91, 0.334, 192.0, 255.0, 16.0, 28.0, 112.0, 10.0, 112.0, 0.0, 0.0, 0.0, 1.7398203681280565E9, 0.0, 2025-02-17 16:26:08.128
1.0, 3211.3198293828764, -3843.3154038566836, -7397.399234461694, -4929.274908217777, -6728.635040358907, -4488.073824414471, -4955.314690508209, -4614.2717736091345, -0.03, 0.91, 0.334, 192.0, 0.0, 0.0, 0.0, 0.0, 0.0, 0.0, 0.0, 0.0, 0.0, 1.7398203686145427E9, 0.0, 2025-02-17 16:26:08.614
2.0, 3210.9622014715915, -3805.697417938402, -7389.732586113523, -5012.199880146966, -6685.56322879353, -4446.678393683243, -4922.032943014257, -4588.656674463353, -0.03, 0.91, 0.334, 192.0, 0.0, 0.0, 0.0, 0.0, 0.0, 0.0, 0.0, 0.0, 0.0, 1.7398203686146853E9, 0.0, 2025-02-17 16:26:08.614
3.0, 3212.5938788168287, -3811.8441476636112, -7373.326405683328, -5011.842252235681, -6699.443662100275, -4457.139010088326, -4925.050428515724, -4587.0920523514815, -0.03, 0.91, 0.334, 192.0, 0.0, 0.0, 0.0, 0.0, 0.0, 0.0, 0.0, 0.0, 0.0, 1.7398203686149268E9, 0.0, 2025-02-17 16:26:08.614
4.0, 3214.6278875622615, -3844.075363168164, -7377.12620224073, -4946.463399703908, -6739.9226713088365, -4494.5111268176, -4953.88417886307, -4608.929706684316, -0.03, 0.91, 0.334, 192.0, 0.0, 0.0, 0.0, 0.0, 0.0, 0.0, 0.0, 0.0, 0.0, 1.739820368614957E9, 0.0, 2025-02-17 16:26:08.614
5.0, 3214.7619980289937, -3851.742011516334, -7397.958028073076, -4922.032943014257, -6740.593223642496, -4498.713254775197, -4963.473077234397, -4620.798482990084, -0.03, 0.91, 0.334, 192.0, 0.0, 0.0, 0.0, 0.0, 0.0, 0.0, 0.0, 0.0, 0.0, 1.7398203686150143E9, 0.0, 2025-02-17 16:26:08.615
6.0, 3213.979686973058, -3812.291182552717, -7396.214592005563, -5004.8461562211705, -6692.0228829411135, -4453.518027486566, -4929.49842566233, -4595.7198257112295, -0.03, 0.91, 0.334, 192.0, 0.0, 0.0, 0.0, 0.0, 0.0, 0.0, 0.0, 0.0, 0.0, 1.739820368615044E9, 0.0, 2025-02-17 16:26:08.615
7.0, 3216.4830823520524, -3812.4029412749937, -7378.668472608147, -5022.4593308519525, -6698.840164999982, -4457.273120555058, -4927.017382027791, -4589.751909941663, -0.03, 0.91, 0.334, 192.0, 0.0, 0.0, 0.0, 0.0, 0.0, 0.0, 0.0, 0.0, 0.0, 1.7398203686150732E9, 0.0, 2025-02-17 16:26:08.615
8.0, 3214.3820183732532, -3838.040392165231, -7374.533399883914, -4960.008556843824, -6732.479540405219, -4487.760899992097, -4948.743277638349, -4604.213488604247, -0.02, 0.926, 0.334, 192.0, 255.0, 96.0, 28.0, 240.0, 10.0, 112.0, 0.0, 0.0, 0.0, 1.7398203686151023E9, 0.0, 2025-02-17 16:26:08.615
9.0, 3213.8902799952366, -3854.625386551069, -7392.772423359445, -4915.103902233112, -6745.801180100582, -4502.669513543787, -4965.417679002008, -4620.552613801076, -0.02, 0.926, 0.334, 192.0, 0.0, 0.0, 0.0, 0.0, 0.0, 0.0, 0.0, 0.0, 0.0, 1.7398203686151333E9, 0.0, 2025-02-17 16:26:08.615
10.0, 3213.689114295139, -3817.5438424997146, -7397.8462693508, -4991.077481636701, -6696.828507999005, -4458.368356033368, -4933.812312342205, -4599.743139713185, -0.02, 0.926, 0.334, 192.0, 0.0, 0.0, 0.0, 0.0, 0.0, 0.0, 0.0, 0.0, 0.0, 1.7398203686151624E9, 0.0, 2025-02-17 16:26:08.615
11.0, 3214.091445695334, -3807.306743539184, -7377.7967545743895, -5024.269822152833, -6692.13464166339, -4451.215797807669, -4922.144701736534, -4586.868534906928, -0.02, 0.926, 0.334, 192.0, 0.0, 0.0, 0.0, 0.0, 0.0, 0.0, 0.0, 0.0, 0.0, 1.7398203686151912E9, 0.0, 2025-02-17 16:26:08.615
12.0, 3213.5326520839517, -3830.9548891728987, -7371.6947283380905, -4972.279664549788, -6723.918822278836, -4479.870734199373, -4941.858940346115, -4599.452567035266, -0.02, 0.926, 0.334, 192.0, 0.0, 0.0, 0.0, 0.0, 0.0, 0.0, 0.0, 0.0, 0.0, 1.73982036861522E9, 0.0, 2025-02-17 16:26:08.615
13.0, 3211.9233264831696, -3854.267758639784, -7386.335120956317, -4911.728788820361, -6747.1422847679005, -4503.362417621901, -4964.300091779243, -4618.160977144358, -0.02, 0.926, 0.334, 192.0, 0.0, 0.0, 0.0, 0.0, 0.0, 0.0, 0.0, 0.0, 0.0, 1.7398203686152575E9, 0.0, 2025-02-17 16:26:08.615
14.0, 3210.6716287936724, -3821.6118599905803, -7396.661626894668, -4972.592588972162, -6701.075339445512, -4463.2410363246245, -4936.963908310403, -4600.972485658227, -0.02, 0.926, 0.334, 192.0, 0.0, 0.0, 0.0, 0.0, 0.0, 0.0, 0.0, 0.0, 0.0, 1.7398203686152868E9, 0.0, 2025-02-17 16:26:08.615
15.0, 3210.87279449377, -3802.9034498814885, -7377.7967545743895, -5023.442807607986, -6685.540877049074, -4445.873730882851, -4918.188442967945, -4583.314607538535, -0.02, 0.926, 0.334, 192.0, 0.0, 0.0, 0.0, 0.0, 0.0, 0.0, 0.0, 0.0, 0.0, 1.739820368615324E9, 0.0, 2025-02-17 16:26:08.615
16.0, 3210.0234282044685, -3821.678915223946, -7367.671414336135, -4981.801507687749, -6712.877060517915, -4469.79009745003, -4933.186463497456, -4591.897677409373, -0.02, 0.926, 0.334, 192.0, 0.0, 0.0, 0.0, 0.0, 0.0, 0.0, 0.0, 0.0, 0.0, 1.7398203686154594E9, 0.0, 2025-02-17 16:26:08.615
17.0, 3212.2138991610886, -3853.038412694742, -7382.200048232085, -4915.97562026687, -6747.589319657007, -4503.3847693663565, -4962.4672487339085, -4616.082264910015, -0.02, 0.926, 0.334, 192.0, 0.0, 0.0, 0.0, 0.0, 0.0, 0.0, 0.0, 0.0, 0.0, 1.7398203686154976E9, 0.0, 2025-02-17 16:26:08.615
18.0, 3214.806701517904, -3832.6983252404125, -7400.975513574543, -4960.321481266199, -6714.240516929689, -4475.333330074946, -4946.93278633747, -4609.3990933178775, -0.01, 0.926, 0.334, 192.0, 255.0, 176.0, 28.0, 240.0, 10.0, 112.0, 0.0, 0.0, 0.0, 1.7398203686155362E9, 0.0, 2025-02-17 16:26:08.615
19.0, 3216.8630620077925, -3808.5137377397705, -7386.8939145676995, -5028.51665359934, -6690.368853851421, -4450.0311553515385, -4924.02224827078, -4589.327226797012, -0.01, 0.926, 0.334, 192.0, 0.0, 0.0, 0.0, 0.0, 0.0, 0.0, 0.0, 0.0, 0.0, 1.7398203686155877E9, 0.0, 2025-02-17 16:26:08.615
20.0, 3214.49377709553, -3821.6118599905803, -7372.119411482741, -4997.917115440026, -6710.977162239214, -4467.64432998232, -4932.985297797358, -4592.009436131649, -0.01, 0.926, 0.334, 192.0, 0.0, 0.0, 0.0, 0.0, 0.0, 0.0, 0.0, 0.0, 0.0, 1.7398203686156292E9, 0.0, 2025-02-17 16:26:08.615
21.0, 3209.844614248826, -3848.299842870217, -7376.388594673705, -4922.278812203266, -6743.320136466043, -4497.685074530253, -4957.035774831268, -4609.823776462528, -0.01, 0.926, 0.334, 192.0, 0.0, 0.0, 0.0, 0.0, 0.0, 0.0, 0.0, 0.0, 0.0, 1.7398203686156635E9, 0.0, 2025-02-17 16:26:08.615
22.0, 3209.822262504371, -3835.402886319505, -7395.499336182993, -4940.160207767512, -6718.934383265303, -4478.820202209974, -4948.45270496043, -4608.683837495308, -0.01, 0.926, 0.334, 192.0, 0.0, 0.0, 0.0, 0.0, 0.0, 0.0, 0.0, 0.0, 0.0, 1.7398203686157005E9, 0.0, 2025-02-17 16:26:08.615
23.0, 3209.2858206374435, -3801.875269636544, -7383.094118010297, -5016.200842404466, -6682.590446780974, -4443.236225037125, -4918.367256923587, -4584.365139527934, -0.01, 0.926, 0.334, 192.0, 0.0, 0.0, 0.0, 0.0, 0.0, 0.0, 0.0, 0.0, 0.0, 1.739820368615745E9, 0.0, 2025-02-17 16:26:08.615
24.0, 3209.486986337541, -3811.888851152522, -7367.671414336135, -5002.186298630989, -6699.957752222747, -4457.206065321692, -4924.290469204244, -4585.169802328325, -0.01, 0.926, 0.334, 192.0, 0.0, 0.0, 0.0, 0.0, 0.0, 0.0, 0.0, 0.0, 0.0, 1.7398203686157799E9, 0.0, 2025-02-17 16:26:08.615
25.0, 3209.4422828486304, -3841.907243955999, -7372.6335016052135, -4934.102885020124, -6736.681668362817, -4491.31482736049, -4951.179617783978, -4604.9957996601825, -0.01, 0.926, 0.334, 192.0, 0.0, 0.0, 0.0, 0.0, 0.0, 0.0, 0.0, 0.0, 0.0, 1.7398203686158128E9, 0.0, 2025-02-17 16:26:08.615
26.0, 3210.9622014715915, -3840.4990840553146, -7393.554734415381, -4932.001821041325, -6727.003363013669, -4485.816298224485, -4953.057164318224, -4611.589564274498, -0.01, 0.926, 0.334, 192.0, 0.0, 0.0, 0.0, 0.0, 0.0, 0.0, 0.0, 0.0, 0.0, 1.739820368615842E9, 0.0, 2025-02-17 16:26:08.615
27.0, 3212.236250905544, -3807.5302609837368, -7388.167964001652, -5010.456444079452, -6688.625417783906, -4450.187617562726, -4924.312820948699, -4590.333055297501, -0.01, 0.926, 0.334, 192.0, 0.0, 0.0, 0.0, 0.0, 0.0, 0.0, 0.0, 0.0, 0.0, 1.7398203686158702E9, 0.0, 2025-02-17 16:26:08.615
28.0, 3211.230422405055, -3811.0618366076756, -7370.532437626414, -5006.455481821952, -6699.018978955624, -4457.854265910896, -4924.916318048992, -4586.1532790843585, -0.014, 0.934, 0.334, 192.0, 255.0, 144.0, 29.0, 48.0, 10.0, 112.0, 0.0, 0.0, 0.0, 1.739820368615899E9, 0.0, 2025-02-17 16:26:08.615
29.0, 3211.722160783072, -3838.8003514767115, -7373.773440572434, -4946.59751017064, -6733.507720650163, -4488.878487214862, -4949.704402649928, -4603.609991503953, -0.014, 0.934, 0.334, 192.0, 0.0, 0.0, 0.0, 0.0, 0.0, 0.0, 0.0, 0.0, 0.0, 1.7398203686159356E9, 0.0, 2025-02-17 16:26:08.615
30.0, 3213.39854161722, -3846.7352207583453, -7393.778251859934, -4928.313783206199, -6734.222976472733, -4492.857097727907, -4958.645100432051, -4614.785863731607, -0.014, 0.934, 0.334, 192.0, 0.0, 0.0, 0.0, 0.0, 0.0, 0.0, 0.0, 0.0, 0.0, 1.7398203686159708E9, 0.0, 2025-02-17 16:26:08.615
31.0, 3214.717294540083, -3813.207604075385, -7392.727719870534, -5006.6119440331395, -6692.089938174479, -4454.300338542502, -4930.057219273713, -4595.138680355391, -0.014, 0.934, 0.334, 192.0, 0.0, 0.0, 0.0, 0.0, 0.0, 0.0, 0.0, 0.0, 0.0, 1.7398203686159992E9, 0.0, 2025-02-17 16:26:08.615
32.0, 3216.952468985614, -3814.235784320329, -7376.902684796177, -5018.972458716924, -6700.13656617839, -4458.927149644751, -4928.604355884118, -4591.048311120071, -0.014, 0.934, 0.334, 192.0, 0.0, 0.0, 0.0, 0.0, 0.0, 0.0, 0.0, 0.0, 0.0, 1.7398203686160429E9, 0.0, 2025-02-17 16:26:08.616
33.0, 3218.293573652932, -3840.3873253330385, -7377.394423174193, -4964.389498757065, -6733.977107283725, -4489.370225592879, -4950.956100339425, -4606.940401427794, -0.014, 0.934, 0.334, 192.0, 0.0, 0.0, 0.0, 0.0, 0.0, 0.0, 0.0, 0.0, 0.0, 1.739820368616072E9, 0.0, 2025-02-17 16:26:08.616
34.0, 3217.555966085907, -3853.8430754951332, -7394.046472793398, -4926.033905271757, -6744.013040544158, -4501.596629809932, -4964.590664457162, -4620.552613801076, -0.014, 0.934, 0.334, 192.0, 0.0, 0.0, 0.0, 0.0, 0.0, 0.0, 0.0, 0.0, 0.0, 1.7398203686161056E9, 0.0, 2025-02-17 16:26:08.616
35.0, 3217.310096896899, -3819.3096303116836, -7398.159193773174, -4997.201859617456, -6699.778938267105, -4462.2352078241365, -4936.136893765556, -4602.537107770098, -0.014, 0.934, 0.334, 192.0, 0.0, 0.0, 0.0, 0.0, 0.0, 0.0, 0.0, 0.0, 0.0, 1.739820368616135E9, 0.0, 2025-02-17 16:26:08.616
36.0, 3217.623021319273, -3811.7100371968795, -7380.054280764375, -5024.47098785293, -6697.521412077119, -4456.356699032391, -4926.793864583238, -4591.361235542445, -0.014, 0.934, 0.334, 192.0, 0.0, 0.0, 0.0, 0.0, 0.0, 0.0, 0.0, 0.0, 0.0, 1.7398203686161687E9, 0.0, 2025-02-17 16:26:08.616
37.0, 3217.935945741647, -3835.0899618971307, -7377.014443518454, -4976.325330296198, -6727.450397902775, -4483.156440634303, -4945.546978181241, -4602.492404281188, -0.014, 0.934, 0.334, 192.0, 0.0, 0.0, 0.0, 0.0, 0.0, 0.0, 0.0, 0.0, 0.0, 1.739820368616198E9, 0.0, 2025-02-17 16:26:08.616
38.0, 3217.623021319273, -3856.1453051740295, -7391.788946603411, -4924.804559326716, -6748.170465012845, -4504.0329699555605, -4965.551789468741, -4619.233860878213, -0.018000000000000002, 0.934, 0.336, 192.0, 255.0, 112.0, 29.0, 48.0, 10.0, 128.0, 0.0, 0.0, 0.0, 1.7398203686162348E9, 0.0, 2025-02-17 16:26:08.616
39.0, 3216.7289515410607, -3825.94809841491, -7400.662589152168, -4983.142612355067, -6706.238592414688, -4467.666681726776, -4940.987222312358, -4604.951096171271, -0.018000000000000002, 0.934, 0.336, 192.0, 0.0, 0.0, 0.0, 0.0, 0.0, 0.0, 0.0, 0.0, 0.0, 1.7398203686162665E9, 0.0, 2025-02-17 16:26:08.616
40.0, 3218.4947393530297, -3811.665333707969, -7384.03289127742, -5028.829578021715, -6695.0180166981245, -4454.412097264779, -4926.302126205222, -4591.584752986998, -0.018000000000000002, 0.934, 0.336, 192.0, 0.0, 0.0, 0.0, 0.0, 0.0, 0.0, 0.0, 0.0, 0.0, 1.739820368616295E9, 0.0, 2025-02-17 16:26:08.616
41.0, 3219.7240852980717, -3832.0501246512085, -7377.953216785577, -4990.138708369578, -6723.002400756169, -4478.283760343046, -4942.015402557302, -4601.039540891593, -0.018000000000000002, 0.934, 0.336, 192.0, 0.0, 0.0, 0.0, 0.0, 0.0, 0.0, 0.0, 0.0, 0.0, 1.739820368616324E9, 0.0, 2025-02-17 16:26:08.616
42.0, 3216.7736550299715, -3855.005366206809, -7387.497411667992, -4927.017382027791, -6748.0810580350235, -4503.027141455072, -4962.914283623014, -4616.574003288031, -0.018000000000000002, 0.934, 0.336, 192.0, 0.0, 0.0, 0.0, 0.0, 0.0, 0.0, 0.0, 0.0, 0.0, 1.7398203686163535E9, 0.0, 2025-02-17 16:26:08.616
43.0, 3215.365495129287, -3831.3572205730943, -7400.483775196526, -4966.8705423916035, -6713.122929706923, -4473.612245751888, -4944.965832825403, -4606.6945322387855, -0.018000000000000002, 0.934, 0.336, 192.0, 0.0, 0.0, 0.0, 0.0, 0.0, 0.0, 0.0, 0.0, 0.0, 1.7398203686163824E9, 0.0, 2025-02-17 16:26:08.616
44.0, 3215.365495129287, -3807.396150517005, -7384.614036633258, -5026.057961709257, -6690.368853851421, -4450.053507095994, -4923.485806403853, -4588.120232596425, -0.018000000000000002, 0.934, 0.336, 192.0, 0.0, 0.0, 0.0, 0.0, 0.0, 0.0, 0.0, 0.0, 0.0, 1.73982036861643E9, 0.0, 2025-02-17 16:26:08.616
45.0, 3215.141977684734, -3822.394171046516, -7373.460516150059, -4996.441900305975, -6712.742950051183, -4469.477173027655, -4934.326402464677, -4593.3728925434225, -0.018000000000000002, 0.934, 0.336, 192.0, 0.0, 0.0, 0.0, 0.0, 0.0, 0.0, 0.0, 0.0, 0.0, 1.7398203686164596E9, 0.0, 2025-02-17 16:26:08.616
46.0, 3212.9068032392033, -3848.3445463591274, -7379.964873786555, -4930.034867529258, -6743.2083777437665, -4498.087405930449, -4957.326347509187, -4610.829604963017, -0.018000000000000002, 0.934, 0.336, 192.0, 0.0, 0.0, 0.0, 0.0, 0.0, 0.0, 0.0, 0.0, 0.0, 1.739820368616494E9, 0.0, 2025-02-17 16:26:08.616
47.0, 3213.689114295139, -3836.341659586628, -7398.181545517629, -4950.620824172595, -6720.476653632719, -4480.206010366203, -4949.637347416562, -4610.203756118269, -0.018000000000000002, 0.934, 0.336, 192.0, 0.0, 0.0, 0.0, 0.0, 0.0, 0.0, 0.0, 0.0, 0.0, 1.7398203686165235E9, 0.0, 2025-02-17 16:26:08.616
48.0, 3215.7007712961163, -3808.491385995315, -7388.123260512742, -5023.174586674522, -6690.413557340331, -4450.545245474011, -4924.871614560082, -4591.3835872869, -0.01, 0.926, 0.338, 192.0, 255.0, 176.0, 28.0, 240.0, 10.0, 144.0, 0.0, 0.0, 0.0, 1.7398203686165571E9, 0.0, 2025-02-17 16:26:08.616
49.0, 3216.30426839641, -3819.7343134563343, -7374.60045511728, -5006.589592288684, -6708.473766860219, -4465.565617747977, -4931.7112483634055, -4593.015264632138, -0.01, 0.926, 0.338, 192.0, 0.0, 0.0, 0.0, 0.0, 0.0, 0.0, 0.0, 0.0, 0.0, 1.739820368616589E9, 0.0, 2025-02-17 16:26:08.616
50.0, 3215.052570706913, -3847.070496925175, -7379.182562730618, -4941.389553712554, -6741.375534698432, -4495.315789617991, -4955.851132375137, -4608.840299706495, -0.01, 0.926, 0.338, 192.0, 0.0, 0.0, 0.0, 0.0, 0.0, 0.0, 0.0, 0.0, 0.0, 1.7398203686166217E9, 0.0, 2025-02-17 16:26:08.616
51.0, 3216.997172474524, -3846.422296335971, -7399.947333329598, -4940.875463590081, -6732.211319471756, -4490.197240137725, -4958.086306820668, -4614.987029431704, -0.01, 0.926, 0.338, 192.0, 0.0, 0.0, 0.0, 0.0, 0.0, 0.0, 0.0, 0.0, 0.0, 1.739820368616654E9, 0.0, 2025-02-17 16:26:08.616
52.0, 3216.4383788631417, -3811.7994441747005, -7392.5936094038025, -5017.407836605053, -6692.604028296952, -4452.713364686175, -4927.911451806003, -4592.81409893204, -0.01, 0.926, 0.338, 192.0, 0.0, 0.0, 0.0, 0.0, 0.0, 0.0, 0.0, 0.0, 0.0, 1.7398203686166956E9, 0.0, 2025-02-17 16:26:08.616
53.0, 3215.678419551661, -3815.6439442210135, -7375.114545239752, -5013.898612725569, -6703.75754878015, -4460.201199078703, -4928.447893672931, -4589.2601715636465, -0.01, 0.926, 0.338, 192.0, 0.0, 0.0, 0.0, 0.0, 0.0, 0.0, 0.0, 0.0, 0.0, 1.7398203686167305E9, 0.0, 2025-02-17 16:26:08.616
54.0, 3216.0807509518568, -3843.0248311787645, -7377.7967545743895, -4954.152399796534, -6737.240461974199, -4491.448937827223, -4952.543074195752, -4606.62747700542, -0.01, 0.926, 0.338, 192.0, 0.0, 0.0, 0.0, 0.0, 0.0, 0.0, 0.0, 0.0, 0.0, 1.7398203686167665E9, 0.0, 2025-02-17 16:26:08.616
55.0, 3215.4772538515635, -3849.8644649820885, -7395.968722816554, -4930.548957651729, -6738.00042128568, -4495.27108612908, -4960.74616441085, -4616.48459631021, -0.01, 0.926, 0.338, 192.0, 0.0, 0.0, 0.0, 0.0, 0.0, 0.0, 0.0, 0.0, 0.0, 1.7398203686168027E9, 0.0, 2025-02-17 16:26:08.616
56.0, 3215.7901782739377, -3814.7945779317115, -7395.454632694082, -5007.997752189369, -6694.459223086742, -4455.328518787446, -4931.063047774202, -4596.4797850227105, -0.01, 0.926, 0.338, 192.0, 0.0, 0.0, 0.0, 0.0, 0.0, 0.0, 0.0, 0.0, 0.0, 1.7398203686168387E9, 0.0, 2025-02-17 16:26:08.616
57.0, 3215.723123040572, -3812.268830808262, -7376.5674086293475, -5021.341743629187, -6698.080205688501, -4456.446106010211, -4926.346829694132, -4589.170764585825, -0.01, 0.926, 0.338, 192.0, 0.0, 0.0, 0.0, 0.0, 0.0, 0.0, 0.0, 0.0, 0.0, 1.7398203686168735E9, 0.0, 2025-02-17 16:26:08.616
58.0, 3213.3761898727644, -3834.732333985846, -7372.767612071945, -4964.07657433469, -6727.562156625052, -4482.55294353401, -4944.831722358671, -4601.19600310278, -0.006, 0.928, 0.342, 192.0, 255.0, 208.0, 29.0, 0.0, 10.0, 176.0, 0.0, 0.0, 0.0, 1.7398203686169076E9, 0.0, 2025-02-17 16:26:08.616
59.0, 3212.370361372276, -3849.5515405597143, -7388.7714611019455, -4922.390570925542, -6740.034430031113, -4496.321618118479, -4959.874446377093, -4615.121139898436, -0.006, 0.928, 0.342, 192.0, 0.0, 0.0, 0.0, 0.0, 0.0, 0.0, 0.0, 0.0, 0.0, 1.7398203686169438E9, 0.0, 2025-02-17 16:26:08.616
60.0, 3211.7668642719823, -3815.0404471207203, -7393.197106504096, -4991.7033304814495, -6695.509755076141, -4456.669623454764, -4931.286565218755, -4596.882116422906, -0.006, 0.928, 0.342, 192.0, 0.0, 0.0, 0.0, 0.0, 0.0, 0.0, 0.0, 0.0, 0.0, 1.739820368616978E9, 0.0, 2025-02-17 16:26:08.616
61.0, 3212.9291549836585, -3806.5020807387928, -7375.360414428761, -5023.129883185611, -6692.2016968967555, -4450.254672796092, -4921.541204636241, -4586.309741295546, -0.006, 0.928, 0.342, 192.0, 0.0, 0.0, 0.0, 0.0, 0.0, 0.0, 0.0, 0.0, 0.0, 1.7398203686170073E9, 0.0, 2025-02-17 16:26:08.617
62.0, 3214.8737567512703, -3830.530206028248, -7372.588798116303, -4977.7334901968825, -6723.270621689632, -4477.948484176217, -4941.568367668196, -4599.877250179917, -0.006, 0.928, 0.342, 192.0, 0.0, 0.0, 0.0, 0.0, 0.0, 0.0, 0.0, 0.0, 0.0, 1.739820368617041E9, 0.0, 2025-02-17 16:26:08.617
63.0, 3215.6337160627504, -3853.753668517312, -7387.899743068188, -4924.804559326716, -6746.225863245233, -4501.551926321021, -4963.741298167861, -4618.228032377724, -0.006, 0.928, 0.342, 192.0, 0.0, 0.0, 0.0, 0.0, 0.0, 0.0, 0.0, 0.0, 0.0, 1.739820368617084E9, 0.0, 2025-02-17 16:26:08.617
64.0, 3214.717294540083, -3824.651697236502, -7397.5780484173365, -4980.035719875779, -6705.165708680834, -4466.370280548368, -4940.02609730078, -4604.660523493352, -0.006, 0.928, 0.342, 192.0, 0.0, 0.0, 0.0, 0.0, 0.0, 0.0, 0.0, 0.0, 0.0, 1.739820368617114E9, 0.0, 2025-02-17 16:26:08.617
65.0, 3217.4889108525413, -3809.5195662402593, -7382.535324398915, -5029.835406522204, -6693.766319008627, -4452.3780885193455, -4925.296297704733, -4591.048311120071, -0.006, 0.928, 0.342, 192.0, 0.0, 0.0, 0.0, 0.0, 0.0, 0.0, 0.0, 0.0, 0.0, 1.7398203686171443E9, 0.0, 2025-02-17 16:26:08.617
66.0, 3217.8241870193706, -3828.272679838262, -7375.002786517476, -4991.9939031593685, -6719.873156532426, -4475.243923097125, -4939.914338578504, -4599.00553214616, -0.006, 0.928, 0.342, 192.0, 0.0, 0.0, 0.0, 0.0, 0.0, 0.0, 0.0, 0.0, 0.0, 1.7398203686171887E9, 0.0, 2025-02-17 16:26:08.617
67.0, 3215.656067807206, -3852.4796190833595, -7384.681091866624, -4928.380838439565, -6746.874063834437, -4501.015484454094, -4961.684937677973, -4616.171671887836, -0.006, 0.928, 0.342, 192.0, 0.0, 0.0, 0.0, 0.0, 0.0, 0.0, 0.0, 0.0, 0.0, 1.739820368617223E9, 0.0, 2025-02-17 16:26:08.617
68.0, 3215.656067807206, -3831.871310695566, -7399.679112396135, -4965.88706563557, -6714.508737863152, -4475.020405652572, -4946.239882259355, -4609.466148551243, -0.012, 0.936, 0.34, 192.0, 255.0, 160.0, 29.0, 64.0, 10.0, 160.0, 0.0, 0.0, 0.0, 1.739820368617252E9, 0.0, 2025-02-17 16:26:08.617
69.0, 3215.9019369962143, -3807.5302609837368, -7384.904609311177, -5027.957859987958, -6690.368853851421, -4449.740582673619, -4923.463454659397, -4589.930723897305, -0.012, 0.936, 0.34, 192.0, 0.0, 0.0, 0.0, 0.0, 0.0, 0.0, 0.0, 0.0, 0.0, 1.739820368617283E9, 0.0, 2025-02-17 16:26:08.617
70.0, 3215.723123040572, -3821.7683222017677, -7373.12523998323, -5000.375807330109, -6711.826528528515, -4467.59962649341, -4933.5887948976515, -4594.155203599358, -0.012, 0.936, 0.34, 192.0, 0.0, 0.0, 0.0, 0.0, 0.0, 0.0, 0.0, 0.0, 0.0, 1.739820368617312E9, 0.0, 2025-02-17 16:26:08.617
71.0, 3217.1089311968008, -3851.4514388384155, -7382.93765579911, -4937.232129243866, -6746.091752778501, -4499.741435020142, -4960.723812666394, -4615.00938117616, -0.012, 0.936, 0.34, 192.0, 0.0, 0.0, 0.0, 0.0, 0.0, 0.0, 0.0, 0.0, 0.0, 1.7398203686173408E9, 0.0, 2025-02-17 16:26:08.617
72.0, 3215.2537364070104, -3838.621537521069, -7398.807394362378, -4951.067859061702, -6722.421255400331, -4481.323597588968, -4953.079516062679, -4612.86361370845, -0.012, 0.936, 0.34, 192.0, 0.0, 0.0, 0.0, 0.0, 0.0, 0.0, 0.0, 0.0, 0.0, 1.73982036861737E9, 0.0, 2025-02-17 16:26:08.617
73.0, 3215.007867218002, -3807.083226094631, -7387.229190734529, -5022.727551785416, -6688.200734639256, -4447.863036139373, -4925.966850038391, -4590.780090186607, -0.012, 0.936, 0.34, 192.0, 0.0, 0.0, 0.0, 0.0, 0.0, 0.0, 0.0, 0.0, 0.0, 1.7398203686173992E9, 0.0, 2025-02-17 16:26:08.617
74.0, 3216.2148614185885, -3817.23091807734, -7373.259350449962, -5008.735359756393, -6705.65744705885, -4462.145800846315, -4932.426504185975, -4591.852973920461, -0.012, 0.936, 0.34, 192.0, 0.0, 0.0, 0.0, 0.0, 0.0, 0.0, 0.0, 0.0, 0.0, 1.7398203686174276E9, 0.0, 2025-02-17 16:26:08.617
75.0, 3215.097274195823, -3844.544749801725, -7377.237960963007, -4943.557672924719, -6738.358049196965, -4492.275952372069, -4955.918187608503, -4608.326209584023, -0.012, 0.936, 0.34, 192.0, 0.0, 0.0, 0.0, 0.0, 0.0, 0.0, 0.0, 0.0, 0.0, 1.7398203686174564E9, 0.0, 2025-02-17 16:26:08.617
76.0, 3214.3149631398874, -3843.4048108345046, -7395.968722816554, -4935.891024576548, -6729.037371759102, -4486.5092023026, -4957.259292275821, -4612.796558475085, -0.012, 0.936, 0.34, 192.0, 0.0, 0.0, 0.0, 0.0, 0.0, 0.0, 0.0, 0.0, 0.0, 1.7398203686174908E9, 0.0, 2025-02-17 16:26:08.617
77.0, 3210.9622014715915, -3805.5856592161254, -7387.162135501163, -5009.8976504680695, -6685.56322879353, -4445.3372890159235, -4924.379876182065, -4587.539087240588, -0.012, 0.936, 0.34, 192.0, 0.0, 0.0, 0.0, 0.0, 0.0, 0.0, 0.0, 0.0, 0.0, 1.73982036861752E9, 0.0, 2025-02-17 16:26:08.617
78.0, 3210.582221815851, -3808.4690342508597, -7369.683071337113, -5009.048284178768, -6695.84503124297, -4451.707536185687, -4924.625745371073, -4583.471069749721, -0.01, 0.934, 0.34800000000000003, 192.0, 255.0, 176.0, 29.0, 48.0, 10.0, 224.0, 0.0, 0.0, 0.0, 1.7398203686175547E9, 0.0, 2025-02-17 16:26:08.617
79.0, 3212.2138991610886, -3836.721639242368, -7373.035833005409, -4950.710231150417, -6730.534938637607, -4483.804641223507, -4949.12325729409, -4601.285410080602, -0.01, 0.934, 0.34800000000000003, 192.0, 0.0, 0.0, 0.0, 0.0, 0.0, 0.0, 0.0, 0.0, 0.0, 1.739820368617591E9, 0.0, 2025-02-17 16:26:08.617
80.0, 3215.2537364070104, -3848.880988226055, -7394.717025127056, -4926.480940160864, -6737.195758485289, -4493.684112272753, -4962.400193500543, -4615.72463699873, -0.01, 0.934, 0.34800000000000003, 192.0, 0.0, 0.0, 0.0, 0.0, 0.0, 0.0, 0.0, 0.0, 0.0, 1.739820368617626E9, 0.0, 2025-02-17 16:26:08.617
81.0, 3213.555003828407, -3811.5759267301473, -7393.554734415381, -5000.442862563475, -6691.687606774284, -4451.5510739745, -4930.92893730747, -4593.752872199163, -0.01, 0.934, 0.34800000000000003, 192.0, 0.0, 0.0, 0.0, 0.0, 0.0, 0.0, 0.0, 0.0, 0.0, 1.7398203686176596E9, 0.0, 2025-02-17 16:26:08.617
82.0, 3213.3091346393985, -3807.75377842829, -7374.421641161638, -5015.843214493181, -6693.833374241994, -4450.701707685198, -4925.341001193643, -4585.259209306146, -0.01, 0.934, 0.34800000000000003, 192.0, 0.0, 0.0, 0.0, 0.0, 0.0, 0.0, 0.0, 0.0, 0.0, 1.7398203686176991E9, 0.0, 2025-02-17 16:26:08.617
83.0, 3213.465596850586, -3832.2512903513066, -7372.432335905116, -4962.2213795449, -6725.103464734968, -4478.730795232153, -4945.904606092526, -4599.251401335168, -0.01, 0.934, 0.34800000000000003, 192.0, 0.0, 0.0, 0.0, 0.0, 0.0, 0.0, 0.0, 0.0, 0.0, 1.73982036861774E9, 0.0, 2025-02-17 16:26:08.617
84.0, 3215.2313846625552, -3851.6079010496023, -7391.096042525297, -4920.155396480012, -6741.9790317987245, -4496.656894285309, -4964.635367946073, -4616.6187067769415, -0.01, 0.934, 0.34800000000000003, 192.0, 0.0, 0.0, 0.0, 0.0, 0.0, 0.0, 0.0, 0.0, 0.0, 1.7398203686177754E9, 0.0, 2025-02-17 16:26:08.617
85.0, 3214.717294540083, -3818.7061332113904, -7396.952199572587, -4986.853001934648, -6698.348426621965, -4457.764858933075, -4937.187425754956, -4599.1843461018025, -0.01, 0.934, 0.34800000000000003, 192.0, 0.0, 0.0, 0.0, 0.0, 0.0, 0.0, 0.0, 0.0, 0.0, 1.739820368617812E9, 0.0, 2025-02-17 16:26:08.617
86.0, 3211.9009747387145, -3804.758644671279, -7375.360414428761, -5017.050208693768, -6689.050100928557, -4445.73962041612, -4922.457626158908, -4583.00168311616, -0.01, 0.934, 0.34800000000000003, 192.0, 0.0, 0.0, 0.0, 0.0, 0.0, 0.0, 0.0, 0.0, 0.0, 1.7398203686178486E9, 0.0, 2025-02-17 16:26:08.617
87.0, 3211.297477638421, -3825.5457670147143, -7369.750126570479, -4970.670338949006, -6717.079188475513, -4469.991263150127, -4939.199082755934, -4593.283485565601, -0.01, 0.934, 0.34800000000000003, 192.0, 0.0, 0.0, 0.0, 0.0, 0.0, 0.0, 0.0, 0.0, 0.0, 1.7398203686178896E9, 0.0, 2025-02-17 16:26:08.617
88.0, 3210.9174979826807, -3848.389249848038, -7383.272931965939, -4914.634515599551, -6740.660278875862, -4493.237077383647, -4960.656757433028, -4611.544860785587, -0.012, 0.924, 0.35000000000000003, 192.0, 255.0, 160.0, 28.0, 224.0, 10.0, 240.0, 0.0, 0.0, 0.0, 1.7398203686179273E9, 0.0, 2025-02-17 16:26:08.617
89.0, 3213.465596850586, -3823.8470344361112, -7397.17571701714, -4969.485696492875, -6704.159880180345, -4462.838704924429, -4941.613071157107, -4602.447700792277, -0.012, 0.924, 0.35000000000000003, 192.0, 0.0, 0.0, 0.0, 0.0, 0.0, 0.0, 0.0, 0.0, 0.0, 1.7398203686179643E9, 0.0, 2025-02-17 16:26:08.617
90.0, 3213.622059061773, -3804.803348160189, -7379.6743011086355, -5019.061865694745, -6687.910161961337, -4445.06906808246, -4923.038771514746, -4585.929761639805, -0.012, 0.924, 0.35000000000000003, 192.0, 0.0, 0.0, 0.0, 0.0, 0.0, 0.0, 0.0, 0.0, 0.0, 1.7398203686179924E9, 0.0, 2025-02-17 16:26:08.617
91.0, 3213.979686973058, -3822.595336746614, -7370.733603326512, -4982.919094910514, -6713.525261107119, -4467.733736960142, -4937.075667032679, -4593.708168710252, -0.012, 0.924, 0.35000000000000003, 192.0, 0.0, 0.0, 0.0, 0.0, 0.0, 0.0, 0.0, 0.0, 0.0, 1.7398203686180265E9, 0.0, 2025-02-17 16:26:08.618
92.0, 3212.8620997502926, -3848.3445463591274, -7380.613074375758, -4919.753065079816, -6742.828398088026, -4495.382844851357, -4961.014385344313, -4611.991895674693, -0.012, 0.924, 0.35000000000000003, 192.0, 0.0, 0.0, 0.0, 0.0, 0.0, 0.0, 0.0, 0.0, 0.0, 1.739820368618055E9, 0.0, 2025-02-17 16:26:08.618
93.0, 3212.8844514947477, -3829.502025783304, -7396.371054216749, -4953.1689230405, -6712.832357029004, -4470.88533292834, -4947.379821226576, -4606.828642705517, -0.012, 0.924, 0.35000000000000003, 192.0, 0.0, 0.0, 0.0, 0.0, 0.0, 0.0, 0.0, 0.0, 0.0, 1.7398203686180894E9, 0.0, 2025-02-17 16:26:08.618
94.0, 3214.3149631398874, -3804.557478971181, -7383.205876732573, -5018.27955463881, -6687.463127072231, -4445.6278616938425, -4925.184538982456, -4588.410805274344, -0.012, 0.924, 0.35000000000000003, 192.0, 0.0, 0.0, 0.0, 0.0, 0.0, 0.0, 0.0, 0.0, 0.0, 1.739820368618118E9, 0.0, 2025-02-17 16:26:08.618
95.0, 3214.739646284538, -3818.7061332113904, -7371.538266126903, -4993.603228760151, -6709.010208727147, -4463.3527950469015, -4935.175768753978, -4592.367064042934, -0.012, 0.924, 0.35000000000000003, 192.0, 0.0, 0.0, 0.0, 0.0, 0.0, 0.0, 0.0, 0.0, 0.0, 1.7398203686181564E9, 0.0, 2025-02-17 16:26:08.618
96.0, 3211.520995082974, -3843.874197468066, -7375.941559784599, -4926.078608760668, -6739.073305019535, -4491.203068638214, -4957.348699253643, -4608.2815060951125, -0.012, 0.924, 0.35000000000000003, 192.0, 0.0, 0.0, 0.0, 0.0, 0.0, 0.0, 0.0, 0.0, 0.0, 1.7398203686181855E9, 0.0, 2025-02-17 16:26:08.618
97.0, 3208.6376200482396, -3831.6924967399236, -7390.7160628695565, -4934.482864675863, -6717.034484986602, -4474.193391107726, -4949.167960783, -4606.314552583045, -0.012, 0.924, 0.35000000000000003, 192.0, 0.0, 0.0, 0.0, 0.0, 0.0, 0.0, 0.0, 0.0, 0.0, 1.739820368618223E9, 0.0, 2025-02-17 16:26:08.618
98.0, 3212.7056375391053, -3803.797519659701, -7384.658740122169, -5011.797548746771, -6685.9208567048145, -4444.3314605154355, -4925.139835493545, -4589.081357608004, -0.012, 0.918, 0.358, 192.0, 255.0, 160.0, 28.0, 176.0, 11.0, 48.0, 0.0, 0.0, 0.0, 1.7398203686182523E9, 0.0, 2025-02-17 16:26:08.618
99.0, 3215.432550362653, -3814.7722261872564, -7372.119411482741, -5002.208650375444, -6703.846955757971, -4459.5977019784095, -4932.381800697065, -4591.696511709275, -0.012, 0.918, 0.358, 192.0, 0.0, 0.0, 0.0, 0.0, 0.0, 0.0, 0.0, 0.0, 0.0, 1.7398203686182888E9, 0.0, 2025-02-17 16:26:08.618
100.0, 3213.085617194846, -3840.297918355217, -7373.929902783621, -4937.165074010501, -6735.564081140052, -4489.169059892781, -4954.353565496632, -4606.783939216607, -0.012, 0.918, 0.358, 192.0, 0.0, 0.0, 0.0, 0.0, 0.0, 0.0, 0.0, 0.0, 0.0, 1.7398203686183176E9, 0.0, 2025-02-17 16:26:08.618
101.0, 3211.453939849608, -3840.364973588583, -7391.543077414403, -4925.363352938099, -6727.696267091784, -4485.1904493797365, -4956.02994633078, -4612.036599163604, -0.012, 0.918, 0.358, 192.0, 0.0, 0.0, 0.0, 0.0, 0.0, 0.0, 0.0, 0.0, 0.0, 1.7398203686183467E9, 0.0, 2025-02-17 16:26:08.618
102.0, 3211.9456782276247, -3806.077397594142, -7387.7209291125455, -5003.348589342665, -6687.194906138767, -4446.767800661064, -4926.480940160864, -4591.115366353437, -0.012, 0.918, 0.358, 192.0, 0.0, 0.0, 0.0, 0.0, 0.0, 0.0, 0.0, 0.0, 0.0, 1.739820368618376E9, 0.0, 2025-02-17 16:26:08.618
103.0, 3211.6774572941613, -3808.2008133173963, -7369.8395335483, -5005.807281232748, -6696.001493454158, -4451.9087018857845, -4925.6092221271065, -4585.57213372852, -0.012, 0.918, 0.358, 192.0, 0.0, 0.0, 0.0, 0.0, 0.0, 0.0, 0.0, 0.0, 0.0, 1.7398203686184046E9, 0.0, 2025-02-17 16:26:08.618
104.0, 3210.068131693379, -3832.9218426849657, -7368.610187603258, -4945.748143881338, -6727.003363013669, -4480.295417344024, -4946.105771792623, -4599.787843202096, -0.012, 0.918, 0.358, 192.0, 0.0, 0.0, 0.0, 0.0, 0.0, 0.0, 0.0, 0.0, 0.0, 1.7398203686184332E9, 0.0, 2025-02-17 16:26:08.618
105.0, 3209.6658002931836, -3843.0024794343094, -7386.066900022853, -4914.835681299649, -6732.5242438941295, -4488.319693603479, -4956.879312620082, -4612.304820097068, -0.012, 0.918, 0.358, 192.0, 0.0, 0.0, 0.0, 0.0, 0.0, 0.0, 0.0, 0.0, 0.0, 1.739820368618462E9, 0.0, 2025-02-17 16:26:08.618
106.0, 3210.0904834378343, -3808.4690342508597, -7387.944446557099, -4989.982246158391, -6688.9159904618255, -4448.69005068422, -4928.02321052828, -4593.238782076691, -0.012, 0.918, 0.358, 192.0, 0.0, 0.0, 0.0, 0.0, 0.0, 0.0, 0.0, 0.0, 0.0, 1.7398203686184907E9, 0.0, 2025-02-17 16:26:08.618
107.0, 3211.744512527527, -3805.406845260483, -7370.800658559878, -5011.03758943529, -6692.0228829411135, -4448.712402428675, -4922.748198836827, -4584.834526161495, -0.012, 0.918, 0.358, 192.0, 0.0, 0.0, 0.0, 0.0, 0.0, 0.0, 0.0, 0.0, 0.0, 1.7398203686185255E9, 0.0, 2025-02-17 16:26:08.618
108.0, 3211.297477638421, -3828.876176938555, -7367.827876547322, -4958.667452176506, -6721.773054811127, -4476.249751597614, -4942.082457790668, -4596.792709445084, -0.016, 0.928, 0.356, 192.0, 255.0, 128.0, 29.0, 0.0, 11.0, 32.0, 0.0, 0.0, 0.0, 1.7398203686185548E9, 0.0, 2025-02-17 16:26:08.618
109.0, 3211.5656985718847, -3847.9869184478425, -7384.7928505889, -4913.44987314342, -6739.028601530624, -4494.064091928493, -4960.79086789976, -4612.953020686272, -0.016, 0.928, 0.356, 192.0, 0.0, 0.0, 0.0, 0.0, 0.0, 0.0, 0.0, 0.0, 0.0, 1.7398203686185951E9, 0.0, 2025-02-17 16:26:08.618
110.0, 3212.079788694357, -3816.6497727215024, -7392.861830337266, -4979.275760564299, -6696.940266721281, -4456.289643799025, -4935.30987922071, -4597.351503056468, -0.016, 0.928, 0.356, 192.0, 0.0, 0.0, 0.0, 0.0, 0.0, 0.0, 0.0, 0.0, 0.0, 1.7398203686186297E9, 0.0, 2025-02-17 16:26:08.618
111.0, 3213.6444108062283, -3805.6303627050356, -7375.673338851135, -5017.273726138321, -6690.100632917957, -4446.901911127796, -4923.68697210395, -4585.52743023961, -0.016, 0.928, 0.356, 192.0, 0.0, 0.0, 0.0, 0.0, 0.0, 0.0, 0.0, 0.0, 0.0, 1.7398203686186643E9, 0.0, 2025-02-17 16:26:08.618
112.0, 3214.0243904619683, -3826.7080577263905, -7370.197161459585, -4973.7995831727485, -6718.241479187189, -4472.069975384471, -4940.204911256423, -4595.831584433507, -0.016, 0.928, 0.356, 192.0, 0.0, 0.0, 0.0, 0.0, 0.0, 0.0, 0.0, 0.0, 0.0, 1.7398203686186986E9, 0.0, 2025-02-17 16:26:08.618
113.0, 3215.7901782739377, -3852.367860361083, -7385.575161644836, -4918.724884834872, -6745.220034744744, -4498.780310008563, -4964.255388290333, -4616.10461665447, -0.016, 0.928, 0.356, 192.0, 0.0, 0.0, 0.0, 0.0, 0.0, 0.0, 0.0, 0.0, 0.0, 1.7398203686187384E9, 0.0, 2025-02-17 16:26:08.618
114.0, 3213.9126317396917, -3825.009325147787, -7395.901667583188, -4966.244693546855, -6705.948019736769, -4465.520914259067, -4942.507140935319, -4603.833508948506, -0.016, 0.928, 0.356, 192.0, 0.0, 0.0, 0.0, 0.0, 0.0, 0.0, 0.0, 0.0, 0.0, 1.7398203686187792E9, 0.0, 2025-02-17 16:26:08.618
115.0, 3211.230422405055, -3801.6070487030806, -7376.232132462518, -5016.402008104564, -6685.116193904423, -4443.2809285260355, -4920.155396480012, -4583.873401149917, -0.016, 0.928, 0.356, 192.0, 0.0, 0.0, 0.0, 0.0, 0.0, 0.0, 0.0, 0.0, 0.0, 1.7398203686188114E9, 0.0, 2025-02-17 16:26:08.618
116.0, 3212.3480096278204, -3819.6449064785133, -7367.827876547322, -4983.3661297996205, -6710.261906416644, -4465.252693325602, -4934.125236764578, -4592.031787876104, -0.016, 0.928, 0.356, 192.0, 0.0, 0.0, 0.0, 0.0, 0.0, 0.0, 0.0, 0.0, 0.0, 1.7398203686188402E9, 0.0, 2025-02-17 16:26:08.618
117.0, 3212.727989283561, -3847.6292905365576, -7378.6237691192355, -4921.205928469411, -6741.8002178430825, -4495.2263826401695, -4959.606225443629, -4611.433102063311, -0.016, 0.928, 0.356, 192.0, 0.0, 0.0, 0.0, 0.0, 0.0, 0.0, 0.0, 0.0, 0.0, 1.7398203686188693E9, 0.0, 2025-02-17 16:26:08.618
118.0, 3211.1186636827783, -3829.166749616474, -7393.152403015185, -4948.832684616171, -6712.027694228613, -4470.728870717153, -4945.792847370249, -4605.018151404637, -0.012, 0.926, 0.356, 192.0, 255.0, 160.0, 28.0, 240.0, 11.0, 32.0, 0.0, 0.0, 0.0, 1.7398203686188986E9, 0.0, 2025-02-17 16:26:08.618
119.0, 3212.2586026499994, -3802.858746392578, -7380.389556931205, -5015.8208627487265, -6685.0938421599685, -4443.21387329267, -4922.2117569699, -4585.728595939708, -0.012, 0.926, 0.356, 192.0, 0.0, 0.0, 0.0, 0.0, 0.0, 0.0, 0.0, 0.0, 0.0, 1.7398203686189296E9, 0.0, 2025-02-17 16:26:08.618
120.0, 3213.420893361675, -3816.2921448102175, -7368.74429806999, -4994.117318882623, -6705.9927232256805, -4460.447068267711, -4931.979469296869, -4589.863668663939, -0.012, 0.926, 0.356, 192.0, 0.0, 0.0, 0.0, 0.0, 0.0, 0.0, 0.0, 0.0, 0.0, 1.7398203686189585E9, 0.0, 2025-02-17 16:26:08.618
121.0, 3213.39854161722, -3844.6341567795466, -7375.740394084501, -4929.945460551437, -6739.09565676399, -4491.895972716328, -4957.3039957647325, -4608.885003195405, -0.012, 0.926, 0.356, 192.0, 0.0, 0.0, 0.0, 0.0, 0.0, 0.0, 0.0, 0.0, 0.0, 1.7398203690924983E9, 0.0, 2025-02-17 16:26:09.092
122.0, 3212.6385823057394, -3837.4368950649377, -7393.197106504096, -4936.516873421297, -6721.504833877663, -4479.446051054722, -4952.744239895849, -4610.248459607179, -0.012, 0.926, 0.356, 192.0, 0.0, 0.0, 0.0, 0.0, 0.0, 0.0, 0.0, 0.0, 0.0, 1.7398203690925946E9, 0.0, 2025-02-17 16:26:09.092
123.0, 3214.404370117709, -3806.680894694435, -7385.932789556121, -5013.071598180723, -6686.993740438669, -4446.343117516412, -4925.631573871562, -4590.109537852948, -0.012, 0.926, 0.356, 192.0, 0.0, 0.0, 0.0, 0.0, 0.0, 0.0, 0.0, 0.0, 0.0, 1.7398203690927012E9, 0.0, 2025-02-17 16:26:09.092
124.0, 3214.1585009287005, -3813.7663976867675, -7369.79483005939, -5003.549755042763, -6700.918877234326, -4456.73667868813, -4928.671411117484, -4588.790784930085, -0.012, 0.926, 0.356, 192.0, 0.0, 0.0, 0.0, 0.0, 0.0, 0.0, 0.0, 0.0, 0.0, 1.73982036909274E9, 0.0, 2025-02-17 16:26:09.092
125.0, 3212.5044718390077, -3839.917938699477, -7371.65002484918, -4940.428428700975, -6733.1724444833335, -4486.1292226468595, -4951.224321272889, -4604.414654304344, -0.012, 0.926, 0.356, 192.0, 0.0, 0.0, 0.0, 0.0, 0.0, 0.0, 0.0, 0.0, 0.0, 1.7398203690928125E9, 0.0, 2025-02-17 16:26:09.092
126.0, 3212.9291549836585, -3843.3154038566836, -7391.028987291931, -4926.704457605417, -6729.864386303948, -4486.4197953247785, -4957.214588786911, -4612.371875330434, -0.012, 0.926, 0.356, 192.0, 0.0, 0.0, 0.0, 0.0, 0.0, 0.0, 0.0, 0.0, 0.0, 1.73982036909296E9, 0.0, 2025-02-17 16:26:09.092
127.0, 3213.8902799952366, -3809.1842900734296, -7388.816164590856, -5004.712045754439, -6689.0277491841025, -4448.175960561748, -4927.978507039369, -4592.121194853926, -0.012, 0.926, 0.356, 192.0, 0.0, 0.0, 0.0, 0.0, 0.0, 0.0, 0.0, 0.0, 0.0, 1.7398203690930085E9, 0.0, 2025-02-17 16:26:09.093
128.0, 3215.365495129287, -3811.888851152522, -7372.40998416066, -5012.244583635877, -6697.543763821574, -4454.099172842404, -4927.352658194621, -4588.09788085197, -0.012, 0.934, 0.34600000000000003, 192.0, 255.0, 160.0, 29.0, 48.0, 10.0, 208.0, 0.0, 0.0, 0.0, 1.7398203690930536E9, 0.0, 2025-02-17 16:26:09.093
129.0, 3215.052570706913, -3837.168674131474, -7372.052356249375, -4954.755896896827, -6730.065552004046, -4483.4246615677675, -4949.07855380518, -4602.715921725741, -0.012, 0.934, 0.34600000000000003, 192.0, 0.0, 0.0, 0.0, 0.0, 0.0, 0.0, 0.0, 0.0, 0.0, 1.739820369093115E9, 0.0, 2025-02-17 16:26:09.093
130.0, 3213.2644311504882, -3847.651642281013, -7387.989150046009, -4919.30603019071, -6736.435799173809, -4492.097138416426, -4960.209722543922, -4613.690628253296, -0.012, 0.934, 0.34600000000000003, 192.0, 0.0, 0.0, 0.0, 0.0, 0.0, 0.0, 0.0, 0.0, 0.0, 1.7398203690931916E9, 0.0, 2025-02-17 16:26:09.093
131.0, 3213.979686973058, -3813.632287220036, -7391.341911714306, -4992.79856595976, -6693.118118419424, -4452.69101294172, -4932.135931508056, -4595.093976866481, -0.012, 0.934, 0.34600000000000003, 192.0, 0.0, 0.0, 0.0, 0.0, 0.0, 0.0, 0.0, 0.0, 0.0, 1.739820369093236E9, 0.0, 2025-02-17 16:26:09.093
132.0, 3214.8290532623596, -3807.9996476172983, -7373.281702194417, -5016.402008104564, -6693.475746330709, -4450.16526581827, -4924.9610215379025, -4586.1532790843585, -0.012, 0.934, 0.34600000000000003, 192.0, 0.0, 0.0, 0.0, 0.0, 0.0, 0.0, 0.0, 0.0, 0.0, 1.7398203690932727E9, 0.0, 2025-02-17 16:26:09.093
133.0, 3212.526823583463, -3828.876176938555, -7367.783173058412, -4964.188333056967, -6721.3707234109315, -4474.796888208019, -4941.970699068392, -4596.546840256076, -0.012, 0.934, 0.34600000000000003, 192.0, 0.0, 0.0, 0.0, 0.0, 0.0, 0.0, 0.0, 0.0, 0.0, 1.7398203690933087E9, 0.0, 2025-02-17 16:26:09.093
134.0, 3211.5433468274296, -3847.875159725566, -7382.512972654459, -4915.059198744202, -6738.9838980417135, -4493.281780872558, -4960.07561207719, -4612.126006141425, -0.012, 0.934, 0.34600000000000003, 192.0, 0.0, 0.0, 0.0, 0.0, 0.0, 0.0, 0.0, 0.0, 0.0, 1.7398203690933447E9, 0.0, 2025-02-17 16:26:09.093
135.0, 3212.124492183267, -3817.7003047109015, -7391.408966947672, -4977.353510541143, -6697.94609522177, -4457.0719548549605, -4935.846321087637, -4597.731482712207, -0.012, 0.934, 0.34600000000000003, 192.0, 0.0, 0.0, 0.0, 0.0, 0.0, 0.0, 0.0, 0.0, 0.0, 1.7398203690933836E9, 0.0, 2025-02-17 16:26:09.093
136.0, 3212.2586026499994, -3803.5740022151476, -7372.901722538677, -5016.983153460402, -6687.507830561141, -4444.867902382362, -4921.518852891785, -4583.4487180052665, -0.012, 0.934, 0.34600000000000003, 192.0, 0.0, 0.0, 0.0, 0.0, 0.0, 0.0, 0.0, 0.0, 0.0, 1.7398203690934188E9, 0.0, 2025-02-17 16:26:09.093
137.0, 3213.085617194846, -3824.3164210696723, -7366.956158513565, -4976.057109362735, -6715.000476241169, -4469.4548212832005, -4938.170902510989, -4593.551706499065, -0.012, 0.934, 0.34600000000000003, 192.0, 0.0, 0.0, 0.0, 0.0, 0.0, 0.0, 0.0, 0.0, 0.0, 1.7398203690934544E9, 0.0, 2025-02-17 16:26:09.093
138.0, 3213.1526724282116, -3849.372726604072, -7379.987225531009, -4918.099035990123, -6741.777866098627, -4495.561658806999, -4961.416716744508, -4611.857785207962, -0.016, 0.934, 0.34400000000000003, 192.0, 255.0, 128.0, 29.0, 48.0, 10.0, 192.0, 0.0, 0.0, 0.0, 1.7398203690935106E9, 0.0, 2025-02-17 16:26:09.093
139.0, 3213.5997073173176, -3825.881043181544, -7393.711196626568, -4963.830705145682, -6706.842089514982, -4465.856190425896, -4943.401210713531, -4602.201831603269, -0.016, 0.934, 0.34400000000000003, 192.0, 0.0, 0.0, 0.0, 0.0, 0.0, 0.0, 0.0, 0.0, 0.0, 1.7398203690935571E9, 0.0, 2025-02-17 16:26:09.093
140.0, 3213.3091346393985, -3803.4175400039603, -7377.215609218551, -5018.927755228014, -6686.32318810501, -4443.884425626329, -4922.2117569699, -4583.895752894372, -0.016, 0.934, 0.34400000000000003, 192.0, 0.0, 0.0, 0.0, 0.0, 0.0, 0.0, 0.0, 0.0, 0.0, 1.7398203690936012E9, 0.0, 2025-02-17 16:26:09.093
141.0, 3212.0574369499013, -3818.393208789016, -7366.062088735353, -4986.137746112078, -6708.227897671211, -4462.794001435519, -4932.962946052903, -4588.9695988857275, -0.016, 0.934, 0.34400000000000003, 192.0, 0.0, 0.0, 0.0, 0.0, 0.0, 0.0, 0.0, 0.0, 0.0, 1.7398203690936384E9, 0.0, 2025-02-17 16:26:09.093
142.0, 3211.006904960502, -3845.2600056242954, -7374.578103372825, -4922.055294758713, -6738.648621874884, -4491.605400038409, -4957.035774831268, -4607.141567127892, -0.016, 0.934, 0.34400000000000003, 192.0, 0.0, 0.0, 0.0, 0.0, 0.0, 0.0, 0.0, 0.0, 0.0, 1.739820369093761E9, 0.0, 2025-02-17 16:26:09.093
143.0, 3210.805739260404, -3829.7255432278566, -7390.738414614012, -4946.59751017064, -6712.072397717524, -4470.617111994876, -4946.2175305149, -4603.833508948506, -0.016, 0.934, 0.34400000000000003, 192.0, 0.0, 0.0, 0.0, 0.0, 0.0, 0.0, 0.0, 0.0, 0.0, 1.7398203690937977E9, 0.0, 2025-02-17 16:26:09.093
144.0, 3211.6551055497057, -3801.7411591698124, -7378.780231330423, -5015.016199948335, -6683.126888647901, -4441.82806513644, -4921.317687191688, -4584.074566850015, -0.016, 0.934, 0.34400000000000003, 192.0, 0.0, 0.0, 0.0, 0.0, 0.0, 0.0, 0.0, 0.0, 0.0, 1.7398203690938675E9, 0.0, 2025-02-17 16:26:09.093
145.0, 3210.515166582485, -3811.9335546414322, -7364.273949178929, -4993.6926357379725, -6700.47184234522, -4455.59673972091, -4927.129140750068, -4585.259209306146, -0.016, 0.934, 0.34400000000000003, 192.0, 0.0, 0.0, 0.0, 0.0, 0.0, 0.0, 0.0, 0.0, 0.0, 1.7398203690939236E9, 0.0, 2025-02-17 16:26:09.093
146.0, 3210.716332282583, -3840.4096770774936, -7370.443030648593, -4929.766646595794, -6734.558252639563, -4487.135051147348, -4952.341908495654, -4604.258192093157, -0.016, 0.934, 0.34400000000000003, 192.0, 0.0, 0.0, 0.0, 0.0, 0.0, 0.0, 0.0, 0.0, 0.0, 1.7398203690939686E9, 0.0, 2025-02-17 16:26:09.093
147.0, 3212.236250905544, -3837.1239706425636, -7390.581952402825, -4933.164111753001, -6722.33184842251, -4479.557809776999, -4952.766591640305, -4609.086168895504, -0.016, 0.934, 0.34400000000000003, 192.0, 0.0, 0.0, 0.0, 0.0, 0.0, 0.0, 0.0, 0.0, 0.0, 1.7398203690940044E9, 0.0, 2025-02-17 16:26:09.094
148.0, 3213.040913705935, -3804.5351272267258, -7383.585856388314, -5009.741188256882, -6685.116193904423, -4444.264405282069, -4924.804559326716, -4588.053177363059, -0.016, 0.934, 0.34, 192.0, 255.0, 128.0, 29.0, 48.0, 10.0, 160.0, 0.0, 0.0, 0.0, 1.7398203690940428E9, 0.0, 2025-02-17 16:26:09.094
149.0, 3212.817396261382, -3810.4136360184716, -7367.447896891582, -5004.220307376422, -6697.856688243948, -4453.585082719932, -4927.129140750068, -4586.108575595448, -0.016, 0.934, 0.34, 192.0, 0.0, 0.0, 0.0, 0.0, 0.0, 0.0, 0.0, 0.0, 0.0, 1.739820369094083E9, 0.0, 2025-02-17 16:26:09.094
150.0, 3213.085617194846, -3838.0627439096866, -7370.5771411153255, -4943.401210713531, -6731.831339816015, -4484.69871100172, -4950.710231150417, -4603.319418826034, -0.016, 0.934, 0.34, 192.0, 0.0, 0.0, 0.0, 0.0, 0.0, 0.0, 0.0, 0.0, 0.0, 1.7398203690941184E9, 0.0, 2025-02-17 16:26:09.094
151.0, 3211.6327538052506, -3842.533092800748, -7387.7209291125455, -4922.412922669998, -6729.372647925931, -4485.570429035477, -4956.141705053056, -4611.075474152026, -0.016, 0.934, 0.34, 192.0, 0.0, 0.0, 0.0, 0.0, 0.0, 0.0, 0.0, 0.0, 0.0, 1.7398203690941548E9, 0.0, 2025-02-17 16:26:09.094
152.0, 3212.079788694357, -3807.4855574948265, -7386.044548278398, -4999.6829032519945, -6687.217257883222, -4446.588986705421, -4926.615050627595, -4590.310703553046, -0.016, 0.934, 0.34, 192.0, 0.0, 0.0, 0.0, 0.0, 0.0, 0.0, 0.0, 0.0, 0.0, 1.7398203690941908E9, 0.0, 2025-02-17 16:26:09.094
153.0, 3213.107968939301, -3807.8431854061114, -7369.034870747909, -5010.210574890444, -6693.4310428417975, -4449.762934418075, -4924.513986648797, -4584.655712205853, -0.016, 0.934, 0.34, 192.0, 0.0, 0.0, 0.0, 0.0, 0.0, 0.0, 0.0, 0.0, 0.0, 1.7398203690942328E9, 0.0, 2025-02-17 16:26:09.094
154.0, 3212.146843927723, -3832.0501246512085, -7367.403193402672, -4953.861827118615, -6724.723485079227, -4478.082594642949, -4944.831722358671, -4598.580849001509, -0.016, 0.934, 0.34, 192.0, 0.0, 0.0, 0.0, 0.0, 0.0, 0.0, 0.0, 0.0, 0.0, 1.7398203690942829E9, 0.0, 2025-02-17 16:26:09.094
155.0, 3210.87279449377, -3845.148246902019, -7383.585856388314, -4915.036846999747, -6734.558252639563, -4489.884315715351, -4958.399231243042, -4611.366046829945, -0.016, 0.934, 0.34, 192.0, 0.0, 0.0, 0.0, 0.0, 0.0, 0.0, 0.0, 0.0, 0.0, 1.7398203690943193E9, 0.0, 2025-02-17 16:26:09.094
156.0, 3213.6667625506834, -3813.922859897955, -7390.55960065837, -4989.132879869089, -6693.162821908334, -4452.892178641818, -4932.828835586171, -4595.5410117555875, -0.016, 0.934, 0.34, 192.0, 0.0, 0.0, 0.0, 0.0, 0.0, 0.0, 0.0, 0.0, 0.0, 1.739820369094365E9, 0.0, 2025-02-17 16:26:09.094
157.0, 3213.3761898727644, -3805.5186039827595, -7371.493562637993, -5015.440883092986, -6690.257095129144, -4447.080725083438, -4923.061123259202, -4584.543953483576, -0.016, 0.934, 0.34, 192.0, 0.0, 0.0, 0.0, 0.0, 0.0, 0.0, 0.0, 0.0, 0.0, 1.7398203690944085E9, 0.0, 2025-02-17 16:26:09.094
158.0, 3211.9009747387145, -3826.5068920262925, -7366.062088735353, -4965.909417380026, -6718.241479187189, -4471.712347473186, -4940.115504278601, -4594.736348955196, -0.012, 0.936, 0.34, 192.0, 255.0, 160.0, 29.0, 64.0, 10.0, 160.0, 0.0, 0.0, 0.0, 1.7398203690944765E9, 0.0, 2025-02-17 16:26:09.094
159.0, 3211.744512527527, -3847.76340100329, -7381.194219731596, -4914.254535943811, -6739.363877697454, -4493.147670405826, -4960.455591732931, -4611.701322996774, -0.012, 0.936, 0.34, 192.0, 0.0, 0.0, 0.0, 0.0, 0.0, 0.0, 0.0, 0.0, 0.0, 1.7398203690945156E9, 0.0, 2025-02-17 16:26:09.094
160.0, 3210.6939805381276, -3817.074455866153, -7389.486716924515, -4971.966740127414, -6697.208487654744, -4456.490809499122, -4935.712210620905, -4596.792709445084, -0.012, 0.936, 0.34, 192.0, 0.0, 0.0, 0.0, 0.0, 0.0, 0.0, 0.0, 0.0, 0.0, 1.7398203690945587E9, 0.0, 2025-02-17 16:26:09.094
161.0, 3211.141015427234, -3801.6070487030806, -7371.337100426806, -5015.440883092986, -6684.84797297096, -4442.588024447921, -4920.311858691199, -4581.86174414894, -0.012, 0.936, 0.34, 192.0, 0.0, 0.0, 0.0, 0.0, 0.0, 0.0, 0.0, 0.0, 0.0, 1.7398203690946016E9, 0.0, 2025-02-17 16:26:09.094
162.0, 3211.833919505348, -3820.9636594013764, -7364.7656875569455, -4976.750013440849, -6711.491252361686, -4466.392632292823, -4935.689858876451, -4591.2047733312575, -0.012, 0.936, 0.34, 192.0, 0.0, 0.0, 0.0, 0.0, 0.0, 0.0, 0.0, 0.0, 0.0, 1.739820369094638E9, 0.0, 2025-02-17 16:26:09.094
163.0, 3212.0127334609906, -3847.0257934362644, -7377.439126663105, -4917.204966211912, -6739.945023053292, -4493.929981461762, -4959.717984165905, -4610.427273562822, -0.012, 0.936, 0.34, 192.0, 0.0, 0.0, 0.0, 0.0, 0.0, 0.0, 0.0, 0.0, 0.0, 1.7398203690946743E9, 0.0, 2025-02-17 16:26:09.094
164.0, 3211.5433468274296, -3824.2270140918513, -7391.207801247573, -4957.706327164928, -6705.679798803306, -4465.2303415811475, -4942.283623490765, -4601.888907180894, -0.012, 0.936, 0.34, 192.0, 0.0, 0.0, 0.0, 0.0, 0.0, 0.0, 0.0, 0.0, 0.0, 1.73982036909471E9, 0.0, 2025-02-17 16:26:09.094
165.0, 3212.772692772471, -3802.143490570008, -7376.925036540632, -5017.161967416045, -6684.691510759772, -4442.900948870296, -4921.474149402875, -4584.231029061202, -0.012, 0.936, 0.34, 192.0, 0.0, 0.0, 0.0, 0.0, 0.0, 0.0, 0.0, 0.0, 0.0, 1.7398203690947454E9, 0.0, 2025-02-17 16:26:09.094
166.0, 3214.940811984636, -3819.2202233338626, -7368.140800969697, -4990.026949647302, -6709.233726171699, -4464.1798095917475, -4934.348754209132, -4591.629456475908, -0.012, 0.936, 0.34, 192.0, 0.0, 0.0, 0.0, 0.0, 0.0, 0.0, 0.0, 0.0, 0.0, 1.7398203690947812E9, 0.0, 2025-02-17 16:26:09.094
167.0, 3216.1701579296778, -3848.9480434594207, -7378.064975507853, -4927.844396572637, -6742.895453321392, -4496.1651559072925, -4961.126144066589, -4612.282468352612, -0.012, 0.936, 0.34, 192.0, 0.0, 0.0, 0.0, 0.0, 0.0, 0.0, 0.0, 0.0, 0.0, 1.7398203690948172E9, 0.0, 2025-02-17 16:26:09.094
168.0, 3212.8620997502926, -3833.100656640608, -7392.191278003607, -4944.474094447386, -6716.006304741658, -4474.662777741287, -4948.877388105081, -4607.3427328279895, -0.012, 0.932, 0.342, 192.0, 255.0, 160.0, 29.0, 32.0, 10.0, 176.0, 0.0, 0.0, 0.0, 1.7398203690948608E9, 0.0, 2025-02-17 16:26:09.094
169.0, 3211.9009747387145, -3802.1211388255524, -7379.5625423863585, -5013.585688303196, -6683.1045369034455, -4442.140989558815, -4921.451797658419, -4585.2145058172355, -0.012, 0.932, 0.342, 192.0, 0.0, 0.0, 0.0, 0.0, 0.0, 0.0, 0.0, 0.0, 0.0, 1.739820369094901E9, 0.0, 2025-02-17 16:26:09.094
170.0, 3214.8737567512703, -3815.0404471207203, -7368.274911436429, -4999.615848018629, -6703.154051679856, -4459.530646745044, -4931.063047774202, -4589.684854708297, -0.012, 0.932, 0.342, 192.0, 0.0, 0.0, 0.0, 0.0, 0.0, 0.0, 0.0, 0.0, 0.0, 1.7398203690949488E9, 0.0, 2025-02-17 16:26:09.094
171.0, 3216.974820730069, -3845.5058748133038, -7376.053318506875, -4937.790922855249, -6739.43093293082, -4493.170022150281, -4958.2427690318555, -4610.427273562822, -0.012, 0.932, 0.342, 192.0, 0.0, 0.0, 0.0, 0.0, 0.0, 0.0, 0.0, 0.0, 0.0, 1.7398203690949993E9, 0.0, 2025-02-17 16:26:09.094
172.0, 3215.4772538515635, -3841.57196778917, -7393.420623948649, -4933.968774553392, -6727.1821769693115, -4484.36343483489, -4956.968719597902, -4612.975372430727, -0.012, 0.932, 0.342, 192.0, 0.0, 0.0, 0.0, 0.0, 0.0, 0.0, 0.0, 0.0, 0.0, 1.739820369095036E9, 0.0, 2025-02-17 16:26:09.095
173.0, 3214.8961084957255, -3807.37379877255, -7386.715100612057, -5009.8976504680695, -6687.686644516783, -4446.521931472055, -4927.084437261157, -4590.020130875127, -0.012, 0.932, 0.342, 192.0, 0.0, 0.0, 0.0, 0.0, 0.0, 0.0, 0.0, 0.0, 0.0, 1.7398203690950797E9, 0.0, 2025-02-17 16:26:09.095
174.0, 3216.30426839641, -3813.498176753304, -7371.739431827001, -5008.690656267483, -6700.650656300862, -4455.864960654373, -4929.565480895696, -4588.388453529889, -0.012, 0.932, 0.342, 192.0, 0.0, 0.0, 0.0, 0.0, 0.0, 0.0, 0.0, 0.0, 0.0, 1.7398203690951169E9, 0.0, 2025-02-17 16:26:09.095
175.0, 3217.4889108525413, -3841.549616044714, -7375.002786517476, -4949.972623583391, -6735.608784628962, -4487.917362203284, -4954.353565496632, -4606.605125260964, -0.012, 0.932, 0.342, 192.0, 0.0, 0.0, 0.0, 0.0, 0.0, 0.0, 0.0, 0.0, 0.0, 1.7398203690951965E9, 0.0, 2025-02-17 16:26:09.095
176.0, 3215.6113643182953, -3846.5787585471585, -7391.632484392225, -4925.162187238001, -6735.251156717677, -4490.957199449205, -4961.573178955696, -4615.344657342989, -0.012, 0.932, 0.342, 192.0, 0.0, 0.0, 0.0, 0.0, 0.0, 0.0, 0.0, 0.0, 0.0, 1.7398203690952332E9, 0.0, 2025-02-17 16:26:09.095
177.0, 3214.49377709553, -3810.301877296195, -7389.643179135702, -4999.995827674369, -6690.525316062608, -4449.964100118173, -4930.25838497381, -4593.395244287878, -0.012, 0.932, 0.342, 192.0, 0.0, 0.0, 0.0, 0.0, 0.0, 0.0, 0.0, 0.0, 0.0, 1.7398203690952775E9, 0.0, 2025-02-17 16:26:09.095
178.0, 3214.5608323288957, -3808.3125720396724, -7371.31474868235, -5013.071598180723, -6694.414519597831, -4450.768762918564, -4925.341001193643, -4586.220334317724, -0.012, 0.924, 0.34800000000000003, 192.0, 255.0, 160.0, 28.0, 224.0, 10.0, 224.0, 0.0, 0.0, 0.0, 1.7398203690953577E9, 0.0, 2025-02-17 16:26:09.095
179.0, 3217.1759864301666, -3835.715810741879, -7372.767612071945, -4961.573178955696, -6728.813854314549, -4482.1953156227255, -4948.832684616171, -4603.230011848213, -0.012, 0.924, 0.34800000000000003, 192.0, 0.0, 0.0, 0.0, 0.0, 0.0, 0.0, 0.0, 0.0, 0.0, 1.739820369095398E9, 0.0, 2025-02-17 16:26:09.095
180.0, 3218.0924079528345, -3852.4349155944487, -7390.738414614012, -4922.345867436632, -6742.671935876839, -4497.618019296887, -4965.909417380026, -4619.01034343366, -0.012, 0.924, 0.34800000000000003, 192.0, 0.0, 0.0, 0.0, 0.0, 0.0, 0.0, 0.0, 0.0, 0.0, 1.739820369095434E9, 0.0, 2025-02-17 16:26:09.095
181.0, 3214.7619980289937, -3815.6439442210135, -7392.459498937071, -4988.03764439078, -6695.621513798418, -4455.417925765268, -4935.019306542791, -4598.111462367948, -0.012, 0.924, 0.34800000000000003, 192.0, 0.0, 0.0, 0.0, 0.0, 0.0, 0.0, 0.0, 0.0, 0.0, 1.7398203690954692E9, 0.0, 2025-02-17 16:26:09.095
182.0, 3214.694942795628, -3805.9209353829547, -7373.549923127881, -5017.966630216436, -6690.70413001825, -4448.041850095016, -4923.798730826227, -4586.063872106537, -0.012, 0.924, 0.34800000000000003, 192.0, 0.0, 0.0, 0.0, 0.0, 0.0, 0.0, 0.0, 0.0, 0.0, 1.7398203690955112E9, 0.0, 2025-02-17 16:26:09.095
183.0, 3213.487948595041, -3826.976278659854, -7367.827876547322, -4970.156248826534, -6718.2638309316435, -4472.6287689958535, -4940.316669978699, -4595.496308266676, -0.012, 0.924, 0.34800000000000003, 192.0, 0.0, 0.0, 0.0, 0.0, 0.0, 0.0, 0.0, 0.0, 0.0, 1.7398203690955477E9, 0.0, 2025-02-17 16:26:09.095
184.0, 3213.756169528505, -3849.8644649820885, -7382.736490099012, -4917.339076678643, -6741.420238187342, -4495.65106578482, -4961.796696400249, -4613.265945108646, -0.012, 0.924, 0.34800000000000003, 192.0, 0.0, 0.0, 0.0, 0.0, 0.0, 0.0, 0.0, 0.0, 0.0, 1.739820369095583E9, 0.0, 2025-02-17 16:26:09.095
185.0, 3216.371323629776, -3824.13760711403, -7395.611094905269, -4975.565370984718, -6704.070473202524, -4463.732774702642, -4941.4566089459195, -4602.961790914749, -0.012, 0.924, 0.34800000000000003, 192.0, 0.0, 0.0, 0.0, 0.0, 0.0, 0.0, 0.0, 0.0, 0.0, 1.739820369095628E9, 0.0, 2025-02-17 16:26:09.095
186.0, 3216.661896307695, -3806.9267638834435, -7378.132030741219, -5022.682848296506, -6689.586542795485, -4447.751277417097, -4924.625745371073, -4587.2708663071235, -0.012, 0.924, 0.34800000000000003, 192.0, 0.0, 0.0, 0.0, 0.0, 0.0, 0.0, 0.0, 0.0, 0.0, 1.7398203690956638E9, 0.0, 2025-02-17 16:26:09.095
187.0, 3216.4830823520524, -3825.0987321256084, -7369.8395335483, -4985.2436763338665, -6714.888717518892, -4469.723042216664, -4938.819103100193, -4595.205735588758, -0.012, 0.924, 0.34800000000000003, 192.0, 0.0, 0.0, 0.0, 0.0, 0.0, 0.0, 0.0, 0.0, 0.0, 1.7398203690957067E9, 0.0, 2025-02-17 16:26:09.095
188.0, 3217.555966085907, -3852.4796190833595, -7382.401213932182, -4925.4304081714645, -6745.622366144939, -4498.780310008563, -4964.300091779243, -4615.881099209917, -0.014, 0.922, 0.34600000000000003, 192.0, 255.0, 144.0, 28.0, 208.0, 10.0, 208.0, 0.0, 0.0, 0.0, 1.7398203690957432E9, 0.0, 2025-02-17 16:26:09.095
189.0, 3217.8912422527364, -3832.586566518136, -7397.801565861889, -4962.735469667372, -6714.285220418599, -4472.807582951496, -4949.659699161017, -4609.6896659957965, -0.014, 0.922, 0.34600000000000003, 192.0, 0.0, 0.0, 0.0, 0.0, 0.0, 0.0, 0.0, 0.0, 0.0, 1.739820369095798E9, 0.0, 2025-02-17 16:26:09.095
190.0, 3217.2206899190774, -3807.1502813279967, -7382.311806954362, -5023.085179696701, -6689.0277491841025, -4447.080725083438, -4926.235070971856, -4589.170764585825, -0.014, 0.922, 0.34600000000000003, 192.0, 0.0, 0.0, 0.0, 0.0, 0.0, 0.0, 0.0, 0.0, 0.0, 1.739820369095833E9, 0.0, 2025-02-17 16:26:09.095
191.0, 3218.673553308672, -3822.8635576800775, -7372.007652760465, -4997.492432295374, -6711.848880272971, -4466.571446248466, -4937.768571110794, -4595.00456988866, -0.014, 0.922, 0.34600000000000003, 192.0, 0.0, 0.0, 0.0, 0.0, 0.0, 0.0, 0.0, 0.0, 0.0, 1.7398203690958755E9, 0.0, 2025-02-17 16:26:09.095
192.0, 3218.628849819762, -3851.294976627228, -7380.03192901992, -4933.275870475277, -6744.549482411085, -4497.483908830155, -4963.450725489942, -4614.785863731607, -0.014, 0.922, 0.34600000000000003, 192.0, 0.0, 0.0, 0.0, 0.0, 0.0, 0.0, 0.0, 0.0, 0.0, 1.7398203690959125E9, 0.0, 2025-02-17 16:26:09.095
193.0, 3217.623021319273, -3839.627366021558, -7396.885144339221, -4947.826856115682, -6722.041275744591, -4480.630693510854, -4955.314690508209, -4613.355352086467, -0.014, 0.922, 0.34600000000000003, 192.0, 0.0, 0.0, 0.0, 0.0, 0.0, 0.0, 0.0, 0.0, 0.0, 1.7398203690959563E9, 0.0, 2025-02-17 16:26:09.095
194.0, 3216.30426839641, -3807.75377842829, -7384.74814709999, -5018.65953429455, -6687.239609627678, -4446.857207638885, -4926.3691814385875, -4590.400110530867, -0.014, 0.922, 0.34600000000000003, 192.0, 0.0, 0.0, 0.0, 0.0, 0.0, 0.0, 0.0, 0.0, 0.0, 1.7398203690959923E9, 0.0, 2025-02-17 16:26:09.095
195.0, 3214.2479079065215, -3815.0627988651754, -7367.872580036233, -5002.745092242371, -6701.410615612343, -4457.921321144262, -4929.610184384606, -4588.410805274344, -0.014, 0.922, 0.34600000000000003, 192.0, 0.0, 0.0, 0.0, 0.0, 0.0, 0.0, 0.0, 0.0, 0.0, 1.7398203690960398E9, 0.0, 2025-02-17 16:26:09.096
196.0, 3213.3091346393985, -3841.907243955999, -7371.65002484918, -4938.997917055835, -6734.71471485075, -4488.543211048032, -4953.683013162972, -4605.91222118285, -0.014, 0.922, 0.34600000000000003, 192.0, 0.0, 0.0, 0.0, 0.0, 0.0, 0.0, 0.0, 0.0, 0.0, 1.7398203690960817E9, 0.0, 2025-02-17 16:26:09.096
197.0, 3213.5326520839517, -3841.61667127808, -7390.850173336288, -4932.806483841716, -6726.2434037021885, -4484.184620879248, -4956.119353308601, -4612.260116608157, -0.014, 0.922, 0.34600000000000003, 192.0, 0.0, 0.0, 0.0, 0.0, 0.0, 0.0, 0.0, 0.0, 0.0, 1.7398203690961263E9, 0.0, 2025-02-17 16:26:09.096
198.0, 3215.6113643182953, -3809.2513453067954, -7387.475059923538, -5011.819900491226, -6688.357196850443, -4448.243015795114, -4928.649059373029, -4592.322360554023, -0.014, 0.928, 0.342, 192.0, 255.0, 144.0, 29.0, 0.0, 10.0, 176.0, 0.0, 0.0, 0.0, 1.7398203690961628E9, 0.0, 2025-02-17 16:26:09.096
199.0, 3215.3207916403762, -3812.246479063807, -7369.906588781666, -5011.998714446869, -6698.1249091774125, -4455.239111809625, -4928.649059373029, -4588.164936085336, -0.014, 0.928, 0.342, 192.0, 0.0, 0.0, 0.0, 0.0, 0.0, 0.0, 0.0, 0.0, 0.0, 1.7398203690962017E9, 0.0, 2025-02-17 16:26:09.096
200.0, 3213.2197276615775, -3836.5651770311806, -7369.236036448006, -4950.889045106059, -6729.2385374591995, -4483.670530756775, -4949.7267543943835, -4602.693569981286, -0.014, 0.928, 0.342, 192.0, 0.0, 0.0, 0.0, 0.0, 0.0, 0.0, 0.0, 0.0, 0.0, 1.7398203690962372E9, 0.0, 2025-02-17 16:26:09.096
201.0, 3213.756169528505, -3846.5340550582478, -7388.056205279376, -4923.888137804048, -6733.954755539269, -4490.845440726929, -4960.544998710751, -4614.942325942794, -0.014, 0.928, 0.342, 192.0, 0.0, 0.0, 0.0, 0.0, 0.0, 0.0, 0.0, 0.0, 0.0, 1.7398203690962813E9, 0.0, 2025-02-17 16:26:09.096
202.0, 3214.046742206424, -3811.9335546414322, -7389.062033779864, -4999.258220107344, -6689.877115473404, -4450.902873385296, -4930.727771607372, -4594.758700699652, -0.014, 0.928, 0.342, 192.0, 0.0, 0.0, 0.0, 0.0, 0.0, 0.0, 0.0, 0.0, 0.0, 1.7398203690963173E9, 0.0, 2025-02-17 16:26:09.096
203.0, 3215.3431433848314, -3808.6701999509573, -7371.8735422937325, -5019.195976161477, -6692.604028296952, -4449.941748373717, -4925.408056427009, -4586.063872106537, -0.014, 0.928, 0.342, 192.0, 0.0, 0.0, 0.0, 0.0, 0.0, 0.0, 0.0, 0.0, 0.0, 1.7398203690963597E9, 0.0, 2025-02-17 16:26:09.096
204.0, 3216.617192818784, -3834.3076508411946, -7370.621844604236, -4968.122240081101, -6725.729313579716, -4479.758975477097, -4947.044545059746, -4600.503099024666, -0.014, 0.928, 0.342, 192.0, 0.0, 0.0, 0.0, 0.0, 0.0, 0.0, 0.0, 0.0, 0.0, 1.7398203690964024E9, 0.0, 2025-02-17 16:26:09.096
205.0, 3216.5724893298734, -3854.1559999175074, -7387.229190734529, -4920.311858691199, -6743.722467866239, -4499.093234430938, -4966.267045291311, -4618.518605055643, -0.014, 0.928, 0.342, 192.0, 0.0, 0.0, 0.0, 0.0, 0.0, 0.0, 0.0, 0.0, 0.0, 1.7398203690964384E9, 0.0, 2025-02-17 16:26:09.096
206.0, 3217.1759864301666, -3822.081246624142, -7396.147536772197, -4987.076519379201, -6700.293028389577, -4460.5364752455325, -4939.780228111771, -4602.604163003464, -0.014, 0.928, 0.342, 192.0, 0.0, 0.0, 0.0, 0.0, 0.0, 0.0, 0.0, 0.0, 0.0, 1.739820369096475E9, 0.0, 2025-02-17 16:26:09.096
207.0, 3218.1147596972896, -3809.2289935623403, -7378.377899930228, -5027.220252420932, -6691.329978862999, -4449.0923820844155, -4926.25742271631, -4588.343750040978, -0.014, 0.928, 0.342, 192.0, 0.0, 0.0, 0.0, 0.0, 0.0, 0.0, 0.0, 0.0, 0.0, 1.7398203690965168E9, 0.0, 2025-02-17 16:26:09.096
208.0, 3215.812530018393, -3828.429142049449, -7369.191332959096, -4981.220362331911, -6717.839147786993, -4472.6287689958535, -4941.031925801269, -4596.613895489442, -0.01, 0.93, 0.34400000000000003, 192.0, 255.0, 176.0, 29.0, 16.0, 10.0, 192.0, 0.0, 0.0, 0.0, 1.73982036909656E9, 0.0, 2025-02-17 16:26:09.096
209.0, 3215.2537364070104, -3854.4689243398816, -7382.17769648763, -4918.277849945766, -6745.935290567314, -4500.3896356093455, -4965.820010402204, -4617.132796899414, -0.01, 0.93, 0.34400000000000003, 192.0, 0.0, 0.0, 0.0, 0.0, 0.0, 0.0, 0.0, 0.0, 0.0, 1.7398203690965981E9, 0.0, 2025-02-17 16:26:09.096
210.0, 3216.036047462946, -3828.1162176270745, -7396.728682128034, -4969.5751034706955, -6707.199717426267, -4467.040832882027, -4945.457571203419, -4605.91222118285, -0.01, 0.93, 0.34400000000000003, 192.0, 0.0, 0.0, 0.0, 0.0, 0.0, 0.0, 0.0, 0.0, 0.0, 1.7398203690966337E9, 0.0, 2025-02-17 16:26:09.096
211.0, 3215.6113643182953, -3804.6245342045468, -7379.093155752797, -5027.108493698656, -6685.362063093432, -4444.174998304248, -4923.083475003657, -4585.952113384261, -0.01, 0.93, 0.34400000000000003, 192.0, 0.0, 0.0, 0.0, 0.0, 0.0, 0.0, 0.0, 0.0, 0.0, 1.7398203690966816E9, 0.0, 2025-02-17 16:26:09.096
212.0, 3215.141977684734, -3821.343639057117, -7368.006690502965, -4993.446766548964, -6710.284258161099, -4465.923245659262, -4935.689858876451, -4592.612933231942, -0.01, 0.93, 0.34400000000000003, 192.0, 0.0, 0.0, 0.0, 0.0, 0.0, 0.0, 0.0, 0.0, 0.0, 1.7398203690967193E9, 0.0, 2025-02-17 16:26:09.096
213.0, 3212.839748005837, -3849.328023115161, -7376.165077229152, -4922.882309303559, -6742.806046343571, -4496.522783818577, -4961.46142023342, -4612.148357885881, -0.01, 0.93, 0.34400000000000003, 192.0, 0.0, 0.0, 0.0, 0.0, 0.0, 0.0, 0.0, 0.0, 0.0, 1.7398203690967555E9, 0.0, 2025-02-17 16:26:09.096
214.0, 3214.5608323288957, -3833.5923950186248, -7395.521687927448, -4953.3700887405985, -6715.179290196811, -4474.282798085546, -4950.26319626131, -4608.952058428772, -0.01, 0.93, 0.34400000000000003, 192.0, 0.0, 0.0, 0.0, 0.0, 0.0, 0.0, 0.0, 0.0, 0.0, 1.7398203690967917E9, 0.0, 2025-02-17 16:26:09.096
215.0, 3215.96899222958, -3806.055045849687, -7383.116469754752, -5024.247470408377, -6685.94320844927, -4445.292585527013, -4924.916318048992, -4588.343750040978, -0.01, 0.93, 0.34400000000000003, 192.0, 0.0, 0.0, 0.0, 0.0, 0.0, 0.0, 0.0, 0.0, 0.0, 1.7398203690968275E9, 0.0, 2025-02-17 16:26:09.096
216.0, 3218.3829806307535, -3820.740141956823, -7371.8735422937325, -5005.829632977204, -6708.160842437845, -4464.403327036301, -4935.779265854271, -4593.395244287878, -0.01, 0.93, 0.34400000000000003, 192.0, 0.0, 0.0, 0.0, 0.0, 0.0, 0.0, 0.0, 0.0, 0.0, 1.7398203690968633E9, 0.0, 2025-02-17 16:26:09.096
217.0, 3218.628849819762, -3851.2279213938623, -7378.713176097057, -4938.4614751889085, -6744.996517300191, -4498.467385586189, -4963.383670256576, -4614.361180586956, -0.01, 0.93, 0.34400000000000003, 192.0, 0.0, 0.0, 0.0, 0.0, 0.0, 0.0, 0.0, 0.0, 0.0, 1.739820369096906E9, 0.0, 2025-02-17 16:26:09.096
218.0, 3217.041875963435, -3842.778961989756, -7396.438109450115, -4943.177693268978, -6726.176348468823, -4484.497545301622, -4958.131010309578, -4615.165843387347, -0.016, 0.936, 0.34600000000000003, 192.0, 255.0, 128.0, 29.0, 64.0, 10.0, 208.0, 0.0, 0.0, 0.0, 1.739820369096949E9, 0.0, 2025-02-17 16:26:09.096
219.0, 3216.8183585188817, -3808.7372551843237, -7387.408004690172, -5020.067694195234, -6687.351368349954, -4447.840684394919, -4927.7773413392715, -4591.540049498088, -0.016, 0.936, 0.34600000000000003, 192.0, 0.0, 0.0, 0.0, 0.0, 0.0, 0.0, 0.0, 0.0, 0.0, 1.7398203690969927E9, 0.0, 2025-02-17 16:26:09.096
220.0, 3217.2430416635325, -3815.9345168989325, -7371.605321360269, -5012.937487713992, -6701.835298756993, -4458.681280455742, -4931.666544874495, -4590.578924486509, -0.016, 0.936, 0.34600000000000003, 192.0, 0.0, 0.0, 0.0, 0.0, 0.0, 0.0, 0.0, 0.0, 0.0, 1.7398203690970345E9, 0.0, 2025-02-17 16:26:09.097
221.0, 3216.4160271186865, -3844.544749801725, -7374.086364994809, -4947.424524715487, -6737.195758485289, -4491.426586082767, -4957.102830064635, -4608.952058428772, -0.016, 0.936, 0.34600000000000003, 192.0, 0.0, 0.0, 0.0, 0.0, 0.0, 0.0, 0.0, 0.0, 0.0, 1.73982036909707E9, 0.0, 2025-02-17 16:26:09.097
222.0, 3215.4772538515635, -3847.0928486696303, -7392.4147954481605, -4930.437198929453, -6732.412485171853, -4490.376054093368, -4961.88610337807, -4616.551651543576, -0.016, 0.936, 0.34600000000000003, 192.0, 0.0, 0.0, 0.0, 0.0, 0.0, 0.0, 0.0, 0.0, 0.0, 1.7398203690971112E9, 0.0, 2025-02-17 16:26:09.097
223.0, 3215.656067807206, -3810.9947813743097, -7389.397309946694, -5010.031760934801, -6689.139507906379, -4449.40530650679, -4930.705419862917, -4593.507003010154, -0.016, 0.936, 0.34600000000000003, 192.0, 0.0, 0.0, 0.0, 0.0, 0.0, 0.0, 0.0, 0.0, 0.0, 1.7398203690971477E9, 0.0, 2025-02-17 16:26:09.097
224.0, 3216.8407102633373, -3812.4476447639045, -7372.432335905116, -5019.173624417022, -6697.633170799395, -4454.054469353494, -4929.476073917875, -4588.746081441174, -0.016, 0.936, 0.34600000000000003, 192.0, 0.0, 0.0, 0.0, 0.0, 0.0, 0.0, 0.0, 0.0, 0.0, 1.7398203690971901E9, 0.0, 2025-02-17 16:26:09.097
225.0, 3216.4830823520524, -3839.0238689212647, -7371.6947283380905, -4959.785039399271, -6731.898395049381, -4484.855173212907, -4952.4313154734755, -4605.062854893548, -0.016, 0.936, 0.34600000000000003, 192.0, 0.0, 0.0, 0.0, 0.0, 0.0, 0.0, 0.0, 0.0, 0.0, 1.739820369097226E9, 0.0, 2025-02-17 16:26:09.097
226.0, 3216.5501375854183, -3852.4125638499936, -7390.358434958272, -4923.865786059593, -6741.0402585316015, -4496.969818707683, -4966.937597624969, -4618.9656399447495, -0.016, 0.936, 0.34600000000000003, 192.0, 0.0, 0.0, 0.0, 0.0, 0.0, 0.0, 0.0, 0.0, 0.0, 1.7398203690972672E9, 0.0, 2025-02-17 16:26:09.097
227.0, 3216.4383788631417, -3816.0909791101194, -7393.420623948649, -4999.079406151701, -6694.593333553474, -4454.792076920518, -4936.427466443475, -4597.843241434484, -0.016, 0.936, 0.34600000000000003, 192.0, 0.0, 0.0, 0.0, 0.0, 0.0, 0.0, 0.0, 0.0, 0.0, 1.7398203690973032E9, 0.0, 2025-02-17 16:26:09.097
228.0, 3215.2090329180996, -3807.3514470280943, -7372.499391138482, -5024.314525641743, -6690.927647462803, -4448.421829750756, -4925.743332593838, -4585.281561050601, -0.026000000000000002, 0.934, 0.34800000000000003, 192.0, 255.0, 48.0, 29.0, 48.0, 10.0, 224.0, 0.0, 0.0, 0.0, 1.7398203690973382E9, 0.0, 2025-02-17 16:26:09.097
229.0, 3216.326620140865, -3833.011249662787, -7369.303091681372, -4973.710176194928, -6724.321153679032, -4479.133126632349, -4947.469228204397, -4600.458395535755, -0.026000000000000002, 0.934, 0.34800000000000003, 192.0, 0.0, 0.0, 0.0, 0.0, 0.0, 0.0, 0.0, 0.0, 0.0, 1.7398203690973763E9, 0.0, 2025-02-17 16:26:09.097
230.0, 3215.8348817628485, -3854.8936074845324, -7385.373995944738, -4919.194271468434, -6745.309441722566, -4501.08253968746, -4968.211647058922, -4619.278564367123, -0.026000000000000002, 0.934, 0.34800000000000003, 192.0, 0.0, 0.0, 0.0, 0.0, 0.0, 0.0, 0.0, 0.0, 0.0, 1.7398203690974116E9, 0.0, 2025-02-17 16:26:09.097
231.0, 3216.2819166519544, -3822.751798957801, -7395.7005018830905, -4984.036682133279, -6700.494194089675, -4461.78817293503, -4941.546015923741, -4602.984142659205, -0.026000000000000002, 0.934, 0.34800000000000003, 192.0, 0.0, 0.0, 0.0, 0.0, 0.0, 0.0, 0.0, 0.0, 0.0, 1.7398203690974464E9, 0.0, 2025-02-17 16:26:09.097
232.0, 3214.9184602401806, -3804.9374586269214, -7375.472173151037, -5028.337839643698, -6686.189077638278, -4445.78432390503, -4923.284640703755, -4584.81217441704, -0.026000000000000002, 0.934, 0.34800000000000003, 192.0, 0.0, 0.0, 0.0, 0.0, 0.0, 0.0, 0.0, 0.0, 0.0, 1.7398203690974886E9, 0.0, 2025-02-17 16:26:09.097
233.0, 3215.5443090849294, -3826.2163193483734, -7367.98433875851, -4986.450670534453, -6716.1851186973, -4472.226437595658, -4940.719001378894, -4595.786880944595, -0.026000000000000002, 0.934, 0.34800000000000003, 192.0, 0.0, 0.0, 0.0, 0.0, 0.0, 0.0, 0.0, 0.0, 0.0, 1.7398203690975244E9, 0.0, 2025-02-17 16:26:09.097
234.0, 3217.7347800415496, -3856.3911743630383, -7383.451745921582, -4923.530509892763, -6749.0198313021465, -4504.345894377934, -4969.50804823733, -4620.038523678604, -0.026000000000000002, 0.934, 0.34800000000000003, 192.0, 0.0, 0.0, 0.0, 0.0, 0.0, 0.0, 0.0, 0.0, 0.0, 1.7398203690975664E9, 0.0, 2025-02-17 16:26:09.097
235.0, 3218.271221908477, -3831.5807380176475, -7398.740339129012, -4970.849152904649, -6710.731293050206, -4472.047623640015, -4949.83851311666, -4609.935535184805, -0.026000000000000002, 0.934, 0.34800000000000003, 192.0, 0.0, 0.0, 0.0, 0.0, 0.0, 0.0, 0.0, 0.0, 0.0, 1.7398203690976024E9, 0.0, 2025-02-17 16:26:09.097
236.0, 3218.427684119664, -3807.4855574948265, -7382.244751720996, -5032.875243768125, -6687.507830561141, -4447.416001250267, -4926.458588416408, -4588.679026207808, -0.026000000000000002, 0.934, 0.34800000000000003, 192.0, 0.0, 0.0, 0.0, 0.0, 0.0, 0.0, 0.0, 0.0, 0.0, 1.7398203690976446E9, 0.0, 2025-02-17 16:26:09.097
237.0, 3217.0195242189798, -3822.8412059356224, -7369.683071337113, -5000.442862563475, -6710.977162239214, -4467.532571260044, -4937.299184477232, -4593.52935475461, -0.026000000000000002, 0.934, 0.34800000000000003, 192.0, 0.0, 0.0, 0.0, 0.0, 0.0, 0.0, 0.0, 0.0, 0.0, 1.739820369097681E9, 0.0, 2025-02-17 16:26:09.097
238.0, 3216.997172474524, -3853.641909795035, -7379.249617963984, -4930.236033229356, -6746.9634708122585, -4501.931905976761, -4966.110583080123, -4616.663410265853, -0.028, 0.932, 0.342, 192.0, 255.0, 32.0, 29.0, 32.0, 10.0, 176.0, 0.0, 0.0, 0.0, 1.7398203690977232E9, 0.0, 2025-02-17 16:26:09.097
239.0, 3215.7678265294826, -3836.676935753457, -7396.505164683482, -4953.414792229509, -6718.129720464912, -4478.9096091877955, -4953.8394753741595, -4611.634267763408, -0.028, 0.932, 0.342, 192.0, 0.0, 0.0, 0.0, 0.0, 0.0, 0.0, 0.0, 0.0, 0.0, 1.739820369097762E9, 0.0, 2025-02-17 16:26:09.097
240.0, 3215.3207916403762, -3804.9598103713765, -7383.049414521386, -5027.75669428786, -6683.819792726015, -4444.443219237712, -4924.424579670976, -4586.823831418018, -0.028, 0.932, 0.342, 192.0, 0.0, 0.0, 0.0, 0.0, 0.0, 0.0, 0.0, 0.0, 0.0, 1.7398203690978088E9, 0.0, 2025-02-17 16:26:09.097
241.0, 3217.0195242189798, -3818.080284366642, -7370.174809715129, -5011.618734791128, -6704.606915069451, -4461.78817293503, -4933.678201875473, -4590.62362797542, -0.028, 0.932, 0.342, 192.0, 0.0, 0.0, 0.0, 0.0, 0.0, 0.0, 0.0, 0.0, 0.0, 1.739820369396634E9, 0.0, 2025-02-17 16:26:09.396
242.0, 3218.4053323752087, -3851.1608661604964, -7377.394423174193, -4942.55184442423, -6744.616537644451, -4499.048530942026, -4963.629539445584, -4613.57886953102, -0.028, 0.932, 0.342, 192.0, 0.0, 0.0, 0.0, 0.0, 0.0, 0.0, 0.0, 0.0, 0.0, 1.7398203693967488E9, 0.0, 2025-02-17 16:26:09.396
243.0, 3216.8183585188817, -3844.8576742241, -7395.99107456101, -4941.2777949902775, -6727.942136280792, -4487.98441743665, -4960.701460921939, -4615.881099209917, -0.028, 0.932, 0.342, 192.0, 0.0, 0.0, 0.0, 0.0, 0.0, 0.0, 0.0, 0.0, 0.0, 1.7398203693967843E9, 0.0, 2025-02-17 16:26:09.396
244.0, 3215.2090329180996, -3806.8597086500777, -7386.93861805661, -5021.6993715404715, -6684.423289826309, -4445.918434371762, -4926.771512838783, -4589.282523308101, -0.028, 0.932, 0.342, 192.0, 0.0, 0.0, 0.0, 0.0, 0.0, 0.0, 0.0, 0.0, 0.0, 1.7398203693968325E9, 0.0, 2025-02-17 16:26:09.396
245.0, 3213.487948595041, -3810.1230633405526, -7367.559655613859, -5016.84904299367, -6695.599162053963, -4454.054469353494, -4926.816216327693, -4585.236857561691, -0.028, 0.932, 0.342, 192.0, 0.0, 0.0, 0.0, 0.0, 0.0, 0.0, 0.0, 0.0, 0.0, 1.7398203693968806E9, 0.0, 2025-02-17 16:26:09.396
246.0, 3215.9019369962143, -3843.0918864121304, -7372.231170205018, -4952.967757340402, -6736.4581509182635, -4491.27012387158, -4955.851132375137, -4606.873346194428, -0.028, 0.932, 0.342, 192.0, 0.0, 0.0, 0.0, 0.0, 0.0, 0.0, 0.0, 0.0, 0.0, 1.739820369396917E9, 0.0, 2025-02-17 16:26:09.396
247.0, 3217.1536346857115, -3851.0267556937642, -7393.755900115479, -4931.487730918852, -6737.352220696476, -4494.824051239973, -4965.395327257554, -4618.272735866634, -0.028, 0.932, 0.342, 192.0, 0.0, 0.0, 0.0, 0.0, 0.0, 0.0, 0.0, 0.0, 0.0, 1.7398203693969584E9, 0.0, 2025-02-17 16:26:09.396
248.0, 3214.5384805844405, -3809.94424938491, -7389.419661691149, -5011.149348157567, -6687.3290166054985, -4448.243015795114, -4929.788998340249, -4591.808270431551, -0.032, 0.93, 0.342, 192.0, 255.0, 0.0, 29.0, 16.0, 10.0, 176.0, 0.0, 0.0, 0.0, 1.7398203693970313E9, 0.0, 2025-02-17 16:26:09.397
249.0, 3215.656067807206, -3808.8266621621447, -7371.091231237797, -5026.169720431533, -6693.1404701638785, -4451.104039085393, -4926.190367482945, -4584.834526161495, -0.032, 0.93, 0.342, 192.0, 0.0, 0.0, 0.0, 0.0, 0.0, 0.0, 0.0, 0.0, 0.0, 1.7398203693970692E9, 0.0, 2025-02-17 16:26:09.397
250.0, 3216.7736550299715, -3837.459246809393, -7370.51008588196, -4967.652853447539, -6729.797331070582, -4484.676359257264, -4951.514893950808, -4603.162956614847, -0.032, 0.93, 0.342, 192.0, 0.0, 0.0, 0.0, 0.0, 0.0, 0.0, 0.0, 0.0, 0.0, 1.7398203693972812E9, 0.0, 2025-02-17 16:26:09.397
251.0, 3215.387846873742, -3852.1443429165297, -7387.855039579277, -4923.68697210395, -6741.442589931798, -4498.2215163971805, -4966.937597624969, -4618.228032377724, -0.032, 0.93, 0.342, 192.0, 0.0, 0.0, 0.0, 0.0, 0.0, 0.0, 0.0, 0.0, 0.0, 1.7398203693973396E9, 0.0, 2025-02-17 16:26:09.397
252.0, 3215.298439895921, -3815.554537243192, -7392.839478592811, -4999.146461385067, -6693.587505052985, -4454.635614709332, -4935.913376321003, -4596.926819911816, -0.032, 0.93, 0.342, 192.0, 0.0, 0.0, 0.0, 0.0, 0.0, 0.0, 0.0, 0.0, 0.0, 1.739820369397376E9, 0.0, 2025-02-17 16:26:09.397
253.0, 3215.9913439740353, -3806.8597086500777, -7373.527571383425, -5031.467083867441, -6689.6759497733065, -4448.108905328382, -4925.408056427009, -4584.901581394861, -0.032, 0.93, 0.342, 192.0, 0.0, 0.0, 0.0, 0.0, 0.0, 0.0, 0.0, 0.0, 0.0, 1.7398203693974152E9, 0.0, 2025-02-17 16:26:09.397
254.0, 3216.1701579296778, -3831.1560548729963, -7368.811353303356, -4981.063900120724, -6722.242441444689, -4477.479097542656, -4945.524626436785, -4599.094939123981, -0.032, 0.93, 0.342, 192.0, 0.0, 0.0, 0.0, 0.0, 0.0, 0.0, 0.0, 0.0, 0.0, 1.739820369397483E9, 0.0, 2025-02-17 16:26:09.397
255.0, 3215.052570706913, -3853.8654272395884, -7383.65291162168, -4923.038771514746, -6744.683592877816, -4500.4119873538, -4967.161115069523, -4617.333962599511, -0.032, 0.93, 0.342, 192.0, 0.0, 0.0, 0.0, 0.0, 0.0, 0.0, 0.0, 0.0, 0.0, 1.7398203693975413E9, 0.0, 2025-02-17 16:26:09.397
0.0, 3215.1196259402786, -3822.5506332577033, -7394.337045471317, -4984.237847833378, -6700.874173745415, -4462.011690379583, -4941.478960690375, -4600.905430424861, -0.032, 0.93, 0.342, 192.0, 0.0, 0.0, 0.0, 0.0, 0.0, 0.0, 0.0, 0.0, 0.0, 1.739820369397575E9, 0.0, 2025-02-17 16:26:09.397
1.0, 3216.1701579296778, -3805.8985836384995, -7376.5674086293475, -5032.919947257036, -6687.37372009441, -4446.365469260868, -4924.6704488599835, -4584.767470928129, -0.032, 0.93, 0.342, 192.0, 0.0, 0.0, 0.0, 0.0, 0.0, 0.0, 0.0, 0.0, 0.0, 1.7398203693976035E9, 0.0, 2025-02-17 16:26:09.397
2.0, 3215.8795852517587, -3825.366953059072, -7367.961987014054, -4992.7538624708495, -6714.933421007803, -4470.415946294778, -4940.048449045235, -4594.088148365992, -0.03, 0.936, 0.34800000000000003, 192.0, 255.0, 16.0, 29.0, 64.0, 10.0, 224.0, 0.0, 0.0, 0.0, 1.7398203693976333E9, 0.0, 2025-02-17 16:26:09.397
3.0, 3216.326620140865, -3853.5748545616693, -7381.12716449823, -4928.313783206199, -6746.851712089981, -4501.08253968746, -4966.825838902693, -4616.216375376746, -0.03, 0.936, 0.34800000000000003, 192.0, 0.0, 0.0, 0.0, 0.0, 0.0, 0.0, 0.0, 0.0, 0.0, 1.7398203693976645E9, 0.0, 2025-02-17 16:26:09.397
4.0, 3215.3207916403762, -3828.89852868301, -7394.9405425716095, -4969.440993003964, -6709.904278505359, -4469.857152683396, -4947.893911349048, -4606.336904327501, -0.03, 0.936, 0.34800000000000003, 192.0, 0.0, 0.0, 0.0, 0.0, 0.0, 0.0, 0.0, 0.0, 0.0, 1.7398203693976936E9, 0.0, 2025-02-17 16:26:09.397
5.0, 3212.9291549836585, -3801.517641725259, -7376.478001651526, -5029.433075122008, -6682.32222584751, -4441.604547691888, -4921.608259869607, -4583.247552305169, -0.03, 0.936, 0.34800000000000003, 192.0, 0.0, 0.0, 0.0, 0.0, 0.0, 0.0, 0.0, 0.0, 0.0, 1.7398203693977225E9, 0.0, 2025-02-17 16:26:09.397
6.0, 3213.8902799952366, -3818.147339600008, -7366.039736990898, -5001.672208508517, -6706.2832959035995, -4462.346966546413, -4933.611146642107, -4589.304875052557, -0.03, 0.936, 0.34800000000000003, 192.0, 0.0, 0.0, 0.0, 0.0, 0.0, 0.0, 0.0, 0.0, 0.0, 1.739820369397751E9, 0.0, 2025-02-17 16:26:09.397
7.0, 3213.197375917122, -3847.718697514379, -7374.22047546154, -4932.046524530235, -6741.263775976155, -4495.740472762642, -4960.723812666394, -4610.203756118269, -0.03, 0.936, 0.34800000000000003, 192.0, 0.0, 0.0, 0.0, 0.0, 0.0, 0.0, 0.0, 0.0, 0.0, 1.73982036939778E9, 0.0, 2025-02-17 16:26:09.397
8.0, 3214.2702596509766, -3835.2240723638624, -7393.5323826709255, -4952.7218881513945, -6717.906203020359, -4477.143821375826, -4953.12421955159, -4609.354389828967, -0.03, 0.936, 0.34800000000000003, 192.0, 0.0, 0.0, 0.0, 0.0, 0.0, 0.0, 0.0, 0.0, 0.0, 1.7398203693978152E9, 0.0, 2025-02-17 16:26:09.397
9.0, 3216.974820730069, -3806.5020807387928, -7384.41287093316, -5028.583708832706, -6686.680816016295, -4445.918434371762, -4927.68793436145, -4589.19311633028, -0.03, 0.936, 0.34800000000000003, 192.0, 0.0, 0.0, 0.0, 0.0, 0.0, 0.0, 0.0, 0.0, 0.0, 1.73982036939785E9, 0.0, 2025-02-17 16:26:09.397
10.0, 3217.935945741647, -3817.3873802885273, -7370.912417282155, -5013.742150514383, -6705.277467403111, -4460.983510134639, -4934.952251309425, -4591.115366353437, -0.03, 0.936, 0.34800000000000003, 192.0, 0.0, 0.0, 0.0, 0.0, 0.0, 0.0, 0.0, 0.0, 0.0, 1.7398203693978784E9, 0.0, 2025-02-17 16:26:09.397
11.0, 3216.6395445632393, -3845.818799235678, -7374.93573128411, -4944.988184569858, -6740.369706197943, -4493.4605948282, -4960.723812666394, -4610.226107862724, -0.03, 0.936, 0.34800000000000003, 192.0, 0.0, 0.0, 0.0, 0.0, 0.0, 0.0, 0.0, 0.0, 0.0, 1.7398203693979125E9, 0.0, 2025-02-17 16:26:09.397
12.0, 3216.2819166519544, -3842.6895550119348, -7394.068824537853, -4941.546015923741, -6728.143301980889, -4486.084519157948, -4960.83557138867, -4614.942325942794, -0.018000000000000002, 0.934, 0.34400000000000003, 192.0, 255.0, 112.0, 29.0, 48.0, 10.0, 192.0, 0.0, 0.0, 0.0, 1.7398203693979409E9, 0.0, 2025-02-17 16:26:09.397
13.0, 3215.7901782739377, -3807.6420197060133, -7386.849211078788, -5018.9948104613795, -6687.37372009441, -4447.192483805715, -4929.476073917875, -4591.137718097892, -0.018000000000000002, 0.934, 0.34400000000000003, 192.0, 0.0, 0.0, 0.0, 0.0, 0.0, 0.0, 0.0, 0.0, 0.0, 1.7398203693979776E9, 0.0, 2025-02-17 16:26:09.397
14.0, 3214.5384805844405, -3810.8383191631224, -7368.900760281177, -5016.200842404466, -6697.029673699102, -4454.076821097949, -4929.029039028769, -4586.376796528912, -0.018000000000000002, 0.934, 0.34400000000000003, 192.0, 0.0, 0.0, 0.0, 0.0, 0.0, 0.0, 0.0, 0.0, 0.0, 1.7398203693980105E9, 0.0, 2025-02-17 16:26:09.398
15.0, 3213.8008730174156, -3838.599185776614, -7370.331271926317, -4953.459495718419, -6731.987802027203, -4485.4586703132, -4953.191274784956, -4603.162956614847, -0.018000000000000002, 0.934, 0.34400000000000003, 192.0, 0.0, 0.0, 0.0, 0.0, 0.0, 0.0, 0.0, 0.0, 0.0, 1.7398203693980448E9, 0.0, 2025-02-17 16:26:09.398
16.0, 3213.197375917122, -3845.192950390929, -7389.12908901323, -4928.872576817582, -6732.703057849772, -4489.370225592879, -4961.617882444606, -4613.4447590642885, -0.018000000000000002, 0.934, 0.34400000000000003, 192.0, 0.0, 0.0, 0.0, 0.0, 0.0, 0.0, 0.0, 0.0, 0.0, 1.7398203693980732E9, 0.0, 2025-02-17 16:26:09.398
17.0, 3214.404370117709, -3810.1901185739184, -7389.419661691149, -5006.768406244327, -6689.363025350932, -4449.427658251245, -4931.778303596771, -4592.925857654316, -0.018000000000000002, 0.934, 0.34400000000000003, 192.0, 0.0, 0.0, 0.0, 0.0, 0.0, 0.0, 0.0, 0.0, 0.0, 1.7398203693981023E9, 0.0, 2025-02-17 16:26:09.398
18.0, 3216.036047462946, -3809.56426972917, -7372.700556838579, -5022.012295962846, -6694.70509227575, -4451.59577746341, -4928.291431461744, -4586.175630828814, -0.018000000000000002, 0.934, 0.34400000000000003, 192.0, 0.0, 0.0, 0.0, 0.0, 0.0, 0.0, 0.0, 0.0, 0.0, 1.7398203693981307E9, 0.0, 2025-02-17 16:26:09.398
19.0, 3215.3207916403762, -3834.687630496935, -7370.398327159683, -4965.551789468741, -6727.003363013669, -4480.675396999764, -4949.50323694983, -4600.5925060024865, -0.018000000000000002, 0.934, 0.34400000000000003, 192.0, 0.0, 0.0, 0.0, 0.0, 0.0, 0.0, 0.0, 0.0, 0.0, 1.7398203693981593E9, 0.0, 2025-02-17 16:26:09.398
20.0, 3216.952468985614, -3853.0831161836527, -7389.643179135702, -4924.290469204244, -6742.895453321392, -4498.087405930449, -4968.211647058922, -4618.920936455838, -0.018000000000000002, 0.934, 0.34400000000000003, 192.0, 0.0, 0.0, 0.0, 0.0, 0.0, 0.0, 0.0, 0.0, 0.0, 1.739820369398188E9, 0.0, 2025-02-17 16:26:09.398
21.0, 3218.070056208379, -3819.622554734058, -7396.549868172392, -4995.950161927958, -6698.7731097666165, -4458.234245566636, -4940.719001378894, -4601.106596124959, -0.018000000000000002, 0.934, 0.34400000000000003, 192.0, 0.0, 0.0, 0.0, 0.0, 0.0, 0.0, 0.0, 0.0, 0.0, 1.7398203693982165E9, 0.0, 2025-02-17 16:26:09.398
22.0, 3218.4053323752087, -3809.4972144958037, -7377.863809807755, -5028.941336743991, -6693.363987608432, -4450.053507095994, -4929.431370428964, -4587.896715151873, -0.02, 0.93, 0.34400000000000003, 192.0, 255.0, 96.0, 29.0, 16.0, 10.0, 192.0, 0.0, 0.0, 0.0, 1.7398203693982449E9, 0.0, 2025-02-17 16:26:09.398
23.0, 3217.5112625969964, -3831.558386273192, -7371.962949271554, -4980.214533831422, -6722.890642033893, -4476.450917297711, -4947.469228204397, -4598.893773423883, -0.02, 0.93, 0.34400000000000003, 192.0, 0.0, 0.0, 0.0, 0.0, 0.0, 0.0, 0.0, 0.0, 0.0, 1.7398203693982818E9, 0.0, 2025-02-17 16:26:09.398
24.0, 3215.432550362653, -3853.530151072759, -7385.083423266819, -4920.155396480012, -6745.734124867216, -4499.60732455341, -4968.569274970207, -4616.752817243674, -0.02, 0.93, 0.34400000000000003, 192.0, 0.0, 0.0, 0.0, 0.0, 0.0, 0.0, 0.0, 0.0, 0.0, 1.739820369398317E9, 0.0, 2025-02-17 16:26:09.398
25.0, 3214.1585009287005, -3822.70709546889, -7395.432280949626, -4975.207743073433, -6702.483499346197, -4461.721117701664, -4943.222396757888, -4601.821851947529, -0.02, 0.93, 0.34400000000000003, 192.0, 0.0, 0.0, 0.0, 0.0, 0.0, 0.0, 0.0, 0.0, 0.0, 1.7398203693983624E9, 0.0, 2025-02-17 16:26:09.398
26.0, 3215.8572335073036, -3805.429197004938, -7379.115507497252, -5026.3932378760865, -6687.887810216882, -4445.247882038103, -4925.966850038391, -4585.5050784951545, -0.02, 0.93, 0.34400000000000003, 192.0, 0.0, 0.0, 0.0, 0.0, 0.0, 0.0, 0.0, 0.0, 0.0, 1.7398203693983967E9, 0.0, 2025-02-17 16:26:09.398
27.0, 3215.7678265294826, -3824.13760711403, -7370.063050992853, -4988.641141491073, -6714.66520007434, -4468.538399760532, -4940.763704867805, -4594.222258832724, -0.02, 0.93, 0.34400000000000003, 192.0, 0.0, 0.0, 0.0, 0.0, 0.0, 0.0, 0.0, 0.0, 0.0, 1.7398203693984375E9, 0.0, 2025-02-17 16:26:09.398
28.0, 3216.751303285516, -3853.7983720062225, -7382.714138354557, -4923.30699244821, -6748.2598719906655, -4500.523746076077, -4968.837495903671, -4617.333962599511, -0.02, 0.93, 0.34400000000000003, 192.0, 0.0, 0.0, 0.0, 0.0, 0.0, 0.0, 0.0, 0.0, 0.0, 1.739820369398502E9, 0.0, 2025-02-17 16:26:09.398
29.0, 3218.003000975013, -3833.8382642076335, -7400.37201647425, -4961.863751633615, -6715.782787297105, -4474.014577152083, -4954.130048052079, -4611.366046829945, -0.02, 0.93, 0.34400000000000003, 192.0, 0.0, 0.0, 0.0, 0.0, 0.0, 0.0, 0.0, 0.0, 0.0, 1.7398203693985476E9, 0.0, 2025-02-17 16:26:09.398
30.0, 3215.9242887406695, -3805.138624327019, -7383.094118010297, -5025.007429719857, -6686.770222994116, -4444.3314605154355, -4926.570347138685, -4587.3826250294005, -0.02, 0.93, 0.34400000000000003, 192.0, 0.0, 0.0, 0.0, 0.0, 0.0, 0.0, 0.0, 0.0, 0.0, 1.7398203693985825E9, 0.0, 2025-02-17 16:26:09.398
31.0, 3213.487948595041, -3817.0074006327873, -7367.6490625916795, -4996.665417750528, -6706.32799939251, -4460.894103156817, -4934.348754209132, -4589.170764585825, -0.02, 0.93, 0.34400000000000003, 192.0, 0.0, 0.0, 0.0, 0.0, 0.0, 0.0, 0.0, 0.0, 0.0, 1.7398203693986225E9, 0.0, 2025-02-17 16:26:09.398
32.0, 3214.2702596509766, -3849.015098692787, -7376.455649907071, -4927.64323087254, -6744.057744033068, -4496.0533971850155, -4963.741298167861, -4611.902488696872, -0.026000000000000002, 0.924, 0.35000000000000003, 192.0, 255.0, 48.0, 28.0, 224.0, 10.0, 240.0, 0.0, 0.0, 0.0, 1.7398203693986568E9, 0.0, 2025-02-17 16:26:09.398
33.0, 3213.8902799952366, -3837.325136342661, -7395.32052222735, -4941.523664179285, -6721.437778644297, -4478.88725744334, -4956.432277730975, -4611.209584618758, -0.026000000000000002, 0.924, 0.35000000000000003, 192.0, 0.0, 0.0, 0.0, 0.0, 0.0, 0.0, 0.0, 0.0, 0.0, 1.7398203693986874E9, 0.0, 2025-02-17 16:26:09.398
34.0, 3215.2537364070104, -3805.362141771572, -7385.731623856023, -5019.508900583852, -6686.099670660457, -4443.996184348605, -4927.576175639174, -4588.567267485531, -0.026000000000000002, 0.924, 0.35000000000000003, 192.0, 0.0, 0.0, 0.0, 0.0, 0.0, 0.0, 0.0, 0.0, 0.0, 1.739820369398716E9, 0.0, 2025-02-17 16:26:09.398
35.0, 3216.8630620077925, -3815.912165154477, -7371.31474868235, -5009.271801623321, -6703.75754878015, -4458.636576966832, -4934.102885020124, -4590.400110530867, -0.026000000000000002, 0.924, 0.35000000000000003, 192.0, 0.0, 0.0, 0.0, 0.0, 0.0, 0.0, 0.0, 0.0, 0.0, 1.7398203693987446E9, 0.0, 2025-02-17 16:26:09.398
36.0, 3216.34897188532, -3846.779924247256, -7375.4498214065825, -4940.450780445431, -6741.643755631895, -4493.684112272753, -4961.327309766688, -4610.471977051732, -0.026000000000000002, 0.924, 0.35000000000000003, 192.0, 0.0, 0.0, 0.0, 0.0, 0.0, 0.0, 0.0, 0.0, 0.0, 1.7398203693987737E9, 0.0, 2025-02-17 16:26:09.398
37.0, 3215.2760881514655, -3846.265834124784, -7395.342873971806, -4930.280736718266, -6732.010153771657, -4488.36439709239, -4963.36131851212, -4616.283430610112, -0.026000000000000002, 0.924, 0.35000000000000003, 192.0, 0.0, 0.0, 0.0, 0.0, 0.0, 0.0, 0.0, 0.0, 0.0, 1.7398203693988025E9, 0.0, 2025-02-17 16:26:09.398
38.0, 3215.052570706913, -3808.8713656510554, -7389.978455302532, -5012.199880146966, -6687.932513705792, -4446.5666349609655, -4930.16897799599, -4591.651808220364, -0.026000000000000002, 0.924, 0.35000000000000003, 192.0, 0.0, 0.0, 0.0, 0.0, 0.0, 0.0, 0.0, 0.0, 0.0, 1.7398203693988316E9, 0.0, 2025-02-17 16:26:09.398
39.0, 3215.58901257384, -3811.620630219058, -7372.186466716107, -5016.491415082385, -6698.102557432957, -4453.003937364094, -4929.587832640152, -4587.427328518311, -0.026000000000000002, 0.924, 0.35000000000000003, 192.0, 0.0, 0.0, 0.0, 0.0, 0.0, 0.0, 0.0, 0.0, 0.0, 1.7398203693988905E9, 0.0, 2025-02-17 16:26:09.398
40.0, 3215.298439895921, -3840.566139288681, -7372.521742882936, -4952.498370706841, -6734.692363106295, -4486.88918195834, -4955.046469574746, -4605.711055482752, -0.026000000000000002, 0.924, 0.35000000000000003, 192.0, 0.0, 0.0, 0.0, 0.0, 0.0, 0.0, 0.0, 0.0, 0.0, 1.7398203693989193E9, 0.0, 2025-02-17 16:26:09.398
41.0, 3214.2255561620664, -3850.3785551045607, -7391.297208225395, -4920.02128601328, -6738.961546297258, -4493.974684950672, -4966.088231335668, -4617.848052721984, -0.026000000000000002, 0.924, 0.35000000000000003, 192.0, 0.0, 0.0, 0.0, 0.0, 0.0, 0.0, 0.0, 0.0, 0.0, 1.739820369398953E9, 0.0, 2025-02-17 16:26:09.398
42.0, 3215.8348817628485, -3814.0793221091417, -7394.046472793398, -5002.141595142079, -6692.715787019228, -4451.171094318759, -4934.862844331604, -4596.278619322613, -0.024, 0.928, 0.358, 192.0, 255.0, 64.0, 29.0, 0.0, 11.0, 48.0, 0.0, 0.0, 0.0, 1.739820369398986E9, 0.0, 2025-02-17 16:26:09.398
43.0, 3215.141977684734, -3808.111406339575, -7373.371109172239, -5022.481682596407, -6692.894600974871, -4448.421829750756, -4926.592698883141, -4585.616837217431, -0.024, 0.928, 0.358, 192.0, 0.0, 0.0, 0.0, 0.0, 0.0, 0.0, 0.0, 0.0, 0.0, 1.7398203693990216E9, 0.0, 2025-02-17 16:26:09.399
44.0, 3214.4714253510747, -3833.7041537409013, -7369.750126570479, -4965.149458068545, -6727.115121735946, -4479.0884231434375, -4948.40800147152, -4600.771319958129, -0.024, 0.928, 0.358, 192.0, 0.0, 0.0, 0.0, 0.0, 0.0, 0.0, 0.0, 0.0, 0.0, 1.7398203693990507E9, 0.0, 2025-02-17 16:26:09.399
45.0, 3214.4714253510747, -3854.1112964285967, -7387.810336090367, -4915.506233633308, -6745.309441722566, -4498.89206873084, -4968.010481358824, -4618.742122500196, -0.024, 0.928, 0.358, 192.0, 0.0, 0.0, 0.0, 0.0, 0.0, 0.0, 0.0, 0.0, 0.0, 1.7398203693990853E9, 0.0, 2025-02-17 16:26:09.399
46.0, 3216.393675374231, -3820.807197190189, -7397.555696672881, -4988.574086257707, -6699.577772567007, -4458.435411266734, -4940.3390217231545, -4601.374817058422, -0.024, 0.928, 0.358, 192.0, 0.0, 0.0, 0.0, 0.0, 0.0, 0.0, 0.0, 0.0, 0.0, 1.739820369399119E9, 0.0, 2025-02-17 16:26:09.399
47.0, 3216.326620140865, -3807.5526127281923, -7377.617940618747, -5027.779046032316, -6690.6147230404285, -4446.812504149974, -4925.788036082749, -4586.4438517622775, -0.024, 0.928, 0.358, 192.0, 0.0, 0.0, 0.0, 0.0, 0.0, 0.0, 0.0, 0.0, 0.0, 1.739820369399148E9, 0.0, 2025-02-17 16:26:09.399
48.0, 3215.097274195823, -3829.144397872019, -7369.8395335483, -4979.320464053209, -6720.610764099451, -4473.3887283073345, -4943.423562457987, -4597.105633867459, -0.024, 0.928, 0.358, 192.0, 0.0, 0.0, 0.0, 0.0, 0.0, 0.0, 0.0, 0.0, 0.0, 1.7398203693991766E9, 0.0, 2025-02-17 16:26:09.399
49.0, 3214.4714253510747, -3854.848903995622, -7383.943484299599, -4915.953268522414, -6747.879892334926, -4500.702560031719, -4968.301054036743, -4618.160977144358, -0.024, 0.928, 0.358, 192.0, 0.0, 0.0, 0.0, 0.0, 0.0, 0.0, 0.0, 0.0, 0.0, 1.7398203693992057E9, 0.0, 2025-02-17 16:26:09.399
50.0, 3214.6055358178064, -3825.925746670455, -7397.220420506052, -4970.782097671282, -6705.791557525583, -4464.492734014122, -4944.898777592037, -4604.839337448995, -0.024, 0.928, 0.358, 192.0, 0.0, 0.0, 0.0, 0.0, 0.0, 0.0, 0.0, 0.0, 0.0, 1.739820369399234E9, 0.0, 2025-02-17 16:26:09.399
51.0, 3214.5608323288957, -3804.0210371042535, -7379.137859241708, -5026.594403576184, -6686.256132871644, -4443.146818059304, -4923.619916870584, -4585.080395350504, -0.024, 0.928, 0.358, 192.0, 0.0, 0.0, 0.0, 0.0, 0.0, 0.0, 0.0, 0.0, 0.0, 1.7398203693992631E9, 0.0, 2025-02-17 16:26:09.399
52.0, 3215.946640485125, -3824.0258483917537, -7369.995995759487, -4991.41275780353, -6714.419330885331, -4468.001957893605, -4939.377896711576, -4594.557534999554, -0.016, 0.918, 0.36, 192.0, 255.0, 128.0, 28.0, 176.0, 11.0, 64.0, 0.0, 0.0, 0.0, 1.739820369399292E9, 0.0, 2025-02-17 16:26:09.399
53.0, 3214.359666628798, -3853.4630958393927, -7380.076632508831, -4920.155396480012, -6747.701078379283, -4499.964952464695, -4966.803487158238, -4616.417541076844, -0.016, 0.918, 0.36, 192.0, 0.0, 0.0, 0.0, 0.0, 0.0, 0.0, 0.0, 0.0, 0.0, 1.739820369399323E9, 0.0, 2025-02-17 16:26:09.399
54.0, 3215.9019369962143, -3834.9334996859434, -7399.27678099594, -4955.404097486031, -6716.6768570753175, -4474.707481230197, -4953.571254440696, -4611.634267763408, -0.016, 0.918, 0.36, 192.0, 0.0, 0.0, 0.0, 0.0, 0.0, 0.0, 0.0, 0.0, 0.0, 1.7398203693993514E9, 0.0, 2025-02-17 16:26:09.399
55.0, 3217.1759864301666, -3806.9044121389884, -7385.441051178104, -5027.264955909844, -6687.843106727971, -4445.06906808246, -4927.151492494523, -4589.461337263744, -0.016, 0.918, 0.36, 192.0, 0.0, 0.0, 0.0, 0.0, 0.0, 0.0, 0.0, 0.0, 0.0, 1.7398203693993845E9, 0.0, 2025-02-17 16:26:09.399
56.0, 3216.68424805215, -3820.047237878709, -7371.091231237797, -5003.482699809397, -6708.563173838041, -4462.726946202153, -4936.136893765556, -4592.657636720853, -0.016, 0.918, 0.36, 192.0, 0.0, 0.0, 0.0, 0.0, 0.0, 0.0, 0.0, 0.0, 0.0, 1.7398203693994136E9, 0.0, 2025-02-17 16:26:09.399
57.0, 3215.7007712961163, -3851.138514416041, -7377.774402829934, -4930.88423381856, -6745.912938822858, -4497.819184996985, -4964.300091779243, -4614.227070120224, -0.016, 0.918, 0.36, 192.0, 0.0, 0.0, 0.0, 0.0, 0.0, 0.0, 0.0, 0.0, 0.0, 1.73982036969986E9, 0.0, 2025-02-17 16:26:09.699
58.0, 3216.259564907499, -3842.6895550119348, -7398.248600750995, -4941.12133277909, -6726.355162424465, -4483.514068545588, -4959.69563242145, -4616.238727121202, -0.016, 0.918, 0.36, 192.0, 0.0, 0.0, 0.0, 0.0, 0.0, 0.0, 0.0, 0.0, 0.0, 1.739820369699956E9, 0.0, 2025-02-17 16:26:09.699
59.0, 3218.0477044639238, -3809.3184005401613, -7390.0678622803525, -5023.465159352441, -6688.7371765061835, -4446.901911127796, -4929.677239617973, -4592.992912887682, -0.016, 0.918, 0.36, 192.0, 0.0, 0.0, 0.0, 0.0, 0.0, 0.0, 0.0, 0.0, 0.0, 1.7398203696999965E9, 0.0, 2025-02-17 16:26:09.699
60.0, 3217.555966085907, -3816.6050692325916, -7372.9240742831325, -5014.032723192301, -6703.75754878015, -4458.5024665001, -4933.097056519635, -4591.249476820169, -0.016, 0.918, 0.36, 192.0, 0.0, 0.0, 0.0, 0.0, 0.0, 0.0, 0.0, 0.0, 0.0, 1.7398203697000425E9, 0.0, 2025-02-17 16:26:09.700
61.0, 3218.226518419566, -3848.8362847371445, -7377.439126663105, -4945.479922947875, -6743.633060888417, -4495.65106578482, -4962.042565589258, -4612.707151497263, -0.016, 0.918, 0.36, 192.0, 0.0, 0.0, 0.0, 0.0, 0.0, 0.0, 0.0, 0.0, 0.0, 1.7398203697000785E9, 0.0, 2025-02-17 16:26:09.700
62.0, 3218.360628886298, -3851.4737905828706, -7398.516821684459, -4931.64419313004, -6737.732200352216, -4494.332312861957, -4967.094059836157, -4621.58079404602, -0.016, 0.922, 0.368, 192.0, 255.0, 128.0, 28.0, 208.0, 11.0, 128.0, 0.0, 0.0, 0.0, 1.739820369700137E9, 0.0, 2025-02-17 16:26:09.700
63.0, 3218.0477044639238, -3812.604106975092, -7394.046472793398, -5015.396179604075, -6691.464089329731, -4450.746411174108, -4933.275870475277, -4596.233915833702, -0.016, 0.922, 0.368, 192.0, 0.0, 0.0, 0.0, 0.0, 0.0, 0.0, 0.0, 0.0, 0.0, 1.7398203697001772E9, 0.0, 2025-02-17 16:26:09.700
64.0, 3216.617192818784, -3812.000609874798, -7373.393460916694, -5021.073522695723, -6697.901391732859, -4453.920358886762, -4929.8337018291595, -4588.85784016345, -0.016, 0.922, 0.368, 192.0, 0.0, 0.0, 0.0, 0.0, 0.0, 0.0, 0.0, 0.0, 0.0, 1.739820369700214E9, 0.0, 2025-02-17 16:26:09.700
65.0, 3216.393675374231, -3840.968470688876, -7373.035833005409, -4957.259292275821, -6734.75941833966, -4487.649141269821, -4954.755896896827, -4607.096863638981, -0.016, 0.922, 0.368, 192.0, 0.0, 0.0, 0.0, 0.0, 0.0, 0.0, 0.0, 0.0, 0.0, 1.7398203697002501E9, 0.0, 2025-02-17 16:26:09.700
66.0, 3215.812530018393, -3853.396040606027, -7392.303036725883, -4920.758893580305, -6742.314307965554, -4497.439205341245, -4968.099888336646, -4621.200814390279, -0.016, 0.922, 0.368, 192.0, 0.0, 0.0, 0.0, 0.0, 0.0, 0.0, 0.0, 0.0, 0.0, 1.7398203697002852E9, 0.0, 2025-02-17 16:26:09.700
67.0, 3217.287745152443, -3816.6050692325916, -7396.214592005563, -5002.476871308908, -6694.906257975848, -4453.607434464388, -4936.8745013325815, -4599.989008902194, -0.016, 0.922, 0.368, 192.0, 0.0, 0.0, 0.0, 0.0, 0.0, 0.0, 0.0, 0.0, 0.0, 1.7398203697003195E9, 0.0, 2025-02-17 16:26:09.700
69.0, 3216.1701579296778, -3835.268775852773, -7371.091231237797, -4970.469173248908, -6727.405694413865, -4480.273065599569, -4949.145609038545, -4602.090072880992, -0.016, 0.922, 0.368, 192.0, 0.0, 0.0, 0.0, 0.0, 0.0, 0.0, 0.0, 0.0, 0.0, 1.7398203697003548E9, 0.0, 2025-02-17 16:26:09.700
70.0, 3215.4996055960187, -3856.52528482977, -7387.966798301554, -4916.73557957835, -6747.119933023445, -4500.769615265085, -4969.955083126436, -4620.887889967906, -0.016, 0.922, 0.368, 192.0, 0.0, 0.0, 0.0, 0.0, 0.0, 0.0, 0.0, 0.0, 0.0, 1.7398203697003992E9, 0.0, 2025-02-17 16:26:09.700
71.0, 3218.1818149306555, -3824.294069325217, -7399.366187973761, -4988.84230719117, -6702.572906324018, -4460.983510134639, -4943.848245602638, -4604.951096171271, -0.016, 0.922, 0.368, 192.0, 0.0, 0.0, 0.0, 0.0, 0.0, 0.0, 0.0, 0.0, 0.0, 1.7398203697004447E9, 0.0, 2025-02-17 16:26:09.700
72.0, 3217.332448641354, -3808.2902202952173, -7378.7355278415125, -5030.595365833684, -6690.882943973893, -4446.656041938787, -4926.860919816604, -4587.76260468514, -0.016, 0.926, 0.366, 192.0, 255.0, 128.0, 28.0, 240.0, 11.0, 112.0, 0.0, 0.0, 0.0, 1.7398203697004795E9, 0.0, 2025-02-17 16:26:09.700
73.0, 3216.706599796605, -3829.882005439044, -7370.7559550709675, -4984.237847833378, -6721.035447244102, -4473.232266096147, -4944.2729287472885, -4598.200869345769, -0.016, 0.926, 0.366, 192.0, 0.0, 0.0, 0.0, 0.0, 0.0, 0.0, 0.0, 0.0, 0.0, 1.7398203697005267E9, 0.0, 2025-02-17 16:26:09.700
74.0, 3217.712428297094, -3858.9616249753985, -7386.111603511764, -4920.200099968923, -6751.947909825792, -4504.122376933382, -4971.7432226828605, -4621.357276601467, -0.016, 0.926, 0.366, 192.0, 0.0, 0.0, 0.0, 0.0, 0.0, 0.0, 0.0, 0.0, 0.0, 1.7398203697005625E9, 0.0, 2025-02-17 16:26:09.700
75.0, 3217.287745152443, -3830.843130450622, -7399.992036818509, -4971.296187793754, -6710.306609905554, -4468.739565460631, -4948.720925893895, -4608.683837495308, -0.016, 0.926, 0.366, 192.0, 0.0, 0.0, 0.0, 0.0, 0.0, 0.0, 0.0, 0.0, 0.0, 1.7398203697006044E9, 0.0, 2025-02-17 16:26:09.700
76.0, 3216.9301172411583, -3807.105577839086, -7381.976530787531, -5030.7965315337815, -6688.021920683614, -4444.487922726622, -4925.49746340483, -4587.67319770732, -0.016, 0.926, 0.366, 192.0, 0.0, 0.0, 0.0, 0.0, 0.0, 0.0, 0.0, 0.0, 0.0, 1.7398203697006402E9, 0.0, 2025-02-17 16:26:09.700
77.0, 3215.387846873742, -3823.42235129146, -7369.548960870381, -4995.301961338754, -6712.1841564398, -4465.275045070058, -4938.081495533168, -4593.708168710252, -0.016, 0.926, 0.366, 192.0, 0.0, 0.0, 0.0, 0.0, 0.0, 0.0, 0.0, 0.0, 0.0, 1.7398203697006876E9, 0.0, 2025-02-17 16:26:09.700
78.0, 3213.040913705935, -3852.457267338904, -7377.8414580633, -4922.010591269803, -6746.359973711965, -4497.483908830155, -4965.149458068545, -4614.24942186468, -0.016, 0.926, 0.366, 192.0, 0.0, 0.0, 0.0, 0.0, 0.0, 0.0, 0.0, 0.0, 0.0, 1.739820369700726E9, 0.0, 2025-02-17 16:26:09.700
79.0, 3212.124492183267, -3833.726505485357, -7394.784080360423, -4950.509065450319, -6714.508737863152, -4472.293492829024, -4950.777286383783, -4608.4379683063, -0.016, 0.926, 0.366, 192.0, 0.0, 0.0, 0.0, 0.0, 0.0, 0.0, 0.0, 0.0, 0.0, 1.73982036970077E9, 0.0, 2025-02-17 16:26:09.700
80.0, 3210.8951462382256, -3801.808214403178, -7379.271969708439, -5022.504034340863, -6680.668196757817, -4438.363544745868, -4920.781245324761, -4583.471069749721, -0.016, 0.926, 0.366, 192.0, 0.0, 0.0, 0.0, 0.0, 0.0, 0.0, 0.0, 0.0, 0.0, 1.7398203697008076E9, 0.0, 2025-02-17 16:26:09.700
81.0, 3212.191547416633, -3815.1298540985413, -7366.17384745763, -5002.9686096869245, -6702.304685390554, -4456.848437410407, -4930.034867529258, -4587.226162818213, -0.016, 0.926, 0.366, 192.0, 0.0, 0.0, 0.0, 0.0, 0.0, 0.0, 0.0, 0.0, 0.0, 1.739820369700845E9, 0.0, 2025-02-17 16:26:09.700
82.0, 3211.6998090386164, -3846.757572502801, -7372.588798116303, -4930.504254162819, -6740.950851553781, -4493.08061517246, -4958.488638220863, -4609.3990933178775, -0.024, 0.93, 0.358, 192.0, 255.0, 64.0, 29.0, 16.0, 11.0, 48.0, 0.0, 0.0, 0.0, 1.7398203697008815E9, 0.0, 2025-02-17 16:26:09.700
83.0, 3211.6774572941613, -3840.0296974217536, -7393.040644292909, -4935.533396665263, -6723.1365112229005, -4480.630693510854, -4955.180580041478, -4612.3942270748885, -0.024, 0.93, 0.358, 192.0, 0.0, 0.0, 0.0, 0.0, 0.0, 0.0, 0.0, 0.0, 0.0, 1.7398203697009225E9, 0.0, 2025-02-17 16:26:09.700
84.0, 3212.124492183267, -3804.0880923376194, -7384.479926166526, -5017.8772232386145, -6682.143411891868, -4441.246919780603, -4923.329344192665, -4587.494383751677, -0.024, 0.93, 0.358, 192.0, 0.0, 0.0, 0.0, 0.0, 0.0, 0.0, 0.0, 0.0, 0.0, 1.7398203697009685E9, 0.0, 2025-02-17 16:26:09.700
85.0, 3212.035085205446, -3810.5700982296585, -7367.134972469208, -5011.618734791128, -6696.157955665345, -4452.042812352516, -4926.25742271631, -4585.370968028423, -0.024, 0.93, 0.358, 192.0, 0.0, 0.0, 0.0, 0.0, 0.0, 0.0, 0.0, 0.0, 0.0, 1.7398203697010057E9, 0.0, 2025-02-17 16:26:09.701
86.0, 3212.0127334609906, -3841.95194744491, -7370.018347503942, -4942.64125140205, -6735.3405636954985, -4488.252638370113, -4954.040641074257, -4606.001628160671, -0.024, 0.93, 0.358, 192.0, 0.0, 0.0, 0.0, 0.0, 0.0, 0.0, 0.0, 0.0, 0.0, 1.7398203697010431E9, 0.0, 2025-02-17 16:26:09.701
87.0, 3215.6113643182953, -3850.2891481267393, -7394.381748960227, -4927.419713427987, -6736.033467773613, -4492.857097727907, -4964.590664457162, -4619.3903230894, -0.024, 0.93, 0.358, 192.0, 0.0, 0.0, 0.0, 0.0, 0.0, 0.0, 0.0, 0.0, 0.0, 1.7398203697010884E9, 0.0, 2025-02-17 16:26:09.701
88.0, 3216.371323629776, -3812.0229616192537, -7392.370091959249, -5013.004542947358, -6689.184211395289, -4448.69005068422, -4931.264213474299, -4594.535183255099, -0.024, 0.93, 0.358, 192.0, 0.0, 0.0, 0.0, 0.0, 0.0, 0.0, 0.0, 0.0, 0.0, 1.739820369701125E9, 0.0, 2025-02-17 16:26:09.701
89.0, 3215.723123040572, -3810.8383191631224, -7372.141763227197, -5023.062827952245, -6694.772147509116, -4450.858169896384, -4926.860919816604, -4586.399148273367, -0.024, 0.93, 0.358, 192.0, 0.0, 0.0, 0.0, 0.0, 0.0, 0.0, 0.0, 0.0, 0.0, 1.7398203697011678E9, 0.0, 2025-02-17 16:26:09.701
90.0, 3216.013695718491, -3840.208511377396, -7371.627673104725, -4960.187370799466, -6732.926575294326, -4485.4810220576555, -4952.45366721793, -4604.727578726719, -0.024, 0.93, 0.358, 192.0, 0.0, 0.0, 0.0, 0.0, 0.0, 0.0, 0.0, 0.0, 0.0, 1.7398203697012937E9, 0.0, 2025-02-17 16:26:09.701
91.0, 3214.6278875622615, -3854.3124621286947, -7390.22432449154, -4917.987277267847, -6742.76134285466, -4497.640371041342, -4967.474039491897, -4619.591488789498, -0.024, 0.93, 0.358, 192.0, 0.0, 0.0, 0.0, 0.0, 0.0, 0.0, 0.0, 0.0, 0.0, 1.7398203697013955E9, 0.0, 2025-02-17 16:26:09.701
92.0, 3215.9019369962143, -3816.716827954868, -7395.231115249529, -4998.98999917388, -6693.9004294753595, -4453.339213530924, -4935.913376321003, -4598.62555249042, -0.024, 0.928, 0.364, 192.0, 255.0, 64.0, 29.0, 0.0, 11.0, 96.0, 0.0, 0.0, 0.0, 1.739820369701434E9, 0.0, 2025-02-17 16:26:09.701
93.0, 3215.946640485125, -3808.3125720396724, -7375.047490006386, -5028.136673943601, -6691.531144563097, -4447.63951869482, -4925.385704682553, -4586.399148273367, -0.024, 0.928, 0.364, 192.0, 0.0, 0.0, 0.0, 0.0, 0.0, 0.0, 0.0, 0.0, 0.0, 1.739820369701485E9, 0.0, 2025-02-17 16:26:09.701
94.0, 3215.4772538515635, -3833.815912463178, -7370.420678904138, -4972.927865138992, -6725.505796135163, -4478.328463831957, -4947.111600293112, -4600.234878091202, -0.024, 0.928, 0.364, 192.0, 0.0, 0.0, 0.0, 0.0, 0.0, 0.0, 0.0, 0.0, 0.0, 1.7398203697015197E9, 0.0, 2025-02-17 16:26:09.701
95.0, 3215.2537364070104, -3857.262892396795, -7387.497411667992, -4915.506233633308, -6748.52809292413, -4501.775443765574, -4970.5138767378185, -4620.463206823255, -0.024, 0.928, 0.364, 192.0, 0.0, 0.0, 0.0, 0.0, 0.0, 0.0, 0.0, 0.0, 0.0, 1.7398203697015648E9, 0.0, 2025-02-17 16:26:09.701
96.0, 3216.1254544407675, -3823.7352757138347, -7398.583876917824, -4983.857868177637, -6701.969409223725, -4460.625882223354, -4942.775361868783, -4603.744101970685, -0.024, 0.928, 0.364, 192.0, 0.0, 0.0, 0.0, 0.0, 0.0, 0.0, 0.0, 0.0, 0.0, 1.7398203697015998E9, 0.0, 2025-02-17 16:26:09.701
97.0, 3217.3771521302647, -3807.37379877255, -7379.719004597546, -5032.85289202367, -6689.295970117566, -4446.030193094039, -4926.25742271631, -4587.628494218408, -0.024, 0.928, 0.364, 192.0, 0.0, 0.0, 0.0, 0.0, 0.0, 0.0, 0.0, 0.0, 0.0, 1.739820369701635E9, 0.0, 2025-02-17 16:26:09.701
98.0, 3216.8854137522476, -3828.8314734496444, -7370.733603326512, -4988.03764439078, -6719.3143629210435, -4472.852286440407, -4943.3341554801655, -4598.156165856858, -0.024, 0.928, 0.364, 192.0, 0.0, 0.0, 0.0, 0.0, 0.0, 0.0, 0.0, 0.0, 0.0, 1.7398203697016706E9, 0.0, 2025-02-17 16:26:09.701
99.0, 3213.2644311504882, -3855.2512353958173, -7380.925998798132, -4915.953268522414, -6748.1928167573, -4500.948429220728, -4967.474039491897, -4617.57983178852, -0.024, 0.928, 0.364, 192.0, 0.0, 0.0, 0.0, 0.0, 0.0, 0.0, 0.0, 0.0, 0.0, 1.7398203697017055E9, 0.0, 2025-02-17 16:26:09.701
100.0, 3210.8951462382256, -3826.2833745817397, -7394.0017693044865, -4961.9978621003465, -6705.389226125387, -4464.224513080659, -4944.116466536101, -4604.10172988197, -0.024, 0.928, 0.364, 192.0, 0.0, 0.0, 0.0, 0.0, 0.0, 0.0, 0.0, 0.0, 0.0, 1.7398203697017407E9, 0.0, 2025-02-17 16:26:09.701
101.0, 3213.2420794060326, -3802.6352289480246, -7378.780231330423, -5028.673115810528, -6682.769260736616, -4440.755181402586, -4921.764722080794, -4584.700415694763, -0.024, 0.928, 0.364, 192.0, 0.0, 0.0, 0.0, 0.0, 0.0, 0.0, 0.0, 0.0, 0.0, 1.739820369701781E9, 0.0, 2025-02-17 16:26:09.701
102.0, 3215.58901257384, -3821.8577291795887, -7369.057222492364, -4998.475909051408, -6711.0442174725795, -4465.744431703619, -4937.187425754956, -4593.775223943619, -0.026000000000000002, 0.92, 0.366, 192.0, 255.0, 48.0, 28.0, 192.0, 11.0, 112.0, 0.0, 0.0, 0.0, 1.7398203697018273E9, 0.0, 2025-02-17 16:26:09.701
103.0, 3216.5501375854183, -3855.7653255182895, -7380.188391231107, -4925.966850038391, -6750.04801154709, -4502.803624010518, -4968.055184847735, -4618.518605055643, -0.026000000000000002, 0.92, 0.366, 192.0, 0.0, 0.0, 0.0, 0.0, 0.0, 0.0, 0.0, 0.0, 0.0, 1.7398203697018814E9, 0.0, 2025-02-17 16:26:09.701
104.0, 3214.5161288399854, -3837.749819487312, -7397.622751906247, -4949.033850316268, -6718.733217565205, -4477.41204230929, -4954.174751540989, -4612.86361370845, -0.026000000000000002, 0.92, 0.366, 192.0, 0.0, 0.0, 0.0, 0.0, 0.0, 0.0, 0.0, 0.0, 0.0, 1.7398203697019217E9, 0.0, 2025-02-17 16:26:09.701
105.0, 3213.39854161722, -3803.529298726237, -7382.825897076834, -5025.320354142232, -6682.299874103055, -4440.866940124863, -4922.390570925542, -4586.555610484554, -0.026000000000000002, 0.92, 0.366, 192.0, 0.0, 0.0, 0.0, 0.0, 0.0, 0.0, 0.0, 0.0, 0.0, 1.7398203697019897E9, 0.0, 2025-02-17 16:26:09.701
106.0, 3214.2926113954322, -3815.889813410022, -7368.073745736331, -5007.70717951145, -6702.9975894686695, -4458.144838588815, -4930.794826840738, -4589.684854708297, -0.026000000000000002, 0.92, 0.366, 192.0, 0.0, 0.0, 0.0, 0.0, 0.0, 0.0, 0.0, 0.0, 0.0, 1.7398203697020314E9, 0.0, 2025-02-17 16:26:09.702
107.0, 3212.236250905544, -3846.9587382028985, -7371.895894038188, -4932.046524530235, -6741.196720742789, -4494.131147161859, -4958.823914387693, -4610.740197985197, -0.026000000000000002, 0.92, 0.366, 192.0, 0.0, 0.0, 0.0, 0.0, 0.0, 0.0, 0.0, 0.0, 0.0, 1.739820369702067E9, 0.0, 2025-02-17 16:26:09.702
108.0, 3213.689114295139, -3843.918900956977, -7394.828783849333, -4933.678201875473, -6727.8303775585155, -4485.011635424094, -4958.890969621059, -4616.171671887836, -0.026000000000000002, 0.92, 0.366, 192.0, 0.0, 0.0, 0.0, 0.0, 0.0, 0.0, 0.0, 0.0, 0.0, 1.7398203697020977E9, 0.0, 2025-02-17 16:26:09.702
109.0, 3215.6113643182953, -3808.13375808403, -7389.352606457783, -5021.341743629187, -6685.898504960359, -4444.465570982167, -4926.503291905319, -4591.182421586803, -0.026000000000000002, 0.92, 0.366, 192.0, 0.0, 0.0, 0.0, 0.0, 0.0, 0.0, 0.0, 0.0, 0.0, 1.7398203697021446E9, 0.0, 2025-02-17 16:26:09.702
110.0, 3216.1701579296778, -3814.258136064784, -7371.627673104725, -5018.972458716924, -6699.577772567007, -4454.747373431608, -4928.827873328671, -4588.455508763255, -0.026000000000000002, 0.92, 0.366, 192.0, 0.0, 0.0, 0.0, 0.0, 0.0, 0.0, 0.0, 0.0, 0.0, 1.7398203697022E9, 0.0, 2025-02-17 16:26:09.702
111.0, 3214.404370117709, -3844.298880612717, -7372.275873693929, -4947.715097393406, -6737.754552096671, -4489.616094781887, -4955.404097486031, -4607.275677594624, -0.026000000000000002, 0.92, 0.366, 192.0, 0.0, 0.0, 0.0, 0.0, 0.0, 0.0, 0.0, 0.0, 0.0, 1.7398203697022376E9, 0.0, 2025-02-17 16:26:09.702
112.0, 3215.2537364070104, -3851.8984737275214, -7394.22528674904, -4924.893966304537, -6738.067476519046, -4493.818222739485, -4965.171809813, -4619.636192278408, -0.034, 0.912, 0.37, 192.0, 254.0, 240.0, 28.0, 128.0, 11.0, 144.0, 0.0, 0.0, 0.0, 1.739820369702273E9, 0.0, 2025-02-17 16:26:09.702
113.0, 3215.9913439740353, -3812.1794238304406, -7393.264161737462, -5011.976362702413, -6689.340673606476, -4448.35477451739, -4930.727771607372, -4594.982218144205, -0.034, 0.912, 0.37, 192.0, 0.0, 0.0, 0.0, 0.0, 0.0, 0.0, 0.0, 0.0, 0.0, 1.7398203697023132E9, 0.0, 2025-02-17 16:26:09.702
114.0, 3216.661896307695, -3810.391284274016, -7373.684033594613, -5027.37671463212, -6694.995664953669, -4450.746411174108, -4926.413884927498, -4587.404976773855, -0.034, 0.912, 0.37, 192.0, 0.0, 0.0, 0.0, 0.0, 0.0, 0.0, 0.0, 0.0, 0.0, 1.7398203697023573E9, 0.0, 2025-02-17 16:26:09.702
115.0, 3214.8514050068147, -3837.4815985538485, -7370.5771411153255, -4962.802524900738, -6730.937270037803, -4483.290551101035, -4949.972623583391, -4603.498232781677, -0.034, 0.912, 0.37, 192.0, 0.0, 0.0, 0.0, 0.0, 0.0, 0.0, 0.0, 0.0, 0.0, 1.7398203697023988E9, 0.0, 2025-02-17 16:26:09.702
116.0, 3214.426721862164, -3854.603034806614, -7389.799641346889, -4917.406131912009, -6744.169502755345, -4498.310923375002, -4967.429336002986, -4620.574965545531, -0.034, 0.912, 0.37, 192.0, 0.0, 0.0, 0.0, 0.0, 0.0, 0.0, 0.0, 0.0, 0.0, 1.739820369702434E9, 0.0, 2025-02-17 16:26:09.702
117.0, 3216.1701579296778, -3817.722656455357, -7396.773385616945, -4998.565316029229, -6695.0180166981245, -4454.210931564681, -4936.360411210109, -4600.391340302389, -0.034, 0.912, 0.37, 192.0, 0.0, 0.0, 0.0, 0.0, 0.0, 0.0, 0.0, 0.0, 0.0, 1.739820369702469E9, 0.0, 2025-02-17 16:26:09.702
118.0, 3215.2760881514655, -3806.591487716614, -7374.9804347730205, -5030.6177175781395, -6689.631246284395, -4445.829027393941, -4923.172881981478, -4585.862706406439, -0.034, 0.912, 0.37, 192.0, 0.0, 0.0, 0.0, 0.0, 0.0, 0.0, 0.0, 0.0, 0.0, 1.7398203697025049E9, 0.0, 2025-02-17 16:26:09.702
119.0, 3213.979686973058, -3830.7984269617114, -7368.341966669795, -4975.632426218084, -6722.644772844884, -4474.9757021636615, -4942.998879313335, -4598.580849001509, -0.034, 0.912, 0.37, 192.0, 0.0, 0.0, 0.0, 0.0, 0.0, 0.0, 0.0, 0.0, 0.0, 1.739820369702534E9, 0.0, 2025-02-17 16:26:09.702
120.0, 3213.39854161722, -3855.3182906291836, -7384.502277910981, -4914.5674603661855, -6747.119933023445, -4500.166118164792, -4967.049356347246, -4619.2562126226685, -0.034, 0.912, 0.37, 192.0, 0.0, 0.0, 0.0, 0.0, 0.0, 0.0, 0.0, 0.0, 0.0, 1.739820369702568E9, 0.0, 2025-02-17 16:26:09.702
121.0, 3215.723123040572, -3823.75762745829, -7398.181545517629, -4982.047376876757, -6702.595258068473, -4460.938806645729, -4941.970699068392, -4604.4370060488, -0.034, 0.912, 0.37, 192.0, 0.0, 0.0, 0.0, 0.0, 0.0, 0.0, 0.0, 0.0, 0.0, 1.739820369702597E9, 0.0, 2025-02-17 16:26:09.702
122.0, 3217.9582974861023, -3806.882060394533, -7380.635426120213, -5035.423342636031, -6688.960693950737, -4445.136123315826, -4924.938669793448, -4588.053177363059, -0.032, 0.914, 0.378, 192.0, 255.0, 0.0, 28.0, 144.0, 11.0, 208.0, 0.0, 0.0, 0.0, 1.7398203697026312E9, 0.0, 2025-02-17 16:26:09.702
123.0, 3215.2313846625552, -3825.7469327148124, -7368.74429806999, -4989.535211269285, -6716.118063463934, -4468.896027671817, -4938.997917055835, -4595.138680355391, -0.032, 0.914, 0.378, 192.0, 0.0, 0.0, 0.0, 0.0, 0.0, 0.0, 0.0, 0.0, 0.0, 1.7398203697026625E9, 0.0, 2025-02-17 16:26:09.702
124.0, 3214.3149631398874, -3855.7653255182895, -7381.149516242685, -4918.568422623685, -6748.908072579869, -4500.769615265085, -4966.758783669327, -4617.401017832878, -0.032, 0.914, 0.378, 192.0, 0.0, 0.0, 0.0, 0.0, 0.0, 0.0, 0.0, 0.0, 0.0, 1.7398203697026973E9, 0.0, 2025-02-17 16:26:09.702
125.0, 3214.784349773449, -3831.6030897621026, -7398.114490284263, -4963.674242934495, -6710.887755261392, -4468.247827082614, -4947.603338671129, -4607.678008994819, -0.032, 0.914, 0.378, 192.0, 0.0, 0.0, 0.0, 0.0, 0.0, 0.0, 0.0, 0.0, 0.0, 1.7398203697027342E9, 0.0, 2025-02-17 16:26:09.702
126.0, 3213.9573352286025, -3803.4175400039603, -7380.188391231107, -5029.90246175557, -6683.126888647901, -4439.458780224179, -4920.535376135752, -4584.0969185944705, -0.032, 0.914, 0.378, 192.0, 0.0, 0.0, 0.0, 0.0, 0.0, 0.0, 0.0, 0.0, 0.0, 1.7398203697028415E9, 0.0, 2025-02-17 16:26:09.702
127.0, 3213.487948595041, -3819.3766855450494, -7367.090268980297, -4998.967647429425, -6707.46793835973, -4460.491771756622, -4932.046524530235, -4589.506040752654, -0.032, 0.914, 0.378, 192.0, 0.0, 0.0, 0.0, 0.0, 0.0, 0.0, 0.0, 0.0, 0.0, 1.7398203697028804E9, 0.0, 2025-02-17 16:26:09.702
128.0, 3213.197375917122, -3852.5690260611805, -7376.276835951428, -4924.513986648797, -6745.935290567314, -4496.880411729862, -4961.908455122525, -4612.885965452906, -0.032, 0.914, 0.378, 192.0, 0.0, 0.0, 0.0, 0.0, 0.0, 0.0, 0.0, 0.0, 0.0, 1.739820369702932E9, 0.0, 2025-02-17 16:26:09.702
129.0, 3215.946640485125, -3840.588491033136, -7398.673283895646, -4948.095077049145, -6721.795406555582, -4478.596684765421, -4954.711193407917, -4613.310648597557, -0.032, 0.914, 0.378, 192.0, 0.0, 0.0, 0.0, 0.0, 0.0, 0.0, 0.0, 0.0, 0.0, 1.7398203697029672E9, 0.0, 2025-02-17 16:26:09.702
130.0, 3215.5666608293845, -3805.5633074716698, -7385.1951819890955, -5027.264955909844, -6684.0433101705685, -4441.336326758424, -4922.770550581283, -4587.427328518311, -0.032, 0.914, 0.378, 192.0, 0.0, 0.0, 0.0, 0.0, 0.0, 0.0, 0.0, 0.0, 0.0, 1.739820369703003E9, 0.0, 2025-02-17 16:26:09.703
131.0, 3217.2430416635325, -3817.94617389991, -7370.867713793245, -5012.7139702694385, -6704.785729025094, -4458.703632200198, -4931.398323941031, -4590.266000064135, -0.032, 0.914, 0.378, 192.0, 0.0, 0.0, 0.0, 0.0, 0.0, 0.0, 0.0, 0.0, 0.0, 1.739820369703032E9, 0.0, 2025-02-17 16:26:09.703
132.0, 3217.6006695748174, -3851.5184940717813, -7376.947388285088, -4939.824931600682, -6746.337621967509, -4497.08157742996, -4962.310786522721, -4613.3330003420115, -0.024, 0.914, 0.376, 192.0, 255.0, 64.0, 28.0, 144.0, 11.0, 192.0, 0.0, 0.0, 0.0, 1.7398203697030616E9, 0.0, 2025-02-17 16:26:09.703
133.0, 3217.1759864301666, -3848.724526014868, -7398.047435050898, -4935.086361776157, -6733.239499716699, -4489.146708148326, -4962.891931878559, -4619.278564367123, -0.024, 0.914, 0.376, 192.0, 0.0, 0.0, 0.0, 0.0, 0.0, 0.0, 0.0, 0.0, 0.0, 1.7398203697030933E9, 0.0, 2025-02-17 16:26:09.703
134.0, 3217.1536346857115, -3809.6089732180803, -7391.207801247573, -5021.431150607008, -6687.7984032390605, -4445.694916927208, -4927.956155294914, -4592.791747187584, -0.024, 0.914, 0.376, 192.0, 0.0, 0.0, 0.0, 0.0, 0.0, 0.0, 0.0, 0.0, 0.0, 1.7398203701684184E9, 0.0, 2025-02-17 16:26:10.168
135.0, 3215.4772538515635, -3812.2241273193513, -7370.778306815423, -5019.441845350486, -6697.94609522177, -4452.601605963899, -4927.017382027791, -4586.600313973465, -0.024, 0.914, 0.376, 192.0, 0.0, 0.0, 0.0, 0.0, 0.0, 0.0, 0.0, 0.0, 0.0, 1.7398203701684904E9, 0.0, 2025-02-17 16:26:10.168
136.0, 3213.77852127296, -3841.95194744491, -7370.5771411153255, -4948.653870660529, -6736.4581509182635, -4487.582086036455, -4953.258330018321, -4604.928744426817, -0.024, 0.914, 0.376, 192.0, 0.0, 0.0, 0.0, 0.0, 0.0, 0.0, 0.0, 0.0, 0.0, 1.739820370168559E9, 0.0, 2025-02-17 16:26:10.168
137.0, 3213.8008730174156, -3850.8255899936667, -7391.856001836777, -4920.624783113573, -6738.536863152607, -4493.0582634280045, -4963.920112123503, -4617.736293999707, -0.024, 0.914, 0.376, 192.0, 0.0, 0.0, 0.0, 0.0, 0.0, 0.0, 0.0, 0.0, 0.0, 1.7398203701686852E9, 0.0, 2025-02-17 16:26:10.168
138.0, 3214.2702596509766, -3810.4583395073823, -7391.878353581233, -5007.260144622343, -6688.334845105987, -4446.812504149974, -4929.297259962233, -4593.1940785877805, -0.024, 0.914, 0.376, 192.0, 0.0, 0.0, 0.0, 0.0, 0.0, 0.0, 0.0, 0.0, 0.0, 1.739820370168724E9, 0.0, 2025-02-17 16:26:10.168
139.0, 3215.2760881514655, -3807.9996476172983, -7371.806487060367, -5026.057961709257, -6692.581676552496, -4447.9747948616505, -4924.245765715333, -4585.14745058387, -0.024, 0.914, 0.376, 192.0, 0.0, 0.0, 0.0, 0.0, 0.0, 0.0, 0.0, 0.0, 0.0, 1.7398203701687696E9, 0.0, 2025-02-17 16:26:10.168
140.0, 3214.5831840733513, -3835.8946246975215, -7368.543132369892, -4964.188333056967, -6728.90326129237, -4481.234190611147, -4948.385649727064, -4602.537107770098, -0.024, 0.914, 0.376, 192.0, 0.0, 0.0, 0.0, 0.0, 0.0, 0.0, 0.0, 0.0, 0.0, 1.7398203701688192E9, 0.0, 2025-02-17 16:26:10.168
141.0, 3215.8795852517587, -3856.0782499406637, -7388.9502750575875, -4917.4508354009195, -6746.337621967509, -4501.2166501541915, -4968.904551137037, -4622.63132603542, -0.024, 0.914, 0.376, 192.0, 0.0, 0.0, 0.0, 0.0, 0.0, 0.0, 0.0, 0.0, 0.0, 1.7398203701688786E9, 0.0, 2025-02-17 16:26:10.168
142.0, 3215.2090329180996, -3817.0297523772424, -7394.851135593789, -4994.564353771729, -6694.973313209214, -4454.635614709332, -4935.868672832093, -4599.966657157738, -0.016, 0.922, 0.376, 192.0, 255.0, 128.0, 28.0, 208.0, 11.0, 192.0, 0.0, 0.0, 0.0, 1.7398203701689148E9, 0.0, 2025-02-17 16:26:10.168
143.0, 3215.6337160627504, -3805.406845260483, -7374.399289417182, -5031.467083867441, -6689.072452673013, -4445.247882038103, -4923.217585470389, -4584.968636628227, -0.016, 0.922, 0.376, 192.0, 0.0, 0.0, 0.0, 0.0, 0.0, 0.0, 0.0, 0.0, 0.0, 1.739820370168955E9, 0.0, 2025-02-17 16:26:10.168
144.0, 3213.979686973058, -3828.4514937939043, -7366.710289324557, -4977.711138452428, -6721.169557710834, -4473.902818429807, -4942.55184442423, -4596.792709445084, -0.016, 0.922, 0.376, 192.0, 0.0, 0.0, 0.0, 0.0, 0.0, 0.0, 0.0, 0.0, 0.0, 1.7398203701689916E9, 0.0, 2025-02-17 16:26:10.168
145.0, 3212.973858472569, -3853.977185961865, -7382.043586020897, -4913.6286870990625, -6747.701078379283, -4500.2778768870685, -4966.915245880514, -4618.138625399903, -0.016, 0.922, 0.376, 192.0, 0.0, 0.0, 0.0, 0.0, 0.0, 0.0, 0.0, 0.0, 0.0, 1.7398203701690314E9, 0.0, 2025-02-17 16:26:10.169
