%OpenBCI Raw EXG Data
%Number of channels = 8
%Sample Rate = 250 Hz
%Board = OpenBCI_GUI$BoardCytonSerial
Sample Index, EXG Channel 0, EXG Channel 1, EXG Channel 2, EXG Channel 3, EXG Channel 4, EXG Channel 5, EXG Channel 6, EXG Channel 7, Accel Channel 0, Accel Channel 1, Accel Channel 2, Not Used, Digital Channel 0 (D11), Digital Channel 1 (D12), Digital Channel 2 (D13), Digital Channel 3 (D17), Not Used, Digital Channel 4 (D18), Analog Channel 0, Analog Channel 1, Analog Channel 2, Timestamp, Marker Channel, Timestamp (Formatted)
0.0, 0.0, 0.0, 0.0, 0.0, 0.0, 0.0, 0.0, 0.0, 0.164, 0.6940000000000001, 0.678, 192.0, 5.0, 32.0, 21.0, 176.0, 21.0, 48.0, 0.0, 0.0, 0.0, 1.7426791092076304E9, 0.0, 2025-03-22 18:31:49.207
1.0, -3894.5008986593366, -5672.626873567924, -9605.66217966821, -10682.122192635798, -8760.430963090774, -8009.144128458993, -9910.651732760874, -9422.601392579245, 0.164, 0.6940000000000001, 0.678, 192.0, 0.0, 0.0, 0.0, 0.0, 0.0, 0.0, 0.0, 0.0, 0.0, 1.742679109686351E9, 0.0, 2025-03-22 18:31:49.686
2.0, -4385.3452068978795, -5715.408112455382, -9622.850671154341, -10721.796539043968, -8679.092965017911, -8046.940928332917, -9873.436078242788, -9415.00179946444, 0.164, 0.6940000000000001, 0.678, 192.0, 0.0, 0.0, 0.0, 0.0, 0.0, 0.0, 0.0, 0.0, 0.0, 1.7426791096865065E9, 0.0, 2025-03-22 18:31:49.686
3.0, -4673.7274138602515, -5736.731676665745, -9647.415238310723, -10754.832417348913, -8650.728601304127, -8146.0485632477485, -9876.498267233166, -9423.048427468351, 0.164, 0.6940000000000001, 0.678, 192.0, 0.0, 0.0, 0.0, 0.0, 0.0, 0.0, 0.0, 0.0, 0.0, 1.7426791096865323E9, 0.0, 2025-03-22 18:31:49.686
4.0, -4106.037808184363, -5685.412071396359, -9628.729179946087, -10720.813062287934, -8732.535986010551, -8122.869804247595, -9914.898564207384, -9434.045485740362, 0.164, 0.6940000000000001, 0.678, 192.0, 0.0, 0.0, 0.0, 0.0, 0.0, 0.0, 0.0, 0.0, 0.0, 1.7426791096865642E9, 0.0, 2025-03-22 18:31:49.686
5.0, -3840.946118944421, -5666.681309542812, -9604.298723256436, -10680.423460057194, -8765.951843971234, -8018.4424541524, -9914.987971185205, -9423.897793757653, 0.164, 0.6940000000000001, 0.678, 192.0, 0.0, 0.0, 0.0, 0.0, 0.0, 0.0, 0.0, 0.0, 0.0, 1.7426791096865914E9, 0.0, 2025-03-22 18:31:49.686
6.0, -4283.063624270395, -5707.026208284642, -9618.447377496646, -10712.945248239666, -8692.414604713274, -8031.1158932585595, -9880.499229490666, -9415.784110520377, 0.164, 0.6940000000000001, 0.678, 192.0, 0.0, 0.0, 0.0, 0.0, 0.0, 0.0, 0.0, 0.0, 0.0, 1.7426791096866047E9, 0.0, 2025-03-22 18:31:49.686
7.0, -4663.758535833184, -5738.966851111276, -9646.364706321325, -10753.893644081789, -8647.934633247212, -8135.856167776128, -9872.005566597649, -9421.550860589847, 0.164, 0.6940000000000001, 0.678, 192.0, 0.0, 0.0, 0.0, 0.0, 0.0, 0.0, 0.0, 0.0, 0.0, 1.7426791096866171E9, 0.0, 2025-03-22 18:31:49.686
8.0, -4234.3144696133695, -5697.660827357868, -9636.887566672274, -10731.497196137572, -8716.889764891836, -8138.068990477203, -9908.237744359702, -9432.302049672848, 0.162, 0.648, 0.728, 192.0, 5.0, 16.0, 20.0, 64.0, 22.0, 192.0, 0.0, 0.0, 0.0, 1.74267910968663E9, 0.0, 2025-03-22 18:31:49.686
9.0, -3817.4767872663488, -5664.468486841737, -9606.600952935332, -10682.546875780448, -8769.170495172799, -8032.792274092708, -9916.731407252719, -9424.68010481359, 0.162, 0.648, 0.728, 192.0, 0.0, 0.0, 0.0, 0.0, 0.0, 0.0, 0.0, 0.0, 0.0, 1.7426791096866436E9, 0.0, 2025-03-22 18:31:49.686
10.0, -4189.275704535926, -5700.343036692505, -9615.385188506269, -10704.384530113284, -8708.217288043177, -8017.30251518518, -9885.237799315191, -9415.739407031466, 0.162, 0.648, 0.728, 192.0, 0.0, 0.0, 0.0, 0.0, 0.0, 0.0, 0.0, 0.0, 0.0, 1.742679109686656E9, 0.0, 2025-03-22 18:31:49.686
11.0, -4618.563308544553, -5735.681144676345, -9640.821473696407, -10748.216300990141, -8646.861749513359, -8119.092359434648, -9868.04930782906, -9418.846299510753, 0.162, 0.648, 0.728, 192.0, 0.0, 0.0, 0.0, 0.0, 0.0, 0.0, 0.0, 0.0, 0.0, 1.7426791096866684E9, 0.0, 2025-03-22 18:31:49.686
12.0, -4330.404619026735, -5704.656923372379, -9639.56977600691, -10736.816911317936, -8698.561334438484, -8145.825045803195, -9901.375758811922, -9430.804482794343, 0.162, 0.648, 0.728, 192.0, 0.0, 0.0, 0.0, 0.0, 0.0, 0.0, 0.0, 0.0, 0.0, 1.7426791096866808E9, 0.0, 2025-03-22 18:31:49.686
13.0, -3804.8704033935555, -5664.893169986388, -9611.13835705976, -10687.64307351626, -8769.662233550815, -8051.232463268336, -9921.291163121601, -9430.312744416326, 0.162, 0.648, 0.728, 192.0, 0.0, 0.0, 0.0, 0.0, 0.0, 0.0, 0.0, 0.0, 0.0, 1.7426791096866934E9, 0.0, 2025-03-22 18:31:49.686
14.0, -4105.546069806346, -5695.537411634614, -9615.742816417554, -10698.64013178827, -8724.534061495551, -8009.702922070375, -9892.859744174451, -9419.270982655404, 0.162, 0.648, 0.728, 192.0, 0.0, 0.0, 0.0, 0.0, 0.0, 0.0, 0.0, 0.0, 0.0, 1.7426791096867056E9, 0.0, 2025-03-22 18:31:49.686
15.0, -4559.286482249079, -5734.384743497938, -9640.709714974131, -10746.137588755797, -8654.61780483935, -8104.31785634969, -9869.56922645202, -9421.081473956285, 0.162, 0.648, 0.728, 192.0, 0.0, 0.0, 0.0, 0.0, 0.0, 0.0, 0.0, 0.0, 0.0, 1.7426791096867185E9, 0.0, 2025-03-22 18:31:49.686
16.0, -4432.507387698578, -5717.710342134278, -9648.71163948913, -10747.545748656483, -8687.117241277367, -8155.592758130165, -9897.665369232342, -9432.838491539776, 0.162, 0.648, 0.728, 192.0, 0.0, 0.0, 0.0, 0.0, 0.0, 0.0, 0.0, 0.0, 0.0, 1.7426791096869483E9, 0.0, 2025-03-22 18:31:49.686
17.0, -3823.355296058094, -5664.893169986388, -9614.513470472511, -10693.007492185532, -8764.029593948078, -8068.465658243377, -9920.084168921014, -9431.787959550376, 0.162, 0.648, 0.728, 192.0, 0.0, 0.0, 0.0, 0.0, 0.0, 0.0, 0.0, 0.0, 0.0, 1.7426791096869626E9, 0.0, 2025-03-22 18:31:49.686
18.0, -3999.0400074768077, -5684.987388251709, -9610.937191359662, -10689.431213072683, -8737.431018046263, -8001.790404533197, -9898.537087266099, -9419.807424522332, 0.17, 0.614, 0.76, 192.0, 5.0, 80.0, 19.0, 48.0, 23.0, 192.0, 0.0, 0.0, 0.0, 1.7426791096869757E9, 0.0, 2025-03-22 18:31:49.686
19.0, -4478.417870809779, -5728.7521038952, -9636.060552127428, -10739.208547974653, -8662.306804931975, -8084.31304506219, -9870.887979374884, -9420.969715234009, 0.17, 0.614, 0.76, 192.0, 0.0, 0.0, 0.0, 0.0, 0.0, 0.0, 0.0, 0.0, 0.0, 1.7426791096869893E9, 0.0, 2025-03-22 18:31:49.686
20.0, -4527.770522567096, -5728.439179472826, -9652.310270346436, -10754.161865015252, -8673.974415537647, -8158.52083665381, -9890.132831350904, -9431.698552572556, 0.17, 0.614, 0.76, 192.0, 0.0, 0.0, 0.0, 0.0, 0.0, 0.0, 0.0, 0.0, 0.0, 1.742679109687002E9, 0.0, 2025-03-22 18:31:49.687
21.0, -3882.073328742186, -5671.151658433874, -9620.034351352973, -10702.9763702126, -8756.608814788917, -8089.275132331269, -9920.508852065666, -9434.470168885013, 0.17, 0.614, 0.76, 192.0, 0.0, 0.0, 0.0, 0.0, 0.0, 0.0, 0.0, 0.0, 0.0, 1.7426791096870148E9, 0.0, 2025-03-22 18:31:49.687
22.0, -3932.6106229556353, -5680.382928893916, -9610.04312158145, -10686.413727571216, -8750.506788552617, -8003.086805711604, -9905.309665836057, -9422.28846815687, 0.17, 0.614, 0.76, 192.0, 0.0, 0.0, 0.0, 0.0, 0.0, 0.0, 0.0, 0.0, 0.0, 1.7426791096870275E9, 0.0, 2025-03-22 18:31:49.687
23.0, -4418.425788691734, -5724.326458493049, -9632.394866036757, -10733.575908371915, -8672.38744168132, -8065.269358786269, -9872.631415442398, -9419.896831500153, 0.17, 0.614, 0.76, 192.0, 0.0, 0.0, 0.0, 0.0, 0.0, 0.0, 0.0, 0.0, 0.0, 1.7426791096870446E9, 0.0, 2025-03-22 18:31:49.687
24.0, -4601.039540891593, -5735.636441187435, -9652.667898257721, -10757.60403366137, -8661.56919736495, -8154.944557540961, -9881.125078335415, -9427.71994205951, 0.17, 0.614, 0.76, 192.0, 0.0, 0.0, 0.0, 0.0, 0.0, 0.0, 0.0, 0.0, 0.0, 1.7426791096870596E9, 0.0, 2025-03-22 18:31:49.687
25.0, -3986.45597534847, -5678.170106192841, -9625.555232233433, -10711.872364505813, -8742.929547182268, -8106.642437773042, -9913.713921751252, -9432.190290950572, 0.17, 0.614, 0.76, 192.0, 0.0, 0.0, 0.0, 0.0, 0.0, 0.0, 0.0, 0.0, 0.0, 1.7426791096870737E9, 0.0, 2025-03-22 18:31:49.687
26.0, -3869.1316687025633, -5672.559818334558, -9608.456147725123, -10681.608102513326, -8758.598120045439, -8005.858422024063, -9907.455433303767, -9420.746197789455, 0.17, 0.614, 0.76, 192.0, 0.0, 0.0, 0.0, 0.0, 0.0, 0.0, 0.0, 0.0, 0.0, 1.7426791096870868E9, 0.0, 2025-03-22 18:31:49.687
27.0, -4326.895395147252, -5714.022304299153, -9626.158729333727, -10721.64007683278, -8681.61871214136, -8042.649393397498, -9872.899636375862, -9416.275848898393, 0.17, 0.614, 0.76, 192.0, 0.0, 0.0, 0.0, 0.0, 0.0, 0.0, 0.0, 0.0, 0.0, 1.7426791096871388E9, 0.0, 2025-03-22 18:31:49.687
28.0, -4614.674105009331, -5735.144702809418, -9648.95750867814, -10753.580719659414, -8651.063877470957, -8143.634574846576, -9872.564360209031, -9422.91431700162, 0.17200000000000001, 0.594, 0.784, 192.0, 5.0, 96.0, 18.0, 144.0, 24.0, 128.0, 0.0, 0.0, 0.0, 1.742679109687152E9, 0.0, 2025-03-22 18:31:49.687
29.0, -4082.5908282507457, -5686.50730687467, -9631.701961958643, -10720.298972165463, -8729.406741786808, -8122.780397269774, -9909.914125193849, -9432.48086362849, 0.17200000000000001, 0.594, 0.784, 192.0, 0.0, 0.0, 0.0, 0.0, 0.0, 0.0, 0.0, 0.0, 0.0, 1.7426791096871655E9, 0.0, 2025-03-22 18:31:49.687
30.0, -3826.3727815595607, -5667.93300723231, -9608.009112836018, -10680.155239123731, -8764.230759648175, -8015.648486095487, -9911.277581605624, -9422.467282112513, 0.17200000000000001, 0.594, 0.784, 192.0, 0.0, 0.0, 0.0, 0.0, 0.0, 0.0, 0.0, 0.0, 0.0, 1.742679109687178E9, 0.0, 2025-03-22 18:31:49.687
31.0, -4261.851818782308, -5708.434368185326, -9621.91189788722, -10713.235820917585, -8694.29215124752, -8025.5950123780985, -9877.057060844549, -9414.934744231075, 0.17200000000000001, 0.594, 0.784, 192.0, 0.0, 0.0, 0.0, 0.0, 0.0, 0.0, 0.0, 0.0, 0.0, 1.742679109687191E9, 0.0, 2025-03-22 18:31:49.687
32.0, -4624.911203969861, -5738.497464477714, -9646.990555166072, -10753.737181870601, -8648.560482091962, -8132.5481095967425, -9868.272825273612, -9420.097997200251, 0.17200000000000001, 0.594, 0.784, 192.0, 0.0, 0.0, 0.0, 0.0, 0.0, 0.0, 0.0, 0.0, 0.0, 1.7426791096872401E9, 0.0, 2025-03-22 18:31:49.687
33.0, -4200.250411063482, -5697.45966165777, -9637.379305050292, -10730.781940315002, -8714.565183468483, -8137.2419759323575, -9905.19790711378, -9431.385628150181, 0.17200000000000001, 0.594, 0.784, 192.0, 0.0, 0.0, 0.0, 0.0, 0.0, 0.0, 0.0, 0.0, 0.0, 1.7426791096872532E9, 0.0, 2025-03-22 18:31:49.687
34.0, -3802.6128772035695, -5667.128344431919, -9610.601915192832, -10683.73151823658, -8768.410535861318, -8032.0546665256825, -9916.396131085889, -9426.490596114469, 0.17200000000000001, 0.594, 0.784, 192.0, 0.0, 0.0, 0.0, 0.0, 0.0, 0.0, 0.0, 0.0, 0.0, 1.7426791096872656E9, 0.0, 2025-03-22 18:31:49.687
35.0, -4176.624617174222, -5704.388702438915, -9620.90606938673, -10707.469070848116, -8711.748863667115, -8014.754416317274, -9885.260151059647, -9418.8239477663, 0.17200000000000001, 0.594, 0.784, 192.0, 0.0, 0.0, 0.0, 0.0, 0.0, 0.0, 0.0, 0.0, 0.0, 1.7426791096872785E9, 0.0, 2025-03-22 18:31:49.687
36.0, -4586.309741295546, -5738.877444133454, -9644.867139442818, -10752.306670225462, -8652.069705971446, -8119.293525134746, -9867.3787554954, -9422.154357690139, 0.17200000000000001, 0.594, 0.784, 192.0, 0.0, 0.0, 0.0, 0.0, 0.0, 0.0, 0.0, 0.0, 0.0, 1.7426791096872911E9, 0.0, 2025-03-22 18:31:49.687
37.0, -4311.606801939822, -5709.7978245971, -9643.973069664606, -10742.069571264932, -8701.332950750942, -8150.474208649899, -9901.018130900638, -9433.710209573534, 0.17200000000000001, 0.594, 0.784, 192.0, 0.0, 0.0, 0.0, 0.0, 0.0, 0.0, 0.0, 0.0, 0.0, 1.7426791096873033E9, 0.0, 2025-03-22 18:31:49.687
38.0, -3806.4797289943376, -5667.642434554391, -9612.881793127275, -10689.766489239513, -8767.78468701657, -8051.12070454606, -9918.497195064689, -9429.731599060487, 0.17200000000000001, 0.588, 0.794, 192.0, 5.0, 96.0, 18.0, 96.0, 24.0, 208.0, 0.0, 0.0, 0.0, 1.7426791096873157E9, 0.0, 2025-03-22 18:31:49.687
39.0, -4087.6870259865555, -5694.799804067588, -9614.245249539048, -10698.081338176888, -8723.86350916189, -8003.10915745606, -9890.848087173474, -9417.616953565712, 0.17200000000000001, 0.588, 0.794, 192.0, 0.0, 0.0, 0.0, 0.0, 0.0, 0.0, 0.0, 0.0, 0.0, 1.7426791096873577E9, 0.0, 2025-03-22 18:31:49.687
40.0, -4522.137882964359, -5731.926051607854, -9636.529938760988, -10744.572966643926, -8653.880197272325, -8098.349940580123, -9865.814133383528, -9418.443968110558, 0.17200000000000001, 0.588, 0.794, 192.0, 0.0, 0.0, 0.0, 0.0, 0.0, 0.0, 0.0, 0.0, 0.0, 1.7426791096873703E9, 0.0, 2025-03-22 18:31:49.687
41.0, -4417.107035768871, -5718.716170634767, -9645.4259330542, -10747.858673078856, -8684.747956365103, -8155.838627319173, -9892.189191840791, -9430.469206627513, 0.17200000000000001, 0.588, 0.794, 192.0, 0.0, 0.0, 0.0, 0.0, 0.0, 0.0, 0.0, 0.0, 0.0, 1.7426791096873827E9, 0.0, 2025-03-22 18:31:49.687
42.0, -3836.2299008643513, -5668.603559565969, -9613.462938483113, -10694.415652086218, -8760.9674049577, -8069.627948955053, -9916.753758997174, -9429.664543827123, 0.17200000000000001, 0.588, 0.794, 192.0, 0.0, 0.0, 0.0, 0.0, 0.0, 0.0, 0.0, 0.0, 0.0, 1.742679109687395E9, 0.0, 2025-03-22 18:31:49.687
43.0, -4006.706655824978, -5688.831888298022, -9611.071301826394, -10691.554628795939, -8737.833349446459, -7999.443471365389, -9897.374796554423, -9419.159223933128, 0.17200000000000001, 0.588, 0.794, 192.0, 0.0, 0.0, 0.0, 0.0, 0.0, 0.0, 0.0, 0.0, 0.0, 1.7426791096874075E9, 0.0, 2025-03-22 18:31:49.687
44.0, -4472.807582951496, -5731.054333574097, -9635.412351538223, -10741.488425909094, -8664.81020031097, -8081.74259444983, -9863.176627537803, -9420.612087322723, 0.17200000000000001, 0.588, 0.794, 192.0, 0.0, 0.0, 0.0, 0.0, 0.0, 0.0, 0.0, 0.0, 0.0, 1.7426791096874228E9, 0.0, 2025-03-22 18:31:49.687
45.0, -4519.254507929624, -5729.333249251038, -9650.410372067736, -10755.257100493563, -8673.795601582004, -8159.146685498558, -9876.274749788612, -9430.871538027708, 0.17200000000000001, 0.588, 0.794, 192.0, 0.0, 0.0, 0.0, 0.0, 0.0, 0.0, 0.0, 0.0, 0.0, 1.7426791096874352E9, 0.0, 2025-03-22 18:31:49.687
46.0, -3903.6427621415573, -5675.107917202463, -9621.062531597916, -10705.390358613773, -8755.468875821696, -8092.091452132637, -9907.231915859213, -9434.894852029664, 0.17200000000000001, 0.588, 0.794, 192.0, 0.0, 0.0, 0.0, 0.0, 0.0, 0.0, 0.0, 0.0, 0.0, 1.7426791096874475E9, 0.0, 2025-03-22 18:31:49.687
47.0, -3933.817617156222, -5679.757080049167, -9608.053816324928, -10685.229085115086, -8749.277442607576, -7998.504698098266, -9892.077433118515, -9420.276811155893, 0.17200000000000001, 0.588, 0.794, 192.0, 0.0, 0.0, 0.0, 0.0, 0.0, 0.0, 0.0, 0.0, 0.0, 1.74267910968746E9, 0.0, 2025-03-22 18:31:49.687
48.0, -4384.607599330855, -5720.906641591388, -9628.438607268168, -10732.011286260044, -8673.125049248345, -8059.770829650263, -9861.209674025737, -9419.24863091095, 0.17200000000000001, 0.5720000000000001, 0.8, 192.0, 5.0, 96.0, 17.0, 224.0, 25.0, 0.0, 0.0, 0.0, 0.0, 1.742679109687481E9, 0.0, 2025-03-22 18:31:49.687
49.0, -4568.2495317756575, -5732.596603941513, -9647.86227319983, -10756.329984227417, -8660.831589797925, -8154.408115674033, -9868.943377607273, -9427.116444959218, 0.17200000000000001, 0.5720000000000001, 0.8, 192.0, 0.0, 0.0, 0.0, 0.0, 0.0, 0.0, 0.0, 0.0, 0.0, 1.742679109687494E9, 0.0, 2025-03-22 18:31:49.687
50.0, -3977.6270362886235, -5682.752213806179, -9626.829281667386, -10716.812100030435, -8744.985907672157, -8113.571478554187, -9907.634247259408, -9437.331192175292, 0.17200000000000001, 0.5720000000000001, 0.8, 192.0, 0.0, 0.0, 0.0, 0.0, 0.0, 0.0, 0.0, 0.0, 0.0, 1.7426791096875064E9, 0.0, 2025-03-22 18:31:49.687
51.0, -3865.1977616784293, -5677.231332925718, -9609.909011114718, -10686.54783803795, -8762.330861369475, -8009.591163348099, -9903.610933257452, -9425.998857736453, 0.17200000000000001, 0.5720000000000001, 0.8, 192.0, 0.0, 0.0, 0.0, 0.0, 0.0, 0.0, 0.0, 0.0, 0.0, 1.7426791096875186E9, 0.0, 2025-03-22 18:31:49.687
52.0, -4314.266659530003, -5715.877499088943, -9624.638810710765, -10724.74696931207, -8686.267874988065, -8042.045896297204, -9866.797610139563, -9417.81811926581, 0.17200000000000001, 0.5720000000000001, 0.8, 192.0, 0.0, 0.0, 0.0, 0.0, 0.0, 0.0, 0.0, 0.0, 0.0, 1.7426791096875308E9, 0.0, 2025-03-22 18:31:49.687
53.0, -4589.349578541467, -5737.268118532672, -9647.48229354409, -10758.073420294932, -8655.914206017758, -8147.970813270905, -9865.881188616895, -9425.060084469329, 0.17200000000000001, 0.5720000000000001, 0.8, 192.0, 0.0, 0.0, 0.0, 0.0, 0.0, 0.0, 0.0, 0.0, 0.0, 1.7426791096875432E9, 0.0, 2025-03-22 18:31:49.687
54.0, -4074.700662458022, -5688.2730946866395, -9629.042104368462, -10723.227050689107, -8729.563203997994, -8128.1448159390475, -9902.76156696815, -9432.994953750964, 0.17200000000000001, 0.5720000000000001, 0.8, 192.0, 0.0, 0.0, 0.0, 0.0, 0.0, 0.0, 0.0, 0.0, 0.0, 1.7426791096875553E9, 0.0, 2025-03-22 18:31:49.687
55.0, -3817.3203250551614, -5669.3188153885385, -9605.32690350138, -10681.473992046595, -8764.700146281737, -8017.4366256519115, -9908.416558315344, -9422.668447812612, 0.17200000000000001, 0.5720000000000001, 0.8, 192.0, 0.0, 0.0, 0.0, 0.0, 0.0, 0.0, 0.0, 0.0, 0.0, 1.7426791096875677E9, 0.0, 2025-03-22 18:31:49.687
56.0, -4224.971440431052, -5707.205022240284, -9617.754473418532, -10713.012303473033, -8696.594380926417, -8023.583355377121, -9877.325281778012, -9415.202965164539, 0.17200000000000001, 0.5720000000000001, 0.8, 192.0, 0.0, 0.0, 0.0, 0.0, 0.0, 0.0, 0.0, 0.0, 0.0, 1.7426791096875796E9, 0.0, 2025-03-22 18:31:49.687
57.0, -4570.060023076538, -5734.9435371093205, -9640.62030799631, -10752.150208014275, -8649.365144892352, -8132.168129941003, -9866.685851417285, -9419.6733140556, 0.17200000000000001, 0.5720000000000001, 0.8, 192.0, 0.0, 0.0, 0.0, 0.0, 0.0, 0.0, 0.0, 0.0, 0.0, 1.742679109687592E9, 0.0, 2025-03-22 18:31:49.687
58.0, -4172.690710150088, -5698.733711091722, -9634.987668393573, -10732.435969404694, -8714.63223870185, -8142.695801579453, -9904.750872224675, -9431.989125250475, 0.176, 0.5760000000000001, 0.802, 192.0, 5.0, 128.0, 18.0, 0.0, 25.0, 16.0, 0.0, 0.0, 0.0, 1.742679109687604E9, 0.0, 2025-03-22 18:31:49.687
59.0, -3788.5983334300918, -5669.832905511011, -9609.707845414621, -10686.346672337851, -8769.617530061905, -8036.077980527638, -9918.743064253697, -9427.384665892681, 0.176, 0.5760000000000001, 0.802, 192.0, 0.0, 0.0, 0.0, 0.0, 0.0, 0.0, 0.0, 0.0, 0.0, 1.7426791096876168E9, 0.0, 2025-03-22 18:31:49.687
60.0, -4148.751991838454, -5703.3605221939715, -9616.86040364032, -10706.820870258913, -8712.084139833945, -8012.2733726827355, -9886.601255726964, -9417.326380887793, 0.176, 0.5760000000000001, 0.802, 192.0, 0.0, 0.0, 0.0, 0.0, 0.0, 0.0, 0.0, 0.0, 0.0, 1.742679109687629E9, 0.0, 2025-03-22 18:31:49.687
61.0, -4538.901691305839, -5736.798731899111, -9640.106217873838, -10751.74787661408, -8653.053182727479, -8118.622972801087, -9867.825790384506, -9421.617915823212, 0.176, 0.5760000000000001, 0.802, 192.0, 0.0, 0.0, 0.0, 0.0, 0.0, 0.0, 0.0, 0.0, 0.0, 1.742679109687641E9, 0.0, 2025-03-22 18:31:49.687
62.0, -4286.528144660967, -5709.306086219083, -9639.703886473642, -10741.443722420183, -8698.695444905215, -8152.932900539983, -9899.05117738857, -9432.078532228295, 0.176, 0.5760000000000001, 0.802, 192.0, 0.0, 0.0, 0.0, 0.0, 0.0, 0.0, 0.0, 0.0, 0.0, 1.7426791096876533E9, 0.0, 2025-03-22 18:31:49.687
63.0, -3795.303856766684, -5668.268283399139, -9610.311342514915, -10689.297102605951, -8765.951843971234, -8052.908844102484, -9918.184270642314, -9428.457549626535, 0.176, 0.5760000000000001, 0.802, 192.0, 0.0, 0.0, 0.0, 0.0, 0.0, 0.0, 0.0, 0.0, 0.0, 1.7426791096876955E9, 0.0, 2025-03-22 18:31:49.687
64.0, -4065.670557698078, -5694.956266278776, -9612.14418556025, -10697.433137587685, -8724.802282429015, -8001.075148710627, -9891.697453462775, -9417.348732632248, 0.176, 0.5760000000000001, 0.802, 192.0, 0.0, 0.0, 0.0, 0.0, 0.0, 0.0, 0.0, 0.0, 0.0, 1.742679109687708E9, 0.0, 2025-03-22 18:31:49.687
65.0, -4473.411080051789, -5730.920223107365, -9634.51828176001, -10745.131760255308, -8656.920034518247, -8097.612333013098, -9867.088182817482, -9420.455625111535, 0.176, 0.5760000000000001, 0.802, 192.0, 0.0, 0.0, 0.0, 0.0, 0.0, 0.0, 0.0, 0.0, 0.0, 1.7426791096877222E9, 0.0, 2025-03-22 18:31:49.687
66.0, -4371.308311379947, -5716.771568867156, -9642.251985341547, -10747.054010278465, -8683.362148208875, -8156.911511053027, -9891.786860440596, -9431.184462450083, 0.176, 0.5760000000000001, 0.802, 192.0, 0.0, 0.0, 0.0, 0.0, 0.0, 0.0, 0.0, 0.0, 0.0, 1.7426791096877344E9, 0.0, 2025-03-22 18:31:49.687
67.0, -3811.888851152522, -5667.843600254489, -9611.384226248769, -10693.901561963745, -8758.329899111975, -8070.4549634999, -9916.597296785987, -9430.446854883057, 0.176, 0.5760000000000001, 0.802, 192.0, 0.0, 0.0, 0.0, 0.0, 0.0, 0.0, 0.0, 0.0, 0.0, 1.7426791096877465E9, 0.0, 2025-03-22 18:31:49.687
68.0, -3973.2907978642943, -5688.69777783129, -9610.825432637386, -10691.889904962767, -8739.353268069419, -7998.035311464705, -9900.72755822272, -9421.796729778855, 0.17, 0.5760000000000001, 0.802, 192.0, 5.0, 80.0, 18.0, 0.0, 25.0, 16.0, 0.0, 0.0, 0.0, 1.7426791096877587E9, 0.0, 2025-03-22 18:31:49.687
69.0, -4409.0604077649605, -5727.813330628077, -9632.305459058936, -10740.348486941873, -8666.754802078582, -8079.038033370738, -9870.99973809716, -9422.6237443237, 0.17, 0.5760000000000001, 0.802, 192.0, 0.0, 0.0, 0.0, 0.0, 0.0, 0.0, 0.0, 0.0, 0.0, 1.7426791096877713E9, 0.0, 2025-03-22 18:31:49.687
70.0, -4456.468457754667, -5725.980487582742, -9645.135360376282, -10752.954870814667, -8670.979281780636, -8158.766705842818, -9885.550723737566, -9430.20098569405, 0.17, 0.5760000000000001, 0.802, 192.0, 0.0, 0.0, 0.0, 0.0, 0.0, 0.0, 0.0, 0.0, 0.0, 1.7426791096877837E9, 0.0, 2025-03-22 18:31:49.687
71.0, -3869.0646134691974, -5676.180800936318, -9620.324924030892, -10706.686759792181, -8753.524274054083, -8095.175992867469, -9919.167747398347, -9436.48182588599, 0.17, 0.5760000000000001, 0.802, 192.0, 0.0, 0.0, 0.0, 0.0, 0.0, 0.0, 0.0, 0.0, 0.0, 1.7426791096877956E9, 0.0, 2025-03-22 18:31:49.687
72.0, -3893.048035269742, -5683.199248695284, -9611.026598337485, -10688.917122950212, -8753.546625798539, -8001.1198521995375, -9909.556497282565, -9426.490596114469, 0.17, 0.5760000000000001, 0.802, 192.0, 0.0, 0.0, 0.0, 0.0, 0.0, 0.0, 0.0, 0.0, 0.0, 1.7426791096878076E9, 0.0, 2025-03-22 18:31:49.687
73.0, -4334.405581284235, -5721.644249158412, -9628.103331101338, -10732.391265915783, -8676.768383594559, -8057.870931371562, -9874.128982320903, -9422.154357690139, 0.17, 0.5760000000000001, 0.802, 192.0, 0.0, 0.0, 0.0, 0.0, 0.0, 0.0, 0.0, 0.0, 0.0, 1.7426791096878197E9, 0.0, 2025-03-22 18:31:49.687
74.0, -4513.174833437781, -5732.03781033013, -9645.157712120737, -10755.03358304901, -8660.719831075648, -8153.670508107008, -9878.398165511868, -9428.368142648715, 0.17, 0.5760000000000001, 0.802, 192.0, 0.0, 0.0, 0.0, 0.0, 0.0, 0.0, 0.0, 0.0, 0.0, 1.7426791096880407E9, 0.0, 2025-03-22 18:31:49.688
75.0, -3954.001242399364, -5681.500516116681, -9622.671857198698, -10713.526393595504, -8739.845006447436, -8111.448062830933, -9914.473881062733, -9435.833625296787, 0.17, 0.5760000000000001, 0.802, 192.0, 0.0, 0.0, 0.0, 0.0, 0.0, 0.0, 0.0, 0.0, 0.0, 1.7426791096880653E9, 0.0, 2025-03-22 18:31:49.688
76.0, -3846.8693312250775, -5675.018510224642, -9605.706883157121, -10682.233951358076, -8758.240492134153, -8003.4667853673445, -9910.987008927705, -9424.121311202207, 0.17, 0.5760000000000001, 0.802, 192.0, 0.0, 0.0, 0.0, 0.0, 0.0, 0.0, 0.0, 0.0, 0.0, 1.7426791096880848E9, 0.0, 2025-03-22 18:31:49.688
77.0, -4275.866362555786, -5713.195289754306, -9621.062531597916, -10721.148338454765, -8685.19499125421, -8034.491006671311, -9875.33597652149, -9418.175747177094, 0.17, 0.5760000000000001, 0.802, 192.0, 0.0, 0.0, 0.0, 0.0, 0.0, 0.0, 0.0, 0.0, 0.0, 1.7426791096881044E9, 0.0, 2025-03-22 18:31:49.688
78.0, -4546.501284420644, -5733.021287086164, -9641.424970796701, -10753.22309174813, -8651.62267108234, -8141.399400401045, -9870.329185763501, -9423.517814101913, 0.166, 0.5720000000000001, 0.804, 192.0, 5.0, 48.0, 17.0, 224.0, 25.0, 32.0, 0.0, 0.0, 0.0, 1.7426791096881232E9, 0.0, 2025-03-22 18:31:49.688
79.0, -4062.5413134743353, -5689.189516209307, -9627.5221857455, -10722.802367544457, -8725.159910340299, -8127.116635694103, -9908.282447848613, -9433.956078762541, 0.166, 0.5720000000000001, 0.804, 192.0, 0.0, 0.0, 0.0, 0.0, 0.0, 0.0, 0.0, 0.0, 0.0, 1.7426791096881745E9, 0.0, 2025-03-22 18:31:49.688
80.0, -3812.559403486181, -5671.017547967142, -9606.399787235236, -10683.284483347474, -8763.694317781248, -8015.849651795585, -9914.25036361818, -9425.775340291899, 0.166, 0.5720000000000001, 0.804, 192.0, 0.0, 0.0, 0.0, 0.0, 0.0, 0.0, 0.0, 0.0, 0.0, 1.7426791096881928E9, 0.0, 2025-03-22 18:31:49.688
81.0, -4201.993847130996, -5708.389664696416, -9618.782653663475, -10715.06866396292, -8699.567162938973, -8019.11300648606, -9881.661520202342, -9419.382741377682, 0.166, 0.5720000000000001, 0.804, 192.0, 0.0, 0.0, 0.0, 0.0, 0.0, 0.0, 0.0, 0.0, 0.0, 1.7426791096882112E9, 0.0, 2025-03-22 18:31:49.688
82.0, -4531.570319124498, -5735.770551654166, -9641.00028765205, -10754.787713860002, -8651.823836782436, -8130.044714217748, -9868.719860162719, -9424.523642602402, 0.166, 0.5720000000000001, 0.804, 192.0, 0.0, 0.0, 0.0, 0.0, 0.0, 0.0, 0.0, 0.0, 0.0, 1.7426791096882296E9, 0.0, 2025-03-22 18:31:49.688
83.0, -4149.891930805675, -5699.739539592211, -9634.026543381995, -10734.380571172307, -8712.397064256318, -8142.159359712525, -9904.594410013488, -9436.258308441438, 0.166, 0.5720000000000001, 0.804, 192.0, 0.0, 0.0, 0.0, 0.0, 0.0, 0.0, 0.0, 0.0, 0.0, 1.742679109688248E9, 0.0, 2025-03-22 18:31:49.688
84.0, -3776.7072053798684, -5670.279940400117, -9608.14322330275, -10687.128983393786, -8766.667099793804, -8032.97108804835, -9918.497195064689, -9430.290392671872, 0.166, 0.5720000000000001, 0.804, 192.0, 0.0, 0.0, 0.0, 0.0, 0.0, 0.0, 0.0, 0.0, 0.0, 1.742679109688266E9, 0.0, 2025-03-22 18:31:49.688
85.0, -4124.05331421534, -5703.5393361496135, -9616.301610028937, -10708.0278644595, -8713.91698287928, -8006.864250524552, -9889.082299361504, -9421.014418722918, 0.166, 0.5720000000000001, 0.804, 192.0, 0.0, 0.0, 0.0, 0.0, 0.0, 0.0, 0.0, 0.0, 0.0, 1.742679109688284E9, 0.0, 2025-03-22 18:31:49.688
86.0, -4504.0329699555605, -5733.915356864376, -9636.90991841673, -10750.473827180127, -8653.23199668312, -8112.073911675681, -9866.060002572538, -9421.90848850113, 0.166, 0.5720000000000001, 0.804, 192.0, 0.0, 0.0, 0.0, 0.0, 0.0, 0.0, 0.0, 0.0, 0.0, 1.7426791096883018E9, 0.0, 2025-03-22 18:31:49.688
87.0, -4264.89165602823, -5708.680237374335, -9638.653354484244, -10741.577832886915, -8697.1531745378, -8150.809484816728, -9897.330093065511, -9432.81613979532, 0.166, 0.5720000000000001, 0.804, 192.0, 0.0, 0.0, 0.0, 0.0, 0.0, 0.0, 0.0, 0.0, 0.0, 1.7426791096883273E9, 0.0, 2025-03-22 18:31:49.688
88.0, -3782.943342082899, -5671.844562511988, -9614.066435583405, -10694.102727663843, -8767.561169572016, -8054.607576681087, -9922.453453833277, -9434.358410162737, 0.17200000000000001, 0.58, 0.804, 192.0, 5.0, 96.0, 18.0, 32.0, 25.0, 32.0, 0.0, 0.0, 0.0, 1.7426791096883452E9, 0.0, 2025-03-22 18:31:49.688
89.0, -4039.60842366319, -5698.152565735885, -9616.033389095473, -10701.456451589638, -8729.742017953637, -7999.309360898657, -9898.179459354813, -9423.853090268742, 0.17200000000000001, 0.58, 0.804, 192.0, 0.0, 0.0, 0.0, 0.0, 0.0, 0.0, 0.0, 0.0, 0.0, 1.7426791096883645E9, 0.0, 2025-03-22 18:31:49.688
90.0, -4444.800847148997, -5732.1272173079515, -9635.211185838127, -10746.294050966984, -8660.42925839773, -8093.521963777776, -9868.652804929354, -9422.713151301521, 0.17200000000000001, 0.58, 0.804, 192.0, 0.0, 0.0, 0.0, 0.0, 0.0, 0.0, 0.0, 0.0, 0.0, 1.7426791096883824E9, 0.0, 2025-03-22 18:31:49.688
91.0, -4363.753421754053, -5720.9736968247535, -9644.755380720542, -10750.384420202307, -8685.329101720941, -8158.364374442623, -9892.166840096335, -9433.19611945106, 0.17200000000000001, 0.58, 0.804, 192.0, 0.0, 0.0, 0.0, 0.0, 0.0, 0.0, 0.0, 0.0, 0.0, 1.7426791096884005E9, 0.0, 2025-03-22 18:31:49.688
92.0, -3815.196909331907, -5673.45388811277, -9616.636886195765, -10699.087166677376, -8760.788591002058, -8074.366518779579, -9920.173575898836, -9433.933727018086, 0.17200000000000001, 0.58, 0.804, 192.0, 0.0, 0.0, 0.0, 0.0, 0.0, 0.0, 0.0, 0.0, 0.0, 1.7426791096884184E9, 0.0, 2025-03-22 18:31:49.688
93.0, -3969.2451321178837, -5690.664731343357, -9612.881793127275, -10693.11925090781, -8741.342573325941, -7995.4872125968, -9902.850973945973, -9422.132005945685, 0.17200000000000001, 0.58, 0.804, 192.0, 0.0, 0.0, 0.0, 0.0, 0.0, 0.0, 0.0, 0.0, 0.0, 1.7426791096884365E9, 0.0, 2025-03-22 18:31:49.688
94.0, -4382.43948011869, -5726.204005027295, -9631.299630558447, -10738.806216574458, -8667.939444534713, -8073.383042023545, -9870.887979374884, -9420.14270068916, 0.17200000000000001, 0.58, 0.804, 192.0, 0.0, 0.0, 0.0, 0.0, 0.0, 0.0, 0.0, 0.0, 0.0, 1.742679109688454E9, 0.0, 2025-03-22 18:31:49.688
95.0, -4437.1789022897365, -5723.097112548007, -9641.983764408084, -10749.624460890826, -8668.56529337946, -8154.855150563139, -9881.19213356878, -9424.993029235964, 0.17200000000000001, 0.58, 0.804, 192.0, 0.0, 0.0, 0.0, 0.0, 0.0, 0.0, 0.0, 0.0, 0.0, 1.7426791096884868E9, 0.0, 2025-03-22 18:31:49.688
96.0, -3863.09669769963, -5674.683234057812, -9618.223860052092, -10704.161012668732, -8749.188035629753, -8094.058405644704, -9915.949096196782, -9431.96677350602, 0.17200000000000001, 0.58, 0.804, 192.0, 0.0, 0.0, 0.0, 0.0, 0.0, 0.0, 0.0, 0.0, 0.0, 1.7426791096885052E9, 0.0, 2025-03-22 18:31:49.688
97.0, -3878.1170699735967, -5682.662806828357, -9610.490156470556, -10687.151335138242, -8752.317279853498, -7998.5941050760875, -9909.400035071378, -9423.808386779832, 0.17200000000000001, 0.58, 0.804, 192.0, 0.0, 0.0, 0.0, 0.0, 0.0, 0.0, 0.0, 0.0, 0.0, 1.7426791096885233E9, 0.0, 2025-03-22 18:31:49.688
98.0, -4302.1073105463165, -5720.839586358022, -9627.969220634606, -10731.430140904205, -8678.757688851081, -8054.160541791981, -9875.33597652149, -9420.67914255609, 0.17200000000000001, 0.58, 0.802, 192.0, 5.0, 96.0, 18.0, 32.0, 25.0, 16.0, 0.0, 0.0, 0.0, 1.7426791096885407E9, 0.0, 2025-03-22 18:31:49.688
99.0, -4480.988321422139, -5732.529548708147, -9645.917671432218, -10755.972356316133, -8662.91030203227, -8154.296356951757, -9878.19699981177, -9426.91527925912, 0.17200000000000001, 0.58, 0.802, 192.0, 0.0, 0.0, 0.0, 0.0, 0.0, 0.0, 0.0, 0.0, 0.0, 1.7426791096885595E9, 0.0, 2025-03-22 18:31:49.688
100.0, -3933.839968900677, -5684.160373706863, -9625.91286014472, -10716.096844207865, -8741.566090770495, -8116.119577422092, -9915.613820029954, -9434.984259007486, 0.17200000000000001, 0.58, 0.802, 192.0, 0.0, 0.0, 0.0, 0.0, 0.0, 0.0, 0.0, 0.0, 0.0, 1.7426791096885772E9, 0.0, 2025-03-22 18:31:49.688
101.0, -3823.355296058094, -5678.46067887076, -9609.931362859174, -10685.0726229039, -8761.30268112453, -8007.44539588039, -9915.122081651936, -9426.088264714273, 0.17200000000000001, 0.58, 0.802, 192.0, 0.0, 0.0, 0.0, 0.0, 0.0, 0.0, 0.0, 0.0, 0.0, 1.7426791096885953E9, 0.0, 2025-03-22 18:31:49.688
102.0, -4242.159931917183, -5716.726865378245, -9625.644639211254, -10724.523451867515, -8691.274665746054, -8036.882643328028, -9881.125078335415, -9421.953191990042, 0.17200000000000001, 0.58, 0.802, 192.0, 0.0, 0.0, 0.0, 0.0, 0.0, 0.0, 0.0, 0.0, 0.0, 1.7426791096886132E9, 0.0, 2025-03-22 18:31:49.688
103.0, -4506.670475801287, -5735.547034209613, -9644.420104553712, -10755.525321427027, -8657.121200218344, -8144.483941135877, -9873.14550556487, -9425.037732724873, 0.17200000000000001, 0.58, 0.802, 192.0, 0.0, 0.0, 0.0, 0.0, 0.0, 0.0, 0.0, 0.0, 0.0, 1.7426791096886308E9, 0.0, 2025-03-22 18:31:49.688
104.0, -4029.840711336221, -5691.670559843846, -9630.584374735878, -10724.635210589793, -8727.43978827474, -8132.436350874466, -9910.227049616224, -9434.179596207094, 0.17200000000000001, 0.58, 0.802, 192.0, 0.0, 0.0, 0.0, 0.0, 0.0, 0.0, 0.0, 0.0, 0.0, 1.7426791096886485E9, 0.0, 2025-03-22 18:31:49.688
105.0, -3774.114403023053, -5672.358652634461, -9608.478499469578, -10682.837448458367, -8765.437753848762, -8019.336523930612, -9917.714884008752, -9426.088264714273, 0.17200000000000001, 0.58, 0.802, 192.0, 0.0, 0.0, 0.0, 0.0, 0.0, 0.0, 0.0, 0.0, 0.0, 1.742679109688666E9, 0.0, 2025-03-22 18:31:49.688
106.0, -4161.9395210670855, -5709.954286808287, -9621.66602869821, -10714.755739540547, -8703.501069963106, -8020.297648942191, -9885.863648159939, -9420.276811155893, 0.17200000000000001, 0.58, 0.802, 192.0, 0.0, 0.0, 0.0, 0.0, 0.0, 0.0, 0.0, 0.0, 0.0, 1.742679109688684E9, 0.0, 2025-03-22 18:31:49.688
107.0, -4489.616094781887, -5736.6422696879235, -9642.989592908572, -10754.541844670994, -8655.847150784391, -8131.855205518628, -9870.105668318947, -9423.808386779832, 0.17200000000000001, 0.58, 0.802, 192.0, 0.0, 0.0, 0.0, 0.0, 0.0, 0.0, 0.0, 0.0, 0.0, 1.7426791096887019E9, 0.0, 2025-03-22 18:31:49.688
108.0, -4131.876424774698, -5700.946533792799, -9635.993496894062, -10733.620611860826, -8712.844099145424, -8146.070914992204, -9903.812098957551, -9432.525567117402, 0.182, 0.58, 0.802, 192.0, 5.0, 176.0, 18.0, 32.0, 25.0, 16.0, 0.0, 0.0, 0.0, 1.742679109688723E9, 0.0, 2025-03-22 18:31:49.688
109.0, -3754.3778126690167, -5669.296463644084, -9609.126700058783, -10684.78205022598, -8765.482457337674, -8035.563890405166, -9918.67600902033, -9426.043561225362, 0.182, 0.58, 0.802, 192.0, 0.0, 0.0, 0.0, 0.0, 0.0, 0.0, 0.0, 0.0, 0.0, 1.742679109688742E9, 0.0, 2025-03-22 18:31:49.688
110.0, -4091.732691732966, -5701.661789615368, -9616.23455479557, -10704.608047557836, -8714.2075555572, -8005.389035390501, -9888.970540639228, -9417.169918676605, 0.182, 0.58, 0.802, 192.0, 0.0, 0.0, 0.0, 0.0, 0.0, 0.0, 0.0, 0.0, 0.0, 1.7426791096887736E9, 0.0, 2025-03-22 18:31:49.688
111.0, -4462.101097357404, -5734.720019664767, -9638.385133550779, -10750.473827180127, -8656.875331029336, -8113.392664598545, -9868.317528762524, -9421.39439837866, 0.182, 0.58, 0.802, 192.0, 0.0, 0.0, 0.0, 0.0, 0.0, 0.0, 0.0, 0.0, 0.0, 1.7426791096887915E9, 0.0, 2025-03-22 18:31:49.688
112.0, -4243.970423218063, -5712.122406020451, -9641.022639396506, -10743.65654512126, -8698.114299549377, -8155.860979063628, -9897.53125876561, -9432.860843284232, 0.182, 0.58, 0.802, 192.0, 0.0, 0.0, 0.0, 0.0, 0.0, 0.0, 0.0, 0.0, 0.0, 1.7426791096888096E9, 0.0, 2025-03-22 18:31:49.688
113.0, -3766.2242372303294, -5673.565646835047, -9615.385188506269, -10694.460355575127, -8765.817733504502, -8059.390849994523, -9921.425273588333, -9433.307878173337, 0.182, 0.58, 0.802, 192.0, 0.0, 0.0, 0.0, 0.0, 0.0, 0.0, 0.0, 0.0, 0.0, 1.7426791096888275E9, 0.0, 2025-03-22 18:31:49.688
114.0, -4008.673609337045, -5701.281809959628, -9620.280220541981, -10703.445756846162, -8734.324125566975, -8003.846765023085, -9902.202773356768, -9426.758817047932, 0.182, 0.58, 0.802, 192.0, 0.0, 0.0, 0.0, 0.0, 0.0, 0.0, 0.0, 0.0, 0.0, 1.7426791096888452E9, 0.0, 2025-03-22 18:31:49.688
115.0, -4401.885497794807, -5733.758894653189, -9638.474540528601, -10747.903376567767, -8664.899607288791, -8096.293580090235, -9872.743174164674, -9425.842395525266, 0.182, 0.58, 0.802, 192.0, 0.0, 0.0, 0.0, 0.0, 0.0, 0.0, 0.0, 0.0, 0.0, 1.7426791096888633E9, 0.0, 2025-03-22 18:31:49.688
116.0, -4324.771979423997, -5716.346885722504, -9641.00028765205, -10745.578795144414, -8680.43406968523, -8156.509179652832, -9888.679967961309, -9429.284564171383, 0.182, 0.58, 0.802, 192.0, 0.0, 0.0, 0.0, 0.0, 0.0, 0.0, 0.0, 0.0, 0.0, 1.7426791096888807E9, 0.0, 2025-03-22 18:31:49.688
117.0, -3781.55753392667, -5669.676443299823, -9613.351179760835, -10695.175611397697, -8755.938262455256, -8074.4335740129445, -9917.044331675093, -9431.229165938994, 0.182, 0.58, 0.802, 192.0, 0.0, 0.0, 0.0, 0.0, 0.0, 0.0, 0.0, 0.0, 0.0, 1.7426791096888988E9, 0.0, 2025-03-22 18:31:49.688
118.0, -3917.9925820818644, -5688.071928986541, -9611.741854160055, -10690.92877995119, -8741.990773915146, -7994.8390120075965, -9903.566229768543, -9422.981372234986, 0.176, 0.58, 0.798, 192.0, 5.0, 128.0, 18.0, 32.0, 24.0, 240.0, 0.0, 0.0, 0.0, 1.7426791096889167E9, 0.0, 2025-03-22 18:31:49.688
119.0, -4330.695191704654, -5722.247746258706, -9628.371552034801, -10734.805254316958, -8667.313595689964, -8068.867989643573, -9868.76456365163, -9419.24863091095, 0.176, 0.58, 0.798, 192.0, 0.0, 0.0, 0.0, 0.0, 0.0, 0.0, 0.0, 0.0, 0.0, 1.7426791096889355E9, 0.0, 2025-03-22 18:31:49.688
120.0, -4401.4831663946115, -5723.633554414935, -9642.00611615254, -10749.669164379737, -8667.984148023623, -8155.570406385709, -9880.231008557203, -9426.58000309229, 0.176, 0.58, 0.798, 192.0, 0.0, 0.0, 0.0, 0.0, 0.0, 0.0, 0.0, 0.0, 0.0, 1.7426791096889536E9, 0.0, 2025-03-22 18:31:49.688
121.0, -3833.100656640608, -5675.398489880382, -9618.872060641297, -10704.83156500239, -8749.411553074307, -8096.114766134592, -9915.703227007774, -9433.285526428883, 0.176, 0.58, 0.798, 192.0, 0.0, 0.0, 0.0, 0.0, 0.0, 0.0, 0.0, 0.0, 0.0, 1.7426791101663692E9, 0.0, 2025-03-22 18:31:50.166
122.0, -3840.9908224333317, -5680.382928893916, -9608.880830869773, -10684.804401970436, -8753.188997887253, -7996.850669008573, -9908.48361354871, -9423.070779212807, 0.176, 0.58, 0.798, 192.0, 0.0, 0.0, 0.0, 0.0, 0.0, 0.0, 0.0, 0.0, 0.0, 1.7426791101664245E9, 0.0, 2025-03-22 18:31:50.166
123.0, -4261.762411804487, -5719.65494390189, -9626.985743878573, -10730.021981003521, -8680.724642363148, -8051.8359603686295, -9875.358328265946, -9422.132005945685, 0.176, 0.58, 0.798, 192.0, 0.0, 0.0, 0.0, 0.0, 0.0, 0.0, 0.0, 0.0, 0.0, 1.742679110166455E9, 0.0, 2025-03-22 18:31:50.166
124.0, -4460.447068267711, -5731.724885907756, -9644.017773153517, -10754.251271993075, -8660.183389208722, -8152.66467960652, -9874.71012767674, -9426.602354836745, 0.176, 0.58, 0.798, 192.0, 0.0, 0.0, 0.0, 0.0, 0.0, 0.0, 0.0, 0.0, 0.0, 1.7426791101664853E9, 0.0, 2025-03-22 18:31:50.166
125.0, -3926.9556316084427, -5683.176896950829, -9624.258831055025, -10714.956905240644, -8737.855701190914, -8115.739597766352, -9910.159994382859, -9433.464340384524, 0.176, 0.58, 0.798, 192.0, 0.0, 0.0, 0.0, 0.0, 0.0, 0.0, 0.0, 0.0, 0.0, 1.7426791101665115E9, 0.0, 2025-03-22 18:31:50.166
126.0, -3784.239743261307, -5674.593827079992, -9607.159746546717, -10682.569227524904, -8761.012108446612, -8004.897297012484, -9910.405863571867, -9424.456587369035, 0.176, 0.58, 0.798, 192.0, 0.0, 0.0, 0.0, 0.0, 0.0, 0.0, 0.0, 0.0, 0.0, 1.7426791101666243E9, 0.0, 2025-03-22 18:31:50.166
127.0, -4188.269876035438, -5711.4071501978815, -9621.308400786926, -10720.164861698731, -8689.374767467352, -8030.735913602819, -9876.319453277523, -9419.874479755697, 0.176, 0.58, 0.798, 192.0, 0.0, 0.0, 0.0, 0.0, 0.0, 0.0, 0.0, 0.0, 0.0, 1.7426791101666389E9, 0.0, 2025-03-22 18:31:50.166
128.0, -4472.517010273577, -5734.071819075563, -9642.14022661927, -10754.452437693171, -8653.410810638763, -8142.204063201436, -9870.016261341127, -9425.82004378081, 0.17400000000000002, 0.586, 0.794, 192.0, 5.0, 112.0, 18.0, 80.0, 24.0, 208.0, 0.0, 0.0, 0.0, 1.7426791101666524E9, 0.0, 2025-03-22 18:31:50.166
129.0, -4018.3742664306483, -5689.614199353958, -9627.678647956687, -10722.422387888717, -8721.114244593888, -8130.379990384578, -9904.4379478023, -9432.547918861857, 0.17400000000000002, 0.586, 0.794, 192.0, 0.0, 0.0, 0.0, 0.0, 0.0, 0.0, 0.0, 0.0, 0.0, 1.7426791101666672E9, 0.0, 2025-03-22 18:31:50.166
130.0, -3743.917196263933, -5670.861085755955, -9607.047987824439, -10682.144544380253, -8765.25893989312, -8018.621268108042, -9913.736273495708, -9426.490596114469, 0.17400000000000002, 0.586, 0.794, 192.0, 0.0, 0.0, 0.0, 0.0, 0.0, 0.0, 0.0, 0.0, 0.0, 1.74267911016668E9, 0.0, 2025-03-22 18:31:50.166
131.0, -4119.135930435173, -5705.774510595144, -9616.256906540026, -10710.68772204968, -8702.227020529153, -8014.307381428169, -9880.722746935218, -9418.6227820662, 0.17400000000000002, 0.586, 0.794, 192.0, 0.0, 0.0, 0.0, 0.0, 0.0, 0.0, 0.0, 0.0, 0.0, 1.7426791101666927E9, 0.0, 2025-03-22 18:31:50.166
132.0, -4464.492734014122, -5735.189406298328, -9638.921575417708, -10752.060801036454, -8651.443857126696, -8127.653077561031, -9866.484685717189, -9424.255421668939, 0.17400000000000002, 0.586, 0.794, 192.0, 0.0, 0.0, 0.0, 0.0, 0.0, 0.0, 0.0, 0.0, 0.0, 1.7426791101667051E9, 0.0, 2025-03-22 18:31:50.166
133.0, -4127.875462517198, -5700.387740181415, -9632.95365964814, -10732.45832114915, -8706.093872319922, -8144.32747892469, -9898.492383777188, -9433.151415962151, 0.17400000000000002, 0.586, 0.794, 192.0, 0.0, 0.0, 0.0, 0.0, 0.0, 0.0, 0.0, 0.0, 0.0, 1.742679110166718E9, 0.0, 2025-03-22 18:31:50.166
134.0, -3722.9959634537654, -5668.7376700327, -9608.344389002847, -10685.20673337063, -8766.175361415788, -8036.9273468169395, -9916.597296785987, -9430.066875227318, 0.17400000000000002, 0.586, 0.794, 192.0, 0.0, 0.0, 0.0, 0.0, 0.0, 0.0, 0.0, 0.0, 0.0, 1.7426791101667304E9, 0.0, 2025-03-22 18:31:50.166
135.0, -4035.026316049852, -5700.454795414781, -9615.318133272904, -10703.825736501902, -8718.186166070243, -8003.980875489817, -9889.663444717342, -9422.176709434594, 0.17400000000000002, 0.586, 0.794, 192.0, 0.0, 0.0, 0.0, 0.0, 0.0, 0.0, 0.0, 0.0, 0.0, 1.7426791101667428E9, 0.0, 2025-03-22 18:31:50.166
136.0, -4418.738713114109, -5733.311859764083, -9637.044028883462, -10749.22212949063, -8654.70721181717, -8110.621048286087, -9866.641147928376, -9425.216546680516, 0.17400000000000002, 0.586, 0.794, 192.0, 0.0, 0.0, 0.0, 0.0, 0.0, 0.0, 0.0, 0.0, 0.0, 1.742679110166756E9, 0.0, 2025-03-22 18:31:50.166
137.0, -4223.272707852449, -5711.921240320354, -9641.00028765205, -10743.45537942116, -8693.688654147227, -8156.397420930555, -9895.318436064534, -9435.498349129957, 0.17400000000000002, 0.586, 0.794, 192.0, 0.0, 0.0, 0.0, 0.0, 0.0, 0.0, 0.0, 0.0, 0.0, 1.7426791101667686E9, 0.0, 2025-03-22 18:31:50.166
138.0, -3732.495454847271, -5669.698795044279, -9612.635923938265, -10691.308759606929, -8763.493152081151, -8058.250911027302, -9917.379607841922, -9432.033828739384, 0.17200000000000001, 0.586, 0.796, 192.0, 5.0, 96.0, 18.0, 80.0, 24.0, 224.0, 0.0, 0.0, 0.0, 1.7426791101667812E9, 0.0, 2025-03-22 18:31:50.166
139.0, -3953.4648005324366, -5693.279885444628, -9613.552345460934, -10696.181439898186, -8732.535986010551, -7996.604799819565, -9895.206677342258, -9421.372046634204, 0.17200000000000001, 0.586, 0.796, 192.0, 0.0, 0.0, 0.0, 0.0, 0.0, 0.0, 0.0, 0.0, 0.0, 1.7426791101667943E9, 0.0, 2025-03-22 18:31:50.166
140.0, -4361.361785097335, -5725.108769548985, -9630.494967758057, -10739.767341586035, -8658.305842674476, -8086.682329974453, -9862.28255775959, -9417.929877988086, 0.17200000000000001, 0.586, 0.796, 192.0, 0.0, 0.0, 0.0, 0.0, 0.0, 0.0, 0.0, 0.0, 0.0, 1.7426791101668072E9, 0.0, 2025-03-22 18:31:50.166
141.0, -4318.3123252764135, -5714.983429310731, -9639.078037628895, -10743.991821288088, -8674.62261612685, -8155.27983370779, -9881.952092880261, -9425.775340291899, 0.17200000000000001, 0.586, 0.796, 192.0, 0.0, 0.0, 0.0, 0.0, 0.0, 0.0, 0.0, 0.0, 0.0, 1.7426791101668315E9, 0.0, 2025-03-22 18:31:50.166
142.0, -3759.518713893737, -5668.067117699042, -9612.971200105096, -10694.21448638612, -8754.485399065661, -8076.109954847093, -9914.20566012927, -9429.061046726829, 0.17200000000000001, 0.586, 0.796, 192.0, 0.0, 0.0, 0.0, 0.0, 0.0, 0.0, 0.0, 0.0, 0.0, 1.7426791101668444E9, 0.0, 2025-03-22 18:31:50.166
143.0, -3864.7954302782337, -5680.494687616192, -9606.422138979691, -10683.73151823658, -8740.873186692379, -7989.4969450827775, -9898.559439010554, -9416.924049487598, 0.17200000000000001, 0.586, 0.796, 192.0, 0.0, 0.0, 0.0, 0.0, 0.0, 0.0, 0.0, 0.0, 0.0, 1.7426791101668572E9, 0.0, 2025-03-22 18:31:50.166
144.0, -4291.311417974403, -5719.833757857533, -9627.14220608976, -10732.279507193507, -8667.581816623428, -8065.626986697554, -9865.255339772146, -9417.616953565712, 0.17200000000000001, 0.586, 0.796, 192.0, 0.0, 0.0, 0.0, 0.0, 0.0, 0.0, 0.0, 0.0, 0.0, 1.7426791101668696E9, 0.0, 2025-03-22 18:31:50.166
145.0, -4390.2178871891365, -5724.70643814879, -9643.078999886395, -10750.250309735575, -8665.078421244434, -8156.3750691861005, -9875.939473621784, -9425.752988547443, 0.17200000000000001, 0.586, 0.796, 192.0, 0.0, 0.0, 0.0, 0.0, 0.0, 0.0, 0.0, 0.0, 0.0, 1.742679110166882E9, 0.0, 2025-03-22 18:31:50.166
146.0, -3814.1240255980524, -5672.246893912184, -9616.838051895864, -10701.948189967656, -8744.293003594043, -8095.377158567568, -9909.131814137914, -9428.993991493464, 0.17200000000000001, 0.586, 0.796, 192.0, 0.0, 0.0, 0.0, 0.0, 0.0, 0.0, 0.0, 0.0, 0.0, 1.7426791101668944E9, 0.0, 2025-03-22 18:31:50.166
147.0, -3797.606086445581, -5674.12444044643, -9604.477537212078, -10678.702375734136, -8750.573843785984, -7992.246209650781, -9901.554572767565, -9417.39343612116, 0.17200000000000001, 0.586, 0.796, 192.0, 0.0, 0.0, 0.0, 0.0, 0.0, 0.0, 0.0, 0.0, 0.0, 1.7426791101669068E9, 0.0, 2025-03-22 18:31:50.166
148.0, -4219.383504317225, -5713.061179287574, -9621.6213252093, -10723.249402433563, -8676.47781091664, -8043.588166664621, -9867.401107239855, -9414.867688997709, 0.168, 0.582, 0.8, 192.0, 5.0, 64.0, 18.0, 48.0, 25.0, 0.0, 0.0, 0.0, 0.0, 1.742679110166919E9, 0.0, 2025-03-22 18:31:50.166
149.0, -4431.054524308983, -5729.892042862421, -9643.011944653028, -10752.619594647836, -8655.914206017758, -8150.228339460891, -9869.971557852215, -9422.690799557067, 0.168, 0.582, 0.8, 192.0, 0.0, 0.0, 0.0, 0.0, 0.0, 0.0, 0.0, 0.0, 0.0, 1.7426791101669326E9, 0.0, 2025-03-22 18:31:50.166
150.0, -3900.133538262074, -5680.0029492381755, -9622.515394987511, -10712.319399394919, -8731.68661972125, -8114.84552798814, -9905.600238513976, -9428.323439159803, 0.168, 0.582, 0.8, 192.0, 0.0, 0.0, 0.0, 0.0, 0.0, 0.0, 0.0, 0.0, 0.0, 1.7426791101669447E9, 0.0, 2025-03-22 18:31:50.166
151.0, -3738.753943294757, -5667.1506961763735, -9601.95179008863, -10675.439021043661, -8755.938262455256, -7999.778747532219, -9904.862630946951, -9416.275848898393, 0.168, 0.582, 0.8, 192.0, 0.0, 0.0, 0.0, 0.0, 0.0, 0.0, 0.0, 0.0, 0.0, 1.742679110166957E9, 0.0, 2025-03-22 18:31:50.166
152.0, -4148.640233116178, -5706.690932117812, -9617.642714696254, -10714.375759884806, -8687.810145355481, -8023.650410610487, -9871.223255541714, -9412.453700596536, 0.168, 0.582, 0.8, 192.0, 0.0, 0.0, 0.0, 0.0, 0.0, 0.0, 0.0, 0.0, 0.0, 1.7426791101669693E9, 0.0, 2025-03-22 18:31:50.166
153.0, -4447.572463461454, -5729.646173673413, -9637.312249816925, -10749.55740565746, -8647.688764058204, -8135.6550020760305, -9861.52259844811, -9417.035808209874, 0.168, 0.582, 0.8, 192.0, 0.0, 0.0, 0.0, 0.0, 0.0, 0.0, 0.0, 0.0, 0.0, 1.742679110166993E9, 0.0, 2025-03-22 18:31:50.166
154.0, -3999.643504577101, -5689.07775748703, -9626.963392134117, -10722.288277421985, -8717.716779436681, -8130.759970040318, -9899.67702623332, -9427.96581124852, 0.168, 0.582, 0.8, 192.0, 0.0, 0.0, 0.0, 0.0, 0.0, 0.0, 0.0, 0.0, 0.0, 1.742679110167006E9, 0.0, 2025-03-22 18:31:50.167
155.0, -3709.406102824939, -5669.765850277645, -9607.606781435821, -10681.58575076887, -8765.348346870942, -8018.755378574775, -9912.10459615047, -9423.137834446172, 0.168, 0.582, 0.8, 192.0, 0.0, 0.0, 0.0, 0.0, 0.0, 0.0, 0.0, 0.0, 0.0, 1.742679110167018E9, 0.0, 2025-03-22 18:31:50.167
156.0, -4082.4567177840136, -5705.08160651703, -9618.045046096451, -10709.972466227111, -8704.193974041222, -8011.088730226605, -9879.940435879284, -9415.694703542555, 0.168, 0.582, 0.8, 192.0, 0.0, 0.0, 0.0, 0.0, 0.0, 0.0, 0.0, 0.0, 0.0, 1.7426791101670306E9, 0.0, 2025-03-22 18:31:50.167
157.0, -4426.15949227327, -5731.903699863398, -9637.6251742393, -10750.093847524387, -8649.767476292549, -8122.758045525318, -9862.528426948598, -9418.95805823303, 0.168, 0.582, 0.8, 192.0, 0.0, 0.0, 0.0, 0.0, 0.0, 0.0, 0.0, 0.0, 0.0, 1.742679110167053E9, 0.0, 2025-03-22 18:31:50.167
158.0, -4098.237049369461, -5699.918353547854, -9635.188834093671, -10733.352390927363, -8704.708064163693, -8145.355659169634, -9896.592485498488, -9429.597488593756, 0.168, 0.58, 0.8, 192.0, 5.0, 64.0, 18.0, 32.0, 25.0, 0.0, 0.0, 0.0, 0.0, 1.7426791101670656E9, 0.0, 2025-03-22 18:31:50.167
159.0, -3691.3011898161403, -5667.105992687463, -9610.020769836996, -10684.35736708133, -8765.102477681932, -8036.703829372386, -9914.272715362635, -9425.19419493606, 0.168, 0.58, 0.8, 192.0, 0.0, 0.0, 0.0, 0.0, 0.0, 0.0, 0.0, 0.0, 0.0, 1.7426791101670785E9, 0.0, 2025-03-22 18:31:50.167
160.0, -4001.0516644777854, -5698.13021399143, -9614.334656516869, -10700.383567855784, -8717.649724203317, -7998.147070186981, -9886.936531893794, -9415.828814009288, 0.168, 0.58, 0.8, 192.0, 0.0, 0.0, 0.0, 0.0, 0.0, 0.0, 0.0, 0.0, 0.0, 1.7426791101670911E9, 0.0, 2025-03-22 18:31:50.167
161.0, -4388.653265077265, -5731.590775441025, -9634.630040482289, -10745.534091655505, -8653.1425897053, -8103.803766227218, -9862.349612992957, -9418.041636710363, 0.168, 0.58, 0.8, 192.0, 0.0, 0.0, 0.0, 0.0, 0.0, 0.0, 0.0, 0.0, 0.0, 1.7426791101671035E9, 0.0, 2025-03-22 18:31:50.167
162.0, -4220.188167117616, -5711.831833342532, -9638.318078317414, -10740.147321241775, -8688.033662800033, -8152.03883076177, -9888.09882260547, -9426.669410070112, 0.168, 0.58, 0.8, 192.0, 0.0, 0.0, 0.0, 0.0, 0.0, 0.0, 0.0, 0.0, 0.0, 1.742679110167116E9, 0.0, 2025-03-22 18:31:50.167
163.0, -3723.4877018317825, -5669.542332833092, -9610.534859959467, -10688.335977594374, -8759.603948545928, -8054.1828935364365, -9911.478747305722, -9424.925974002597, 0.168, 0.58, 0.8, 192.0, 0.0, 0.0, 0.0, 0.0, 0.0, 0.0, 0.0, 0.0, 0.0, 1.7426791101671288E9, 0.0, 2025-03-22 18:31:50.167
164.0, -3938.422076514015, -5693.45869940027, -9611.451281482136, -10692.940436952167, -8730.166701098287, -7989.988683460794, -9891.33982555149, -9416.544069831858, 0.168, 0.58, 0.8, 192.0, 0.0, 0.0, 0.0, 0.0, 0.0, 0.0, 0.0, 0.0, 0.0, 1.7426791101671412E9, 0.0, 2025-03-22 18:31:50.167
165.0, -4342.9662994106175, -5729.735580651233, -9631.523148003, -10741.466074164638, -8660.205740953177, -8083.418975283978, -9862.19315078177, -9418.555726832834, 0.168, 0.58, 0.8, 192.0, 0.0, 0.0, 0.0, 0.0, 0.0, 0.0, 0.0, 0.0, 0.0, 1.7426791101671536E9, 0.0, 2025-03-22 18:31:50.167
166.0, -4316.2559647865255, -5725.309935249083, -9644.487159787079, -10750.630289391314, -8678.198895239699, -8159.660775621031, -9883.76258418114, -9430.335096160781, 0.168, 0.58, 0.8, 192.0, 0.0, 0.0, 0.0, 0.0, 0.0, 0.0, 0.0, 0.0, 0.0, 1.7426791101671658E9, 0.0, 2025-03-22 18:31:50.167
167.0, -3777.3107024801616, -5680.271170171639, -9619.117929830305, -10700.629437044792, -8757.547588056039, -8081.519077005277, -9914.071549662536, -9432.68202932859, 0.168, 0.58, 0.8, 192.0, 0.0, 0.0, 0.0, 0.0, 0.0, 0.0, 0.0, 0.0, 0.0, 1.7426791101671784E9, 0.0, 2025-03-22 18:31:50.167
168.0, -3888.264761956306, -5691.782318566122, -9611.630095437777, -10688.06775666091, -8744.628279760871, -7990.569828816632, -9897.419500043334, -9418.846299510753, 0.176, 0.58, 0.796, 192.0, 5.0, 128.0, 18.0, 32.0, 24.0, 224.0, 0.0, 0.0, 0.0, 1.7426791101671906E9, 0.0, 2025-03-22 18:31:50.167
169.0, -4299.08982504485, -5727.165130038873, -9628.259793312525, -10733.464149649639, -8669.034680013023, -8061.983652351339, -9863.422496726811, -9417.035808209874, 0.176, 0.58, 0.796, 192.0, 0.0, 0.0, 0.0, 0.0, 0.0, 0.0, 0.0, 0.0, 0.0, 1.742679110167204E9, 0.0, 2025-03-22 18:31:50.167
170.0, -4403.695989095687, -5729.690877162323, -9641.134398118782, -10748.663335879248, -8661.636252598317, -8152.485865650877, -9870.776220652608, -9422.735503045977, 0.176, 0.58, 0.796, 192.0, 0.0, 0.0, 0.0, 0.0, 0.0, 0.0, 0.0, 0.0, 0.0, 1.7426791101672163E9, 0.0, 2025-03-22 18:31:50.167
171.0, -3853.887778984044, -5681.276998672128, -9618.603839707834, -10702.931666723689, -8742.191939615243, -8095.354806823112, -9905.91316293635, -9427.809349037332, 0.176, 0.58, 0.796, 192.0, 0.0, 0.0, 0.0, 0.0, 0.0, 0.0, 0.0, 0.0, 0.0, 1.7426791101672287E9, 0.0, 2025-03-22 18:31:50.167
172.0, -3837.749819487312, -5684.428594640326, -9607.696188413644, -10680.266997846007, -8752.138465897855, -7990.234552649803, -9901.174593111826, -9418.041636710363, 0.176, 0.58, 0.796, 192.0, 0.0, 0.0, 0.0, 0.0, 0.0, 0.0, 0.0, 0.0, 0.0, 1.742679110167241E9, 0.0, 2025-03-22 18:31:50.167
173.0, -4252.93347274464, -5724.03588581513, -9625.778749677987, -10725.685742579191, -8680.054090029489, -8039.900128829495, -9868.719860162719, -9418.555726832834, 0.176, 0.58, 0.796, 192.0, 0.0, 0.0, 0.0, 0.0, 0.0, 0.0, 0.0, 0.0, 0.0, 1.7426791101672635E9, 0.0, 2025-03-22 18:31:50.167
174.0, -4460.514123501078, -5739.525644722658, -9644.710677231631, -10753.804237103968, -8656.361240906865, -8147.322612681701, -9869.166895051825, -9426.445892625557, 0.176, 0.58, 0.796, 192.0, 0.0, 0.0, 0.0, 0.0, 0.0, 0.0, 0.0, 0.0, 0.0, 1.742679110167276E9, 0.0, 2025-03-22 18:31:50.167
175.0, -3952.2131028429394, -5692.7434435777, -9627.030447367484, -10715.247477918563, -8732.15600635481, -8115.940763466449, -9905.555535025065, -9432.972602006508, 0.176, 0.58, 0.796, 192.0, 0.0, 0.0, 0.0, 0.0, 0.0, 0.0, 0.0, 0.0, 0.0, 1.7426791101672883E9, 0.0, 2025-03-22 18:31:50.167
176.0, -3792.733406154324, -5681.701681816779, -9608.925534358685, -10679.73055597908, -8760.92270146879, -8001.4104248774565, -9907.656599003863, -9423.026075723896, 0.176, 0.58, 0.796, 192.0, 0.0, 0.0, 0.0, 0.0, 0.0, 0.0, 0.0, 0.0, 0.0, 1.7426791101673007E9, 0.0, 2025-03-22 18:31:50.167
177.0, -4185.341797511792, -5717.062141545074, -9620.90606938673, -10715.426291874206, -8690.67116864576, -8019.090654741604, -9872.005566597649, -9417.281677398882, 0.176, 0.58, 0.796, 192.0, 0.0, 0.0, 0.0, 0.0, 0.0, 0.0, 0.0, 0.0, 0.0, 1.7426791101673133E9, 0.0, 2025-03-22 18:31:50.167
178.0, -4474.416908552278, -5740.129141822951, -9641.693191730164, -10751.613766147348, -8649.1416274478, -8133.375124141589, -9862.059040315038, -9422.95902049053, 0.176, 0.5760000000000001, 0.794, 192.0, 5.0, 128.0, 18.0, 0.0, 24.0, 208.0, 0.0, 0.0, 0.0, 1.742679110167326E9, 0.0, 2025-03-22 18:31:50.167
179.0, -4049.622005179168, -5698.3760831804375, -9629.399732279746, -10721.953001255155, -8713.96168636819, -8128.793016528251, -9896.81600294304, -9429.91041301613, 0.176, 0.5760000000000001, 0.794, 192.0, 0.0, 0.0, 0.0, 0.0, 0.0, 0.0, 0.0, 0.0, 0.0, 1.7426791101673388E9, 0.0, 2025-03-22 18:31:50.167
180.0, -3755.562455125148, -5675.443193369293, -9606.444490724147, -10677.78595421147, -8760.92270146879, -8013.30155292768, -9907.701302492775, -9421.528508845391, 0.176, 0.5760000000000001, 0.794, 192.0, 0.0, 0.0, 0.0, 0.0, 0.0, 0.0, 0.0, 0.0, 0.0, 1.7426791101673512E9, 0.0, 2025-03-22 18:31:50.167
181.0, -4111.379875109181, -5708.680237374335, -9615.13931931726, -10704.630399302292, -8701.422357728763, -8001.432776621912, -9876.364156766434, -9414.375950619693, 0.176, 0.5760000000000001, 0.794, 192.0, 0.0, 0.0, 0.0, 0.0, 0.0, 0.0, 0.0, 0.0, 0.0, 1.7426791101673632E9, 0.0, 2025-03-22 18:31:50.167
182.0, -4451.2605012965805, -5738.4080574998925, -9636.66404922772, -10747.858673078856, -8647.487598358108, -8116.432501844467, -9859.577996680498, -9420.14270068916, 0.176, 0.5760000000000001, 0.794, 192.0, 0.0, 0.0, 0.0, 0.0, 0.0, 0.0, 0.0, 0.0, 0.0, 1.7426791101673756E9, 0.0, 2025-03-22 18:31:50.167
183.0, -4146.986204026485, -5705.640400128413, -9631.500796258546, -10729.55259436996, -8696.952008837701, -8139.99124050036, -9889.551685995066, -9427.33996240377, 0.176, 0.5760000000000001, 0.794, 192.0, 0.0, 0.0, 0.0, 0.0, 0.0, 0.0, 0.0, 0.0, 0.0, 1.742679110167388E9, 0.0, 2025-03-22 18:31:50.167
184.0, -3739.2233299283184, -5672.068079956542, -9605.393958734747, -10680.132887379275, -8758.531064812072, -8031.026486280738, -9907.656599003863, -9421.86378501222, 0.176, 0.5760000000000001, 0.794, 192.0, 0.0, 0.0, 0.0, 0.0, 0.0, 0.0, 0.0, 0.0, 0.0, 1.7426791101674004E9, 0.0, 2025-03-22 18:31:50.167
185.0, -4035.5404061723243, -5699.918353547854, -9608.970237847596, -10694.236838130575, -8712.173546811766, -7988.2675991377355, -9880.05219460156, -9411.358465118226, 0.176, 0.5760000000000001, 0.794, 192.0, 0.0, 0.0, 0.0, 0.0, 0.0, 0.0, 0.0, 0.0, 0.0, 1.7426791101674125E9, 0.0, 2025-03-22 18:31:50.167
186.0, -4409.239221720603, -5731.344906252016, -9628.773883434998, -10739.8343968194, -8646.638232068806, -8093.767832966785, -9853.85595009994, -9413.548936074845, 0.176, 0.5760000000000001, 0.794, 192.0, 0.0, 0.0, 0.0, 0.0, 0.0, 0.0, 0.0, 0.0, 0.0, 1.742679110167425E9, 0.0, 2025-03-22 18:31:50.167
187.0, -4243.836312751331, -5712.524737420647, -9633.423046281701, -10735.922841539723, -8679.875276073846, -8147.009688259326, -9880.342767279479, -9422.847261768255, 0.176, 0.5760000000000001, 0.794, 192.0, 0.0, 0.0, 0.0, 0.0, 0.0, 0.0, 0.0, 0.0, 0.0, 1.742679110167437E9, 0.0, 2025-03-22 18:31:50.167
188.0, -3747.69464107688, -5669.274111899628, -9605.23749652356, -10683.262131603018, -8751.78083798657, -8049.846655112106, -9904.035616402105, -9418.95805823303, 0.168, 0.582, 0.792, 192.0, 5.0, 64.0, 18.0, 48.0, 24.0, 192.0, 0.0, 0.0, 0.0, 1.742679110167459E9, 0.0, 2025-03-22 18:31:50.167
189.0, -3948.413306285537, -5691.1564697213735, -9605.773938390486, -10686.167858382209, -8725.249317318121, -7981.584427545599, -9885.751889437663, -9409.011531950418, 0.168, 0.582, 0.792, 192.0, 0.0, 0.0, 0.0, 0.0, 0.0, 0.0, 0.0, 0.0, 0.0, 1.7426791101674724E9, 0.0, 2025-03-22 18:31:50.167
190.0, -4336.90897666323, -5727.478054461248, -9627.05279911194, -10735.788731072991, -8655.511874617563, -8075.104126346604, -9858.035726313083, -9412.520755829903, 0.168, 0.582, 0.792, 192.0, 0.0, 0.0, 0.0, 0.0, 0.0, 0.0, 0.0, 0.0, 0.0, 1.742679110167485E9, 0.0, 2025-03-22 18:31:50.167
191.0, -4325.71075269112, -5720.169034024362, -9636.149959105249, -10741.89075730929, -8665.52545613354, -8150.205987716436, -9871.759697408641, -9418.779244277388, 0.168, 0.582, 0.792, 192.0, 0.0, 0.0, 0.0, 0.0, 0.0, 0.0, 0.0, 0.0, 0.0, 1.7426791101674972E9, 0.0, 2025-03-22 18:31:50.167
192.0, -3771.298083221684, -5673.610350323957, -9612.18888904916, -10693.655692774737, -8746.706991995216, -8074.970015879872, -9905.332017580511, -9423.24959316845, 0.168, 0.582, 0.792, 192.0, 0.0, 0.0, 0.0, 0.0, 0.0, 0.0, 0.0, 0.0, 0.0, 1.7426791101675093E9, 0.0, 2025-03-22 18:31:50.167
193.0, -3859.0063284643093, -5684.920333018343, -9606.28802851296, -10681.898675191245, -8739.174454113776, -7983.014939190739, -9892.166840096335, -9412.118424429706, 0.168, 0.582, 0.792, 192.0, 0.0, 0.0, 0.0, 0.0, 0.0, 0.0, 0.0, 0.0, 0.0, 1.7426791101675215E9, 0.0, 2025-03-22 18:31:50.167
194.0, -4261.94122576013, -5721.733656136234, -9624.638810710765, -10729.530242625504, -8665.704270089182, -8054.40641098099, -9859.600348424954, -9412.453700596536, 0.168, 0.582, 0.792, 192.0, 0.0, 0.0, 0.0, 0.0, 0.0, 0.0, 0.0, 0.0, 0.0, 1.7426791101675336E9, 0.0, 2025-03-22 18:31:50.167
195.0, -4370.2577793905475, -5727.031019572141, -9640.106217873838, -10748.328059712418, -8657.367069407353, -8150.585967372176, -9867.669328173319, -9420.00859022243, 0.168, 0.582, 0.792, 192.0, 0.0, 0.0, 0.0, 0.0, 0.0, 0.0, 0.0, 0.0, 0.0, 1.7426791101675463E9, 0.0, 2025-03-22 18:31:50.167
196.0, -3815.196909331907, -5676.605484080968, -9616.882755384775, -10702.26111439003, -8737.095741879433, -8096.047710901226, -9902.850973945973, -9425.037732724873, 0.168, 0.582, 0.792, 192.0, 0.0, 0.0, 0.0, 0.0, 0.0, 0.0, 0.0, 0.0, 0.0, 1.7426791101675584E9, 0.0, 2025-03-22 18:31:50.167
197.0, -3770.918103565944, -5676.113745702952, -9604.075205811883, -10676.467201288606, -8749.456256563219, -7987.999378204272, -9898.62649424392, -9414.241840152961, 0.168, 0.582, 0.792, 192.0, 0.0, 0.0, 0.0, 0.0, 0.0, 0.0, 0.0, 0.0, 0.0, 1.7426791101675708E9, 0.0, 2025-03-22 18:31:50.167
198.0, -4177.496335207979, -5714.603449654991, -9621.353104275835, -10720.92482101021, -8677.640101628316, -8034.06632352666, -9865.545912450065, -9412.476052340991, 0.17200000000000001, 0.584, 0.794, 192.0, 5.0, 96.0, 18.0, 64.0, 24.0, 208.0, 0.0, 0.0, 0.0, 1.742679110167583E9, 0.0, 2025-03-22 18:31:50.167
199.0, -4393.101262223871, -5732.730714408245, -9642.76607546402, -10752.105504525365, -8652.76261004956, -8145.556824869732, -9865.747078150163, -9421.19323267856, 0.17200000000000001, 0.584, 0.794, 192.0, 0.0, 0.0, 0.0, 0.0, 0.0, 0.0, 0.0, 0.0, 0.0, 1.742679110167596E9, 0.0, 2025-03-22 18:31:50.167
200.0, -3885.806070066222, -5688.563667364558, -9628.326848545892, -10716.901507008257, -8730.43492203175, -8120.366408868601, -9904.773223969129, -9430.737427560976, 0.17200000000000001, 0.584, 0.794, 192.0, 0.0, 0.0, 0.0, 0.0, 0.0, 0.0, 0.0, 0.0, 0.0, 1.7426791101676083E9, 0.0, 2025-03-22 18:31:50.167
201.0, -3707.394445823961, -5675.5996555804795, -9609.260810525515, -10679.574093767893, -8761.123867168888, -8003.779709789719, -9908.081282148514, -9420.477976855991, 0.17200000000000001, 0.584, 0.794, 192.0, 0.0, 0.0, 0.0, 0.0, 0.0, 0.0, 0.0, 0.0, 0.0, 1.7426791101676204E9, 0.0, 2025-03-22 18:31:50.167
202.0, -4099.153470892128, -5711.5189089201585, -9621.755435676032, -10715.180422685198, -8692.794584369014, -8018.39775066349, -9873.123153820414, -9413.973619219496, 0.17200000000000001, 0.584, 0.794, 192.0, 0.0, 0.0, 0.0, 0.0, 0.0, 0.0, 0.0, 0.0, 0.0, 1.7426791101676323E9, 0.0, 2025-03-22 18:31:50.167
203.0, -4391.313122667447, -5734.764723153678, -9641.849653941352, -10751.949042314178, -8649.834531525914, -8133.241013674858, -9861.634357170387, -9418.891002999664, 0.17200000000000001, 0.584, 0.794, 192.0, 0.0, 0.0, 0.0, 0.0, 0.0, 0.0, 0.0, 0.0, 0.0, 1.7426791101676445E9, 0.0, 2025-03-22 18:31:50.167
204.0, -3972.0391001747967, -5695.068025001053, -9631.590203236367, -10725.26105943454, -8715.191032313232, -8134.090379964159, -9898.201811099269, -9428.904584515642, 0.17200000000000001, 0.584, 0.794, 192.0, 0.0, 0.0, 0.0, 0.0, 0.0, 0.0, 0.0, 0.0, 0.0, 1.742679110167666E9, 0.0, 2025-03-22 18:31:50.167
205.0, -3667.6083406935145, -5670.88343750041, -9608.165575047204, -10679.909369934723, -8763.090820680954, -8017.995419263294, -9909.690607749297, -9421.975543734497, 0.17200000000000001, 0.584, 0.794, 192.0, 0.0, 0.0, 0.0, 0.0, 0.0, 0.0, 0.0, 0.0, 0.0, 1.742679110167678E9, 0.0, 2025-03-22 18:31:50.167
206.0, -4028.097275268707, -5704.455757672282, -9616.927458873684, -10705.479765591594, -8704.685712419237, -8001.991570233295, -9877.660557944842, -9412.878383741187, 0.17200000000000001, 0.584, 0.794, 192.0, 0.0, 0.0, 0.0, 0.0, 0.0, 0.0, 0.0, 0.0, 0.0, 1.7426791101676905E9, 0.0, 2025-03-22 18:31:50.167
207.0, -4364.714546765631, -5733.714191164278, -9639.212148095627, -10749.065667279443, -8650.326269903931, -8116.723074522385, -9860.248549014157, -9417.639305310167, 0.17200000000000001, 0.584, 0.794, 192.0, 0.0, 0.0, 0.0, 0.0, 0.0, 0.0, 0.0, 0.0, 0.0, 1.7426791101677024E9, 0.0, 2025-03-22 18:31:50.167
208.0, -4076.2205810809833, -5705.08160651703, -9638.34043006187, -10734.425274661216, -8700.707101906193, -8146.875577792594, -9892.300950563067, -9427.652886826145, 0.17400000000000002, 0.582, 0.794, 192.0, 5.0, 112.0, 18.0, 48.0, 24.0, 208.0, 0.0, 0.0, 0.0, 1.7426791101677153E9, 0.0, 2025-03-22 18:31:50.167
209.0, -3663.763840647202, -5670.8387340115, -9613.23942103856, -10684.558532781426, -8765.080125937477, -8038.201396250892, -9906.96369492575, -9423.875442013197, 0.17400000000000002, 0.582, 0.794, 192.0, 0.0, 0.0, 0.0, 0.0, 0.0, 0.0, 0.0, 0.0, 0.0, 1.742679110167728E9, 0.0, 2025-03-22 18:31:50.167
210.0, -3958.06925989023, -5700.052464014586, -9618.827357152386, -10699.645960288759, -8722.410645772296, -7992.894410239985, -9877.884075389395, -9415.806462264833, 0.17400000000000002, 0.582, 0.794, 192.0, 0.0, 0.0, 0.0, 0.0, 0.0, 0.0, 0.0, 0.0, 0.0, 1.74267911016774E9, 0.0, 2025-03-22 18:31:50.167
211.0, -4325.755456180031, -5731.702534163301, -9638.094560872862, -10746.048181777976, -8656.651813584784, -8097.5005742908215, -9852.00075531015, -9419.29333439986, 0.17400000000000002, 0.582, 0.794, 192.0, 0.0, 0.0, 0.0, 0.0, 0.0, 0.0, 0.0, 0.0, 0.0, 1.7426791101677525E9, 0.0, 2025-03-22 18:31:50.167
212.0, -4181.050262576373, -5714.245821743706, -9643.235462097582, -10742.673068365226, -8686.67020638826, -8153.782266829285, -9876.498267233166, -9428.345790904259, 0.17400000000000002, 0.582, 0.794, 192.0, 0.0, 0.0, 0.0, 0.0, 0.0, 0.0, 0.0, 0.0, 0.0, 1.742679110167765E9, 0.0, 2025-03-22 18:31:50.167
213.0, -3685.623846724492, -5673.520943346137, -9618.872060641297, -10692.851029974347, -8761.839122991458, -8061.313100017679, -9904.19207861329, -9428.234032181983, 0.17400000000000002, 0.582, 0.794, 192.0, 0.0, 0.0, 0.0, 0.0, 0.0, 0.0, 0.0, 0.0, 0.0, 1.7426791101677773E9, 0.0, 2025-03-22 18:31:50.167
214.0, -3884.4202619099933, -5693.749272078189, -9616.972162362596, -10692.828678229891, -8735.061733134, -7987.999378204272, -9884.075508603515, -9416.544069831858, 0.17400000000000002, 0.582, 0.794, 192.0, 0.0, 0.0, 0.0, 0.0, 0.0, 0.0, 0.0, 0.0, 0.0, 1.7426791101677892E9, 0.0, 2025-03-22 18:31:50.167
215.0, -4273.139449732238, -5729.065028317575, -9636.753456205543, -10742.158978242753, -8664.273758444042, -8078.568646737176, -9856.314641990024, -9419.159223933128, 0.17400000000000002, 0.582, 0.794, 192.0, 0.0, 0.0, 0.0, 0.0, 0.0, 0.0, 0.0, 0.0, 0.0, 1.7426791101678016E9, 0.0, 2025-03-22 18:31:50.167
216.0, -4269.451411897113, -5723.074760803552, -9645.761209221031, -10749.624460890826, -8672.521552148051, -8157.112676753125, -9873.726650920707, -9425.082436213785, 0.17400000000000002, 0.582, 0.794, 192.0, 0.0, 0.0, 0.0, 0.0, 0.0, 0.0, 0.0, 0.0, 0.0, 1.742679110167814E9, 0.0, 2025-03-22 18:31:50.167
217.0, -3720.2466988857627, -5676.180800936318, -9620.86136589782, -10700.316512622418, -8753.1666461428, -8082.971940394872, -9908.48361354871, -9427.25055542595, 0.17400000000000002, 0.582, 0.794, 192.0, 0.0, 0.0, 0.0, 0.0, 0.0, 0.0, 0.0, 0.0, 0.0, 1.7426791101678264E9, 0.0, 2025-03-22 18:31:50.167
218.0, -3794.342731755106, -5686.596713852491, -9614.133490816772, -10687.061928160421, -8747.846930962436, -7988.62522704902, -9898.715901221742, -9417.39343612116, 0.18, 0.584, 0.804, 192.0, 5.0, 160.0, 18.0, 64.0, 25.0, 32.0, 0.0, 0.0, 0.0, 1.742679110167847E9, 0.0, 2025-03-22 18:31:50.167
219.0, -4195.847117405787, -5722.963002081276, -9631.85842416983, -10734.000591516566, -8673.795601582004, -8056.887454615528, -9865.322395005513, -9417.7734157769, 0.18, 0.584, 0.804, 192.0, 0.0, 0.0, 0.0, 0.0, 0.0, 0.0, 0.0, 0.0, 0.0, 1.7426791101678696E9, 0.0, 2025-03-22 18:31:50.167
220.0, -4310.2656972725035, -5729.243842273217, -9647.549348777455, -10753.960699315156, -8663.849075299391, -8155.659813363531, -9872.4302497423, -9425.86474726972, 0.18, 0.584, 0.804, 192.0, 0.0, 0.0, 0.0, 0.0, 0.0, 0.0, 0.0, 0.0, 0.0, 1.742679110167882E9, 0.0, 2025-03-22 18:31:50.167
221.0, -3771.0522140326757, -5682.014606239153, -9627.43277876768, -10710.330094138395, -8744.047134405033, -8106.329513350668, -9909.444738560289, -9432.167939206116, 0.18, 0.584, 0.804, 192.0, 0.0, 0.0, 0.0, 0.0, 0.0, 0.0, 0.0, 0.0, 0.0, 1.7426791101678946E9, 0.0, 2025-03-22 18:31:50.167
222.0, -3722.6159837980254, -5679.779431793622, -9613.507641972023, -10682.770393225002, -8757.458181078218, -7995.084881196604, -9905.890811191895, -9420.34386638926, 0.18, 0.584, 0.804, 192.0, 0.0, 0.0, 0.0, 0.0, 0.0, 0.0, 0.0, 0.0, 0.0, 1.742679110167907E9, 0.0, 2025-03-22 18:31:50.167
223.0, -4126.8919857611645, -5717.598583412002, -9629.600897979844, -10726.244536190574, -8685.329101720941, -8036.592070650109, -9871.938511364284, -9418.935706488575, 0.18, 0.584, 0.804, 192.0, 0.0, 0.0, 0.0, 0.0, 0.0, 0.0, 0.0, 0.0, 0.0, 1.7426791101679192E9, 0.0, 2025-03-22 18:31:50.167
224.0, -4344.486218033579, -5732.70836266379, -9646.588223765877, -10754.832417348913, -8655.42246763974, -8146.495598136855, -9866.819961884017, -9424.523642602402, 0.18, 0.584, 0.804, 192.0, 0.0, 0.0, 0.0, 0.0, 0.0, 0.0, 0.0, 0.0, 0.0, 1.742679110167932E9, 0.0, 2025-03-22 18:31:50.167
225.0, -3841.3708020890717, -5687.870763286443, -9631.389037536268, -10719.136681453787, -8730.569032498483, -8123.719170536897, -9905.421424558333, -9433.374933406703, 0.18, 0.584, 0.804, 192.0, 0.0, 0.0, 0.0, 0.0, 0.0, 0.0, 0.0, 0.0, 0.0, 1.742679110167944E9, 0.0, 2025-03-22 18:31:50.167
226.0, -3668.34594826054, -5675.331434647016, -9613.462938483113, -10681.831619957879, -8763.314338125509, -8006.663084824453, -9910.227049616224, -9422.757854790432, 0.18, 0.584, 0.804, 192.0, 0.0, 0.0, 0.0, 0.0, 0.0, 0.0, 0.0, 0.0, 0.0, 1.7426791101679566E9, 0.0, 2025-03-22 18:31:50.167
227.0, -4061.937816374042, -5710.624839141946, -9625.130549088783, -10716.476823863606, -8695.677959403749, -8016.609611107066, -9874.598368954465, -9416.097034942752, 0.18, 0.584, 0.804, 192.0, 0.0, 0.0, 0.0, 0.0, 0.0, 0.0, 0.0, 0.0, 0.0, 1.7426791101679688E9, 0.0, 2025-03-22 18:31:50.167
228.0, -4348.487180291078, -5731.702534163301, -9642.877834186296, -10751.770228358535, -8649.834531525914, -8130.759970040318, -9860.270900758613, -9419.785072777877, 0.178, 0.578, 0.806, 192.0, 5.0, 144.0, 18.0, 16.0, 25.0, 48.0, 0.0, 0.0, 0.0, 1.7426791101679952E9, 0.0, 2025-03-22 18:31:50.167
229.0, -3941.2830998042946, -5693.5034028891805, -9634.294764315458, -10726.021018746022, -8713.760520668093, -8135.811464287218, -9896.368968053934, -9429.262212426927, 0.178, 0.578, 0.806, 192.0, 0.0, 0.0, 0.0, 0.0, 0.0, 0.0, 0.0, 0.0, 0.0, 1.7426791101680088E9, 0.0, 2025-03-22 18:31:50.168
230.0, -3638.081686268054, -5669.385870621904, -9611.80890939342, -10680.646977501749, -8764.074297436988, -8019.671800097442, -9909.221221115735, -9421.81908152331, 0.178, 0.578, 0.806, 192.0, 0.0, 0.0, 0.0, 0.0, 0.0, 0.0, 0.0, 0.0, 0.0, 1.7426791101680212E9, 0.0, 2025-03-22 18:31:50.168
231.0, -3980.8009840012774, -5701.7959000821, -9620.5707932199, -10706.172669669708, -8707.72554966516, -7999.912857998951, -9879.448697501266, -9414.845337253253, 0.178, 0.578, 0.806, 192.0, 0.0, 0.0, 0.0, 0.0, 0.0, 0.0, 0.0, 0.0, 0.0, 1.742679110168034E9, 0.0, 2025-03-22 18:31:50.168
232.0, -4306.488252459557, -5729.46735971777, -9639.994459151561, -10748.8868533238, -8651.220339682144, -8113.660885532008, -9860.159142036337, -9420.00859022243, 0.178, 0.578, 0.806, 192.0, 0.0, 0.0, 0.0, 0.0, 0.0, 0.0, 0.0, 0.0, 0.0, 1.7426791101680462E9, 0.0, 2025-03-22 18:31:50.168
233.0, -4031.450036937003, -5701.035940770619, -9637.267546328014, -10733.330039182907, -8697.600209426906, -8146.070914992204, -9889.551685995066, -9428.43519788208, 0.178, 0.578, 0.806, 192.0, 0.0, 0.0, 0.0, 0.0, 0.0, 0.0, 0.0, 0.0, 0.0, 1.7426791101680589E9, 0.0, 2025-03-22 18:31:50.168
234.0, -3625.274136695163, -5667.530675832114, -9612.457109982624, -10683.284483347474, -8761.861474735913, -8038.670782884453, -9909.511793793654, -9423.495462357458, 0.178, 0.578, 0.806, 192.0, 0.0, 0.0, 0.0, 0.0, 0.0, 0.0, 0.0, 0.0, 0.0, 1.7426791101680713E9, 0.0, 2025-03-22 18:31:50.168
235.0, -3906.7943581097556, -5696.543240135103, -9618.42502575219, -10697.83546898788, -8722.857680661402, -7990.122793927526, -9886.176572582313, -9415.381779120182, 0.178, 0.578, 0.806, 192.0, 0.0, 0.0, 0.0, 0.0, 0.0, 0.0, 0.0, 0.0, 0.0, 1.742679110168094E9, 0.0, 2025-03-22 18:31:50.168
236.0, -4276.358100933802, -5728.70740040629, -9638.34043006187, -10745.087056766399, -8657.657642085273, -8094.5054405338105, -9859.555644936043, -9418.756892532932, 0.178, 0.578, 0.806, 192.0, 0.0, 0.0, 0.0, 0.0, 0.0, 0.0, 0.0, 0.0, 0.0, 1.7426791101681063E9, 0.0, 2025-03-22 18:31:50.168
237.0, -4140.370087667714, -5713.08353103203, -9644.28599408698, -10743.567138143437, -8686.200819754698, -8155.391592430066, -9884.030805114604, -9428.904584515642, 0.178, 0.578, 0.806, 192.0, 0.0, 0.0, 0.0, 0.0, 0.0, 0.0, 0.0, 0.0, 0.0, 1.742679110168119E9, 0.0, 2025-03-22 18:31:50.168
238.0, -3638.729886857258, -5672.582170079014, -9620.23551705307, -10694.21448638612, -8762.35321311393, -8065.537579719732, -9914.67504676283, -9430.715075816523, 0.182, 0.5720000000000001, 0.8, 192.0, 5.0, 176.0, 17.0, 224.0, 25.0, 0.0, 0.0, 0.0, 0.0, 1.742679110168131E9, 0.0, 2025-03-22 18:31:50.168
239.0, -3830.2843368392396, -5692.966961022254, -9619.386150763768, -10693.54393405246, -8739.39797155833, -7988.446413093378, -9896.748947709673, -9420.075645455796, 0.182, 0.5720000000000001, 0.8, 192.0, 0.0, 0.0, 0.0, 0.0, 0.0, 0.0, 0.0, 0.0, 0.0, 1.7426791101681445E9, 0.0, 2025-03-22 18:31:50.168
240.0, -4216.388370560214, -5725.444045715814, -9636.172310849704, -10740.013210775043, -8665.748973578093, -8073.718318190375, -9863.780124638097, -9419.516851844413, 0.182, 0.5720000000000001, 0.8, 192.0, 0.0, 0.0, 0.0, 0.0, 0.0, 0.0, 0.0, 0.0, 0.0, 1.7426791101681564E9, 0.0, 2025-03-22 18:31:50.168
241.0, -4216.8801089382305, -5721.308972991583, -9646.901148188252, -10749.736219613102, -8673.28151145953, -8156.777400586296, -9878.487572489688, -9427.898756015153, 0.182, 0.5720000000000001, 0.8, 192.0, 0.0, 0.0, 0.0, 0.0, 0.0, 0.0, 0.0, 0.0, 0.0, 1.742679110646644E9, 0.0, 2025-03-22 18:31:50.646
242.0, -3679.9688553772994, -5673.319777646038, -9621.353104275835, -10698.9754079551, -8751.266747864098, -8083.508382261799, -9909.400035071378, -9428.748122304454, 0.182, 0.5720000000000001, 0.8, 192.0, 0.0, 0.0, 0.0, 0.0, 0.0, 0.0, 0.0, 0.0, 0.0, 1.7426791106466978E9, 0.0, 2025-03-22 18:31:50.646
243.0, -3753.103763235064, -5683.690987073301, -9615.318133272904, -10685.16202988172, -8747.77987572907, -7986.345349114579, -9900.10170937797, -9418.242802410461, 0.182, 0.5720000000000001, 0.8, 192.0, 0.0, 0.0, 0.0, 0.0, 0.0, 0.0, 0.0, 0.0, 0.0, 1.742679110646722E9, 0.0, 2025-03-22 18:31:50.646
244.0, -4144.706326092044, -5720.146682279907, -9633.28893581497, -10732.637135104793, -8674.756726593581, -8052.506512702288, -9868.384583995889, -9419.33803788877, 0.182, 0.5720000000000001, 0.8, 192.0, 0.0, 0.0, 0.0, 0.0, 0.0, 0.0, 0.0, 0.0, 0.0, 1.7426791106467445E9, 0.0, 2025-03-22 18:31:50.646
245.0, -4278.392109679236, -5726.963964338775, -9647.728162733098, -10752.46313243665, -8660.76453456456, -8152.6199761176085, -9870.57505495251, -9425.171843191605, 0.182, 0.5720000000000001, 0.8, 192.0, 0.0, 0.0, 0.0, 0.0, 0.0, 0.0, 0.0, 0.0, 0.0, 1.7426791106467671E9, 0.0, 2025-03-22 18:31:50.646
246.0, -3752.07558299012, -5680.114707960452, -9627.611592723322, -10709.078396448898, -8739.979116914168, -8105.904830206017, -9906.58371527001, -9430.223337438505, 0.182, 0.5720000000000001, 0.8, 192.0, 0.0, 0.0, 0.0, 0.0, 0.0, 0.0, 0.0, 0.0, 0.0, 1.7426791106467829E9, 0.0, 2025-03-22 18:31:50.646
247.0, -3694.653951484436, -5676.471373614237, -9612.702979171632, -10679.73055597908, -8754.485399065661, -7992.514430584244, -9903.320360579535, -9417.259325654428, 0.182, 0.5720000000000001, 0.8, 192.0, 0.0, 0.0, 0.0, 0.0, 0.0, 0.0, 0.0, 0.0, 0.0, 1.7426791106467955E9, 0.0, 2025-03-22 18:31:50.646
248.0, -4091.3080085883153, -5715.542222922114, -9630.584374735878, -10724.791672800979, -8685.91024707678, -8032.97108804835, -9872.273787531112, -9417.48284309898, 0.186, 0.5680000000000001, 0.798, 192.0, 5.0, 208.0, 17.0, 192.0, 24.0, 240.0, 0.0, 0.0, 0.0, 1.742679110646808E9, 0.0, 2025-03-22 18:31:50.646
249.0, -4312.679685673676, -5733.423618486359, -9650.097447645361, -10756.531149927516, -8656.80827579597, -8146.85322604814, -9868.33988050698, -9424.85891876923, 0.186, 0.5680000000000001, 0.798, 192.0, 0.0, 0.0, 0.0, 0.0, 0.0, 0.0, 0.0, 0.0, 0.0, 1.7426791106468215E9, 0.0, 2025-03-22 18:31:50.646
250.0, -3828.3173833271726, -5688.764833064656, -9634.473578271101, -10720.231916932096, -8728.378561541864, -8126.043751960248, -9904.4379478023, -9431.028000238895, 0.186, 0.5680000000000001, 0.798, 192.0, 0.0, 0.0, 0.0, 0.0, 0.0, 0.0, 0.0, 0.0, 0.0, 1.7426791106468337E9, 0.0, 2025-03-22 18:31:50.646
251.0, -3635.8688635669787, -5674.571475335536, -9616.256906540026, -10681.943378680156, -8763.001413703134, -8008.562983103155, -9910.629381016419, -9421.684971056578, 0.186, 0.5680000000000001, 0.798, 192.0, 0.0, 0.0, 0.0, 0.0, 0.0, 0.0, 0.0, 0.0, 0.0, 1.742679110646937E9, 0.0, 2025-03-22 18:31:50.646
252.0, -4019.8941850536094, -5708.948458307798, -9626.695171200654, -10715.292181407474, -8697.53315419354, -8015.067340739649, -9877.213523055736, -9415.985276220474, 0.186, 0.5680000000000001, 0.798, 192.0, 0.0, 0.0, 0.0, 0.0, 0.0, 0.0, 0.0, 0.0, 0.0, 1.7426791106469498E9, 0.0, 2025-03-22 18:31:50.646
253.0, -4321.642735200255, -5730.942574851821, -9643.414276053223, -10750.674992880226, -8650.058048970468, -8129.508272350821, -9861.612005425932, -9419.896831500153, 0.186, 0.5680000000000001, 0.798, 192.0, 0.0, 0.0, 0.0, 0.0, 0.0, 0.0, 0.0, 0.0, 0.0, 1.7426791106469626E9, 0.0, 2025-03-22 18:31:50.646
254.0, -3931.425980499504, -5693.682216844823, -9635.345296304858, -10725.97631525711, -8711.055959589, -8138.113693966115, -9897.173630854324, -9429.284564171383, 0.186, 0.5680000000000001, 0.798, 192.0, 0.0, 0.0, 0.0, 0.0, 0.0, 0.0, 0.0, 0.0, 0.0, 1.7426791106469753E9, 0.0, 2025-03-22 18:31:50.646
255.0, -3613.986505745233, -5668.044765954586, -9612.5688687049, -10679.663500745715, -8762.956710214223, -8022.532823387722, -9911.992837428194, -9422.511985601424, 0.186, 0.5680000000000001, 0.798, 192.0, 0.0, 0.0, 0.0, 0.0, 0.0, 0.0, 0.0, 0.0, 0.0, 1.7426791106469877E9, 0.0, 2025-03-22 18:31:50.646
0.0, -3955.0741261332187, -5700.454795414781, -9620.101406586338, -10703.713977779626, -8709.267820032575, -7998.057663209161, -9881.013319613137, -9414.778282019888, 0.186, 0.5680000000000001, 0.798, 192.0, 0.0, 0.0, 0.0, 0.0, 0.0, 0.0, 0.0, 0.0, 0.0, 1.7426791106469996E9, 0.0, 2025-03-22 18:31:50.646
1.0, -4285.231743482559, -5729.176787039851, -9639.994459151561, -10747.925728312222, -8652.561444349461, -8111.403359342023, -9859.577996680498, -9419.427444866591, 0.186, 0.5680000000000001, 0.798, 192.0, 0.0, 0.0, 0.0, 0.0, 0.0, 0.0, 0.0, 0.0, 0.0, 1.7426791106470115E9, 0.0, 2025-03-22 18:31:50.647
2.0, -4032.0088305483855, -5705.863917572966, -9642.184930108182, -10737.88979505179, -8699.567162938973, -8151.2118162169245, -9891.563342996044, -9430.782131049888, 0.18, 0.5740000000000001, 0.8, 192.0, 5.0, 160.0, 17.0, 240.0, 25.0, 0.0, 0.0, 0.0, 0.0, 1.7426791106470244E9, 0.0, 2025-03-22 18:31:50.647
3.0, -3602.7882817731243, -5669.497629344181, -9616.189851306659, -10687.128983393786, -8764.275463137086, -8044.884567843029, -9914.987971185205, -9427.541128103869, 0.18, 0.5740000000000001, 0.8, 192.0, 0.0, 0.0, 0.0, 0.0, 0.0, 0.0, 0.0, 0.0, 0.0, 1.7426791106470377E9, 0.0, 2025-03-22 18:31:50.647
4.0, -3876.19481995044, -5696.833812813022, -9619.363799019313, -10698.997759699556, -8725.696352207226, -7991.352139872568, -9891.473936018221, -9419.114520444218, 0.18, 0.5740000000000001, 0.8, 192.0, 0.0, 0.0, 0.0, 0.0, 0.0, 0.0, 0.0, 0.0, 0.0, 1.7426791106470501E9, 0.0, 2025-03-22 18:31:50.647
5.0, -4245.423286607657, -5729.08738006203, -9637.938098661674, -10746.405809689262, -8659.088153730412, -8093.901943433517, -9862.796647882062, -9421.997895478951, 0.18, 0.5740000000000001, 0.8, 192.0, 0.0, 0.0, 0.0, 0.0, 0.0, 0.0, 0.0, 0.0, 0.0, 1.7426791106470623E9, 0.0, 2025-03-22 18:31:50.647
6.0, -4133.15047420865, -5716.257478744684, -9645.694153987664, -10747.322231211929, -8685.731433121138, -8158.766705842818, -9885.640130715386, -9431.385628150181, 0.18, 0.5740000000000001, 0.8, 192.0, 0.0, 0.0, 0.0, 0.0, 0.0, 0.0, 0.0, 0.0, 0.0, 1.7426791106470747E9, 0.0, 2025-03-22 18:31:50.647
7.0, -3634.9971455332216, -5675.26437941365, -9621.643676953754, -10697.58959979887, -8762.35321311393, -8070.007928610794, -9916.262020619157, -9432.190290950572, 0.18, 0.5740000000000001, 0.8, 192.0, 0.0, 0.0, 0.0, 0.0, 0.0, 0.0, 0.0, 0.0, 0.0, 1.7426791106470869E9, 0.0, 2025-03-22 18:31:50.647
8.0, -3814.66046746498, -5693.145774977896, -9618.42502575219, -10694.281541619486, -8740.515558781095, -7989.0275584492165, -9898.805308199562, -9421.126177445196, 0.18, 0.5740000000000001, 0.8, 192.0, 0.0, 0.0, 0.0, 0.0, 0.0, 0.0, 0.0, 0.0, 0.0, 1.7426791106470993E9, 0.0, 2025-03-22 18:31:50.647
9.0, -4189.029835346918, -5728.37212423946, -9637.066380627917, -10743.813007332446, -8670.398136424797, -8075.953492635906, -9869.613929940931, -9424.903622258142, 0.18, 0.5740000000000001, 0.8, 192.0, 0.0, 0.0, 0.0, 0.0, 0.0, 0.0, 0.0, 0.0, 0.0, 1.74267911064713E9, 0.0, 2025-03-22 18:31:50.647
10.0, -4215.471949037546, -5724.326458493049, -9646.029430154495, -10752.910167325756, -8672.610959125872, -8159.906644810038, -9878.95695912325, -9430.022171738407, 0.18, 0.5740000000000001, 0.8, 192.0, 0.0, 0.0, 0.0, 0.0, 0.0, 0.0, 0.0, 0.0, 0.0, 1.742679110647184E9, 0.0, 2025-03-22 18:31:50.647
11.0, -3685.690901957858, -5675.577303836025, -9619.877889141786, -10702.506983579038, -8749.299794352031, -8088.515173019788, -9910.517622294143, -9430.648020583156, 0.18, 0.5740000000000001, 0.8, 192.0, 0.0, 0.0, 0.0, 0.0, 0.0, 0.0, 0.0, 0.0, 0.0, 1.7426791106471982E9, 0.0, 2025-03-22 18:31:50.647
12.0, -3745.303004420162, -5683.936856262309, -9612.300647771437, -10686.525486293494, -8748.53983504055, -7987.86526773754, -9902.180421612313, -9420.299162900348, 0.17200000000000001, 0.5700000000000001, 0.8, 192.0, 5.0, 96.0, 17.0, 208.0, 25.0, 0.0, 0.0, 0.0, 0.0, 1.742679110647212E9, 0.0, 2025-03-22 18:31:50.647
13.0, -4132.8822532751865, -5719.051446801597, -9628.617421223811, -10732.413617660239, -8675.494334160607, -8049.623137667554, -9868.541046207076, -9420.321514644804, 0.17200000000000001, 0.5700000000000001, 0.8, 192.0, 0.0, 0.0, 0.0, 0.0, 0.0, 0.0, 0.0, 0.0, 0.0, 1.7426791106472251E9, 0.0, 2025-03-22 18:31:50.647
14.0, -4263.304682171904, -5724.885252104432, -9641.402619052245, -10751.591414402892, -8658.842284541402, -8150.720077838908, -9869.345709007468, -9425.015380980418, 0.17200000000000001, 0.5700000000000001, 0.8, 192.0, 0.0, 0.0, 0.0, 0.0, 0.0, 0.0, 0.0, 0.0, 0.0, 1.742679110647238E9, 0.0, 2025-03-22 18:31:50.647
15.0, -3744.498341619771, -5679.1759346933295, -9622.537746731967, -10709.480727849093, -8738.034515146555, -8107.402397084523, -9906.807232714562, -9431.072703727807, 0.17200000000000001, 0.5700000000000001, 0.8, 192.0, 0.0, 0.0, 0.0, 0.0, 0.0, 0.0, 0.0, 0.0, 0.0, 1.7426791106472504E9, 0.0, 2025-03-22 18:31:50.647
16.0, -3688.6860357148694, -5679.242989926695, -9612.5688687049, -10683.664463003215, -8760.20744564622, -7996.157764930459, -9905.600238513976, -9423.160186190627, 0.17200000000000001, 0.5700000000000001, 0.8, 192.0, 0.0, 0.0, 0.0, 0.0, 0.0, 0.0, 0.0, 0.0, 0.0, 1.7426791106472628E9, 0.0, 2025-03-22 18:31:50.647
17.0, -4081.2050200945164, -5718.112673534474, -9630.04793286895, -10728.45735889165, -8693.286322747032, -8032.836977581618, -9869.85979912994, -9423.920145502108, 0.17200000000000001, 0.5700000000000001, 0.8, 192.0, 0.0, 0.0, 0.0, 0.0, 0.0, 0.0, 0.0, 0.0, 0.0, 1.7426791106472754E9, 0.0, 2025-03-22 18:31:50.647
18.0, -4294.820641853886, -5732.462493474781, -9645.045953398461, -10757.045240049987, -8659.155208963777, -8144.774513813796, -9861.969633337216, -9428.278735670894, 0.17200000000000001, 0.5700000000000001, 0.8, 192.0, 0.0, 0.0, 0.0, 0.0, 0.0, 0.0, 0.0, 0.0, 0.0, 1.7426791106472876E9, 0.0, 2025-03-22 18:31:50.647
19.0, -3827.8032932047004, -5688.831888298022, -9630.00322938004, -10721.863594277334, -8729.138520853343, -8127.586022327665, -9898.939418666294, -9435.610107852233, 0.17200000000000001, 0.5700000000000001, 0.8, 192.0, 0.0, 0.0, 0.0, 0.0, 0.0, 0.0, 0.0, 0.0, 0.0, 1.7426791106473E9, 0.0, 2025-03-22 18:31:50.647
20.0, -3628.269270452174, -5675.867876513944, -9613.23942103856, -10684.603236270337, -8767.717631783204, -8011.356951160068, -9909.556497282565, -9429.083398471284, 0.17200000000000001, 0.5700000000000001, 0.8, 192.0, 0.0, 0.0, 0.0, 0.0, 0.0, 0.0, 0.0, 0.0, 0.0, 1.7426791106473129E9, 0.0, 2025-03-22 18:31:50.647
21.0, -3999.5988010881906, -5711.965943809265, -9625.935211889173, -10719.650771576258, -8706.183279297744, -8016.184927962414, -9878.778145167607, -9425.082436213785, 0.17200000000000001, 0.5700000000000001, 0.8, 192.0, 0.0, 0.0, 0.0, 0.0, 0.0, 0.0, 0.0, 0.0, 0.0, 1.742679110647328E9, 0.0, 2025-03-22 18:31:50.647
22.0, -4280.962560291596, -5732.909528363887, -9642.184930108182, -10755.391210960295, -8657.411772896263, -8131.385818885067, -9864.473028716211, -9427.228203681494, 0.178, 0.5720000000000001, 0.802, 192.0, 5.0, 144.0, 17.0, 224.0, 25.0, 16.0, 0.0, 0.0, 0.0, 1.742679110647342E9, 0.0, 2025-03-22 18:31:50.647
23.0, -3915.220965769406, -5695.98444652372, -9633.311287559425, -10729.709056581147, -8713.849927645913, -8142.204063201436, -9898.492383777188, -9433.240822939972, 0.178, 0.5720000000000001, 0.802, 192.0, 0.0, 0.0, 0.0, 0.0, 0.0, 0.0, 0.0, 0.0, 0.0, 1.7426791106473577E9, 0.0, 2025-03-22 18:31:50.647
24.0, -3597.692084037314, -5670.8387340115, -9611.495984971045, -10684.044442658955, -8767.404707360829, -8027.3608001900675, -9916.217317130246, -9427.317610659315, 0.178, 0.5720000000000001, 0.802, 192.0, 0.0, 0.0, 0.0, 0.0, 0.0, 0.0, 0.0, 0.0, 0.0, 1.7426791106473703E9, 0.0, 2025-03-22 18:31:50.647
25.0, -3926.329782763694, -5702.868783815955, -9619.81083390842, -10707.089091192376, -8716.330971280453, -7999.264657409747, -9888.277636561113, -9420.545032089358, 0.178, 0.5720000000000001, 0.802, 192.0, 0.0, 0.0, 0.0, 0.0, 0.0, 0.0, 0.0, 0.0, 0.0, 1.742679110647383E9, 0.0, 2025-03-22 18:31:50.647
26.0, -4249.8712837542635, -5730.204967284795, -9637.982802150584, -10750.004440546565, -8657.702345574182, -8111.381007597567, -9865.545912450065, -9424.501290857947, 0.178, 0.5720000000000001, 0.802, 192.0, 0.0, 0.0, 0.0, 0.0, 0.0, 0.0, 0.0, 0.0, 0.0, 1.7426791106474044E9, 0.0, 2025-03-22 18:31:50.647
27.0, -4024.453940922492, -5705.819214084055, -9636.99932539455, -10738.001553774066, -8698.315465249476, -8151.547092383754, -9892.077433118515, -9431.698552572556, 0.178, 0.5720000000000001, 0.802, 192.0, 0.0, 0.0, 0.0, 0.0, 0.0, 0.0, 0.0, 0.0, 0.0, 1.7426791106474173E9, 0.0, 2025-03-22 18:31:50.647
28.0, -3609.6055638319926, -5673.140963690396, -9614.915801872707, -10690.25822761753, -8766.756506771626, -8048.729067889341, -9917.24549737519, -9429.463378127024, 0.178, 0.5720000000000001, 0.802, 192.0, 0.0, 0.0, 0.0, 0.0, 0.0, 0.0, 0.0, 0.0, 0.0, 1.7426791106474304E9, 0.0, 2025-03-22 18:31:50.647
29.0, -3864.1248779445746, -5699.94070529231, -9619.833185652875, -10702.059948689932, -8732.40187554382, -7992.402671861968, -9896.704244220764, -9421.752026289943, 0.178, 0.5720000000000001, 0.802, 192.0, 0.0, 0.0, 0.0, 0.0, 0.0, 0.0, 0.0, 0.0, 0.0, 1.7426791106474433E9, 0.0, 2025-03-22 18:31:50.647
30.0, -4213.1250158697385, -5729.355600995494, -9636.708752716631, -10747.568100400937, -8664.340813677409, -8092.516135277288, -9867.33405200649, -9423.24959316845, 0.178, 0.5720000000000001, 0.802, 192.0, 0.0, 0.0, 0.0, 0.0, 0.0, 0.0, 0.0, 0.0, 0.0, 1.7426791106474571E9, 0.0, 2025-03-22 18:31:50.647
31.0, -4112.542165820857, -5716.168071766862, -9642.542558019466, -10747.36693470084, -8686.200819754698, -8159.5490168987535, -9887.00358712716, -9430.692724072067, 0.178, 0.5720000000000001, 0.802, 192.0, 0.0, 0.0, 0.0, 0.0, 0.0, 0.0, 0.0, 0.0, 0.0, 1.74267911064747E9, 0.0, 2025-03-22 18:31:50.647
32.0, -3618.121578469465, -5672.291597401095, -9616.592182706856, -10695.108556164332, -8759.425134590285, -8070.007928610794, -9915.43500607431, -9429.19515719356, 0.184, 0.5660000000000001, 0.806, 192.0, 5.0, 192.0, 17.0, 176.0, 25.0, 48.0, 0.0, 0.0, 0.0, 1.7426791106474838E9, 0.0, 2025-03-22 18:31:50.647
33.0, -3784.3515019835836, -5689.03305399812, -9614.200546050137, -10690.794669484458, -8740.247337847632, -7985.29481712518, -9899.453508788767, -9418.667485555112, 0.184, 0.5660000000000001, 0.806, 192.0, 0.0, 0.0, 0.0, 0.0, 0.0, 0.0, 0.0, 0.0, 0.0, 1.742679110647497E9, 0.0, 2025-03-22 18:31:50.647
34.0, -4156.44099193108, -5722.761836381178, -9631.210223580627, -10738.873271807823, -8668.878217801835, -8068.800934410207, -9866.954072350749, -9420.321514644804, 0.184, 0.5660000000000001, 0.806, 192.0, 0.0, 0.0, 0.0, 0.0, 0.0, 0.0, 0.0, 0.0, 0.0, 1.7426791106475096E9, 0.0, 2025-03-22 18:31:50.647
35.0, -4195.623599961234, -5723.387685225926, -9643.86131094233, -10752.016097547543, -8671.471020158651, -8159.928996554494, -9878.28640678959, -9428.234032181983, 0.184, 0.5660000000000001, 0.806, 192.0, 0.0, 0.0, 0.0, 0.0, 0.0, 0.0, 0.0, 0.0, 0.0, 1.7426791106475227E9, 0.0, 2025-03-22 18:31:50.647
36.0, -3679.2535995547296, -5677.588960837003, -9621.353104275835, -10704.026902201998, -8749.568015285495, -8093.253742844313, -9911.746968239186, -9430.446854883057, 0.184, 0.5660000000000001, 0.806, 192.0, 0.0, 0.0, 0.0, 0.0, 0.0, 0.0, 0.0, 0.0, 0.0, 1.742679110647535E9, 0.0, 2025-03-22 18:31:50.647
37.0, -3728.1592164229414, -5684.31683591805, -9613.194717549648, -10686.123154893297, -8751.065582164, -7988.647578793476, -9904.19207861329, -9419.114520444218, 0.184, 0.5660000000000001, 0.806, 192.0, 0.0, 0.0, 0.0, 0.0, 0.0, 0.0, 0.0, 0.0, 0.0, 1.742679110647548E9, 0.0, 2025-03-22 18:31:50.647
38.0, -4106.618953540201, -5720.5043101911915, -9629.846767168852, -10733.754722327558, -8680.121145262856, -8049.220806267358, -9871.357366008446, -9420.410921622626, 0.184, 0.5660000000000001, 0.806, 192.0, 0.0, 0.0, 0.0, 0.0, 0.0, 0.0, 0.0, 0.0, 0.0, 1.7426791106475608E9, 0.0, 2025-03-22 18:31:50.647
39.0, -4233.509806812979, -5728.886214361932, -9644.151883620249, -10756.307632482962, -8663.513799132563, -8156.129199997092, -9874.084278831993, -9428.234032181983, 0.184, 0.5660000000000001, 0.806, 192.0, 0.0, 0.0, 0.0, 0.0, 0.0, 0.0, 0.0, 0.0, 0.0, 1.742679110647574E9, 0.0, 2025-03-22 18:31:50.647
40.0, -3731.154350179953, -5683.869801028944, -9626.42695026719, -10714.35340814035, -8739.733247725158, -8114.957286710416, -9910.115290893948, -9434.090189229273, 0.184, 0.5660000000000001, 0.806, 192.0, 0.0, 0.0, 0.0, 0.0, 0.0, 0.0, 0.0, 0.0, 0.0, 1.7426791106475875E9, 0.0, 2025-03-22 18:31:50.647
41.0, -3672.592779707048, -5680.517039360648, -9612.680627427177, -10684.223256614598, -8759.626300290383, -7998.638808564999, -9909.847069960484, -9422.936668746075, 0.184, 0.5660000000000001, 0.806, 192.0, 0.0, 0.0, 0.0, 0.0, 0.0, 0.0, 0.0, 0.0, 0.0, 1.7426791106476002E9, 0.0, 2025-03-22 18:31:50.647
42.0, -4043.2964614983157, -5710.960115308776, -9622.738912432065, -10720.813062287934, -8687.184296510732, -8025.974992033839, -9873.90546487635, -9417.281677398882, 0.17200000000000001, 0.5700000000000001, 0.808, 192.0, 5.0, 96.0, 17.0, 208.0, 25.0, 64.0, 0.0, 0.0, 0.0, 1.7426791106476228E9, 0.0, 2025-03-22 18:31:50.647
43.0, -4257.962615247085, -5726.89690910541, -9638.251023084047, -10751.390248702795, -8652.986127494112, -8141.578214356687, -9865.545912450065, -9422.802558279343, 0.17200000000000001, 0.5700000000000001, 0.808, 192.0, 0.0, 0.0, 0.0, 0.0, 0.0, 0.0, 0.0, 0.0, 0.0, 1.7426791106476371E9, 0.0, 2025-03-22 18:31:50.647
44.0, -3823.1988338469073, -5687.826059797533, -9626.739874689565, -10719.673123320714, -8722.63416321685, -8129.79884502874, -9900.72755822272, -9430.759779305432, 0.17200000000000001, 0.5700000000000001, 0.808, 192.0, 0.0, 0.0, 0.0, 0.0, 0.0, 0.0, 0.0, 0.0, 0.0, 1.7426791106476505E9, 0.0, 2025-03-22 18:31:50.647
45.0, -3627.5093111406936, -5673.163315434852, -9609.32786575888, -10680.73638447957, -8762.129695669377, -8010.261715681758, -9910.092939149492, -9422.400226879148, 0.17200000000000001, 0.5700000000000001, 0.808, 192.0, 0.0, 0.0, 0.0, 0.0, 0.0, 0.0, 0.0, 0.0, 0.0, 1.7426791106476636E9, 0.0, 2025-03-22 18:31:50.647
46.0, -3979.8622107341544, -5708.210850740773, -9622.023656609495, -10715.247477918563, -8703.143442051822, -8011.245192437791, -9881.259188802147, -9419.740369288966, 0.17200000000000001, 0.5700000000000001, 0.808, 192.0, 0.0, 0.0, 0.0, 0.0, 0.0, 0.0, 0.0, 0.0, 0.0, 1.7426791106476772E9, 0.0, 2025-03-22 18:31:50.647
47.0, -4262.567074604878, -5733.46832197527, -9641.827302196896, -10755.36885921584, -8656.517703118052, -8131.385818885067, -9865.90354036135, -9425.976505991997, 0.17200000000000001, 0.5700000000000001, 0.808, 192.0, 0.0, 0.0, 0.0, 0.0, 0.0, 0.0, 0.0, 0.0, 0.0, 1.74267911064769E9, 0.0, 2025-03-22 18:31:50.647
48.0, -3919.065465815719, -5700.521850648147, -9635.457055027135, -10732.815949060434, -8711.972381111667, -8148.261385948824, -9898.782956455107, -9434.045485740362, 0.17200000000000001, 0.5700000000000001, 0.808, 192.0, 0.0, 0.0, 0.0, 0.0, 0.0, 0.0, 0.0, 0.0, 0.0, 1.742679110647704E9, 0.0, 2025-03-22 18:31:50.647
49.0, -3599.212002660275, -5673.632702068413, -9612.52416521599, -10685.005567670532, -8765.437753848762, -8030.892375814006, -9915.032674674116, -9426.647058325656, 0.17200000000000001, 0.5700000000000001, 0.808, 192.0, 0.0, 0.0, 0.0, 0.0, 0.0, 0.0, 0.0, 0.0, 0.0, 1.7426791106477177E9, 0.0, 2025-03-22 18:31:50.647
50.0, -3914.7739308803, -5703.896964060898, -9619.833185652875, -10706.798518514457, -8716.107453835899, -7998.616456820543, -9888.05411911656, -9419.516851844413, 0.17200000000000001, 0.5700000000000001, 0.808, 192.0, 0.0, 0.0, 0.0, 0.0, 0.0, 0.0, 0.0, 0.0, 0.0, 1.742679110647731E9, 0.0, 2025-03-22 18:31:50.647
51.0, -4235.74498125851, -5729.668525417867, -9635.389999793768, -10749.043315534987, -8655.62363333984, -8110.352827352623, -9861.679060659297, -9421.461453612024, 0.17200000000000001, 0.5700000000000001, 0.808, 192.0, 0.0, 0.0, 0.0, 0.0, 0.0, 0.0, 0.0, 0.0, 0.0, 1.7426791106477451E9, 0.0, 2025-03-22 18:31:50.647
52.0, -4010.484100637925, -5706.690932117812, -9636.5746422499, -10738.917975296734, -8696.214401270676, -8156.620938375108, -9890.713976706742, -9430.893889772164, 0.17400000000000002, 0.58, 0.804, 192.0, 5.0, 112.0, 18.0, 32.0, 25.0, 32.0, 0.0, 0.0, 0.0, 1.7426791106477597E9, 0.0, 2025-03-22 18:31:50.647
53.0, -3592.372368856951, -5671.397527622882, -9612.501813471534, -10688.090108405366, -8762.844951491947, -8052.0147743242715, -9916.418482830344, -9427.563479848324, 0.17400000000000002, 0.58, 0.804, 192.0, 0.0, 0.0, 0.0, 0.0, 0.0, 0.0, 0.0, 0.0, 0.0, 1.7426791106477745E9, 0.0, 2025-03-22 18:31:50.647
54.0, -3841.2813951112507, -5696.476184901737, -9615.541650717456, -10697.50019282105, -8729.339686553441, -7989.161668915948, -9894.15614535286, -9418.354561132737, 0.17400000000000002, 0.58, 0.804, 192.0, 0.0, 0.0, 0.0, 0.0, 0.0, 0.0, 0.0, 0.0, 0.0, 1.742679110647788E9, 0.0, 2025-03-22 18:31:50.647
55.0, -4184.157155055661, -5727.3662957389715, -9634.183005593182, -10745.690553866692, -8662.463267143163, -8090.4597747873995, -9864.629490927398, -9421.997895478951, 0.17400000000000002, 0.58, 0.804, 192.0, 0.0, 0.0, 0.0, 0.0, 0.0, 0.0, 0.0, 0.0, 0.0, 1.7426791106478016E9, 0.0, 2025-03-22 18:31:50.647
56.0, -4089.452813798525, -5713.84349034351, -9638.787464950976, -10745.467036422138, -8681.328139463441, -8160.577197143698, -9883.203790569758, -9429.016343237918, 0.17400000000000002, 0.58, 0.804, 192.0, 0.0, 0.0, 0.0, 0.0, 0.0, 0.0, 0.0, 0.0, 0.0, 1.7426791106478157E9, 0.0, 2025-03-22 18:31:50.647
57.0, -3602.631819561937, -5670.905789244865, -9614.178194305683, -10693.476878819094, -8755.982965944168, -8072.131344334048, -9913.423349073333, -9428.144625204162, 0.17400000000000002, 0.58, 0.804, 192.0, 0.0, 0.0, 0.0, 0.0, 0.0, 0.0, 0.0, 0.0, 0.0, 1.7426791106478407E9, 0.0, 2025-03-22 18:31:50.647
58.0, -3761.463315661349, -5688.675426086835, -9612.926496616185, -10689.632378772782, -8740.940241925746, -7984.91483746944, -9901.19694485628, -9419.114520444218, 0.17400000000000002, 0.58, 0.804, 192.0, 0.0, 0.0, 0.0, 0.0, 0.0, 0.0, 0.0, 0.0, 0.0, 1.742679110647854E9, 0.0, 2025-03-22 18:31:50.647
59.0, -4115.514947833413, -5720.2137375132725, -9629.064456112917, -10737.26394620704, -8669.928749791236, -8066.208132053392, -9868.965729351727, -9420.500328600447, 0.17400000000000002, 0.58, 0.804, 192.0, 0.0, 0.0, 0.0, 0.0, 0.0, 0.0, 0.0, 0.0, 0.0, 1.742679110647868E9, 0.0, 2025-03-22 18:31:50.647
60.0, -4161.067803033328, -5719.900813090899, -9640.128569618293, -10749.55740565746, -8668.453534657185, -8159.437258176477, -9876.67708118881, -9426.468244370013, 0.17400000000000002, 0.58, 0.804, 192.0, 0.0, 0.0, 0.0, 0.0, 0.0, 0.0, 0.0, 0.0, 0.0, 1.7426791106478808E9, 0.0, 2025-03-22 18:31:50.647
61.0, -3653.1244102864757, -5676.158449191863, -9619.229688552581, -10702.574038812405, -8747.042268162044, -8096.003007412316, -9911.970485683738, -9429.91041301613, 0.17400000000000002, 0.58, 0.804, 192.0, 0.0, 0.0, 0.0, 0.0, 0.0, 0.0, 0.0, 0.0, 0.0, 1.742679110647894E9, 0.0, 2025-03-22 18:31:50.647
62.0, -3694.6763032288914, -5684.428594640326, -9612.747682660542, -10686.056099659932, -8752.317279853498, -7990.681587538909, -9908.550668782076, -9420.790901278366, 0.182, 0.578, 0.796, 192.0, 5.0, 176.0, 18.0, 16.0, 24.0, 224.0, 0.0, 0.0, 0.0, 1.7426791106479073E9, 0.0, 2025-03-22 18:31:50.647
63.0, -4062.5413134743353, -5717.531528178636, -9627.186909578671, -10731.296030437474, -8679.875276073846, -8046.672707399453, -9873.972520109715, -9420.723846044999, 0.182, 0.578, 0.796, 192.0, 0.0, 0.0, 0.0, 0.0, 0.0, 0.0, 0.0, 0.0, 0.0, 1.7426791106479216E9, 0.0, 2025-03-22 18:31:50.647
64.0, -4201.479757008524, -5726.114598049474, -9640.508549274035, -10753.51366442605, -8659.781057808526, -8155.23513021888, -9872.67611893131, -9426.803520536843, 0.182, 0.578, 0.796, 192.0, 0.0, 0.0, 0.0, 0.0, 0.0, 0.0, 0.0, 0.0, 0.0, 1.742679110647935E9, 0.0, 2025-03-22 18:31:50.647
65.0, -3704.6228295115034, -5683.087489973008, -9624.19177582166, -10713.571097084416, -8736.738113968147, -8118.645324545542, -9911.143471138892, -9433.397285151159, 0.182, 0.578, 0.796, 192.0, 0.0, 0.0, 0.0, 0.0, 0.0, 0.0, 0.0, 0.0, 0.0, 1.7426791106479492E9, 0.0, 2025-03-22 18:31:50.647
66.0, -3631.7561425872022, -5679.332396904516, -9611.495984971045, -10683.619759514304, -8759.671003779293, -8001.097500455082, -9913.892735706895, -9423.696628057556, 0.182, 0.578, 0.796, 192.0, 0.0, 0.0, 0.0, 0.0, 0.0, 0.0, 0.0, 0.0, 0.0, 1.7426791106479635E9, 0.0, 2025-03-22 18:31:50.647
67.0, -4006.8407662917098, -5712.189461253818, -9623.342409532359, -10722.221222188618, -8690.626465156849, -8026.600840878587, -9878.666386445331, -9419.270982655404, 0.182, 0.578, 0.796, 192.0, 0.0, 0.0, 0.0, 0.0, 0.0, 0.0, 0.0, 0.0, 0.0, 1.7426791106479778E9, 0.0, 2025-03-22 18:31:50.647
68.0, -4225.641992764711, -5728.126255050452, -9638.76511320652, -10753.066629536943, -8653.94725250569, -8143.858092291128, -9868.76456365163, -9423.942497246564, 0.182, 0.578, 0.796, 192.0, 0.0, 0.0, 0.0, 0.0, 0.0, 0.0, 0.0, 0.0, 0.0, 1.7426791106479912E9, 0.0, 2025-03-22 18:31:50.647
69.0, -3796.8014236451895, -5688.541315620103, -9627.321020045403, -10721.081283221398, -8721.069541104978, -8135.342077653656, -9905.734348980708, -9431.363276405726, 0.182, 0.578, 0.796, 192.0, 0.0, 0.0, 0.0, 0.0, 0.0, 0.0, 0.0, 0.0, 0.0, 1.742679110648007E9, 0.0, 2025-03-22 18:31:50.648
70.0, -3595.8815927364344, -5670.570513078036, -9606.556249446423, -10678.389451311761, -8759.469838079196, -8012.2733726827355, -9914.317418851546, -9420.813253022821, 0.182, 0.578, 0.796, 192.0, 0.0, 0.0, 0.0, 0.0, 0.0, 0.0, 0.0, 0.0, 0.0, 1.7426791106480207E9, 0.0, 2025-03-22 18:31:50.648
71.0, -3942.870073660621, -5705.662751872868, -9618.939115874662, -10712.051178461454, -8702.405834484796, -8009.434701136912, -9885.684834204298, -9418.95805823303, 0.182, 0.578, 0.796, 192.0, 0.0, 0.0, 0.0, 0.0, 0.0, 0.0, 0.0, 0.0, 0.0, 1.7426791106480348E9, 0.0, 2025-03-22 18:31:50.648
72.0, -4220.925774684641, -5732.03781033013, -9639.793293451465, -10754.452437693171, -8655.690688573204, -8132.011667729816, -9870.57505495251, -9427.362314148226, 0.184, 0.586, 0.792, 192.0, 5.0, 192.0, 18.0, 80.0, 24.0, 192.0, 0.0, 0.0, 0.0, 1.7426791106480484E9, 0.0, 2025-03-22 18:31:50.648
73.0, -3888.465927656404, -5701.102996003985, -9635.881738171785, -10734.067646749932, -8710.452462488707, -8153.603452873642, -9903.856802446462, -9436.01243925243, 0.184, 0.586, 0.792, 192.0, 0.0, 0.0, 0.0, 0.0, 0.0, 0.0, 0.0, 0.0, 0.0, 1.7426791106481445E9, 0.0, 2025-03-22 18:31:50.648
74.0, -3565.1926475992977, -5674.415013124349, -9613.909973372218, -10686.570189782404, -8766.30947188252, -8037.061457283671, -9922.542860811098, -9429.373971149203, 0.184, 0.586, 0.792, 192.0, 0.0, 0.0, 0.0, 0.0, 0.0, 0.0, 0.0, 0.0, 0.0, 1.7426791106481602E9, 0.0, 2025-03-22 18:31:50.648
75.0, -3882.8556397981215, -5705.282772217128, -9621.576621720389, -10708.094919692865, -8718.879070148358, -8000.605762077065, -9895.72076746473, -9422.28846815687, 0.184, 0.586, 0.792, 192.0, 0.0, 0.0, 0.0, 0.0, 0.0, 0.0, 0.0, 0.0, 0.0, 1.7426791106482368E9, 0.0, 2025-03-22 18:31:50.648
76.0, -4193.321370282337, -5733.5353772086355, -9639.659182984733, -10753.915995826244, -8660.317499675453, -8114.912583221506, -9872.921988120317, -9428.166976948616, 0.184, 0.586, 0.792, 192.0, 0.0, 0.0, 0.0, 0.0, 0.0, 0.0, 0.0, 0.0, 0.0, 1.742679110648256E9, 0.0, 2025-03-22 18:31:50.648
77.0, -3996.514260353358, -5712.815310098566, -9641.693191730164, -10745.22116723313, -8696.661436159782, -8164.801676845751, -9898.96177041075, -9436.77239856391, 0.184, 0.586, 0.792, 192.0, 0.0, 0.0, 0.0, 0.0, 0.0, 0.0, 0.0, 0.0, 0.0, 1.7426791106482704E9, 0.0, 2025-03-22 18:31:50.648
78.0, -3581.37531058494, -5677.253684670172, -9617.37449376279, -10694.25918987503, -8763.917835225802, -8060.754306406297, -9923.325171867034, -9433.330229917792, 0.184, 0.586, 0.792, 192.0, 0.0, 0.0, 0.0, 0.0, 0.0, 0.0, 0.0, 0.0, 0.0, 1.742679110648284E9, 0.0, 2025-03-22 18:31:50.648
79.0, -3817.9238221554547, -5702.1311762489295, -9620.794310664452, -10702.998721957056, -8733.273593577576, -7996.090709697093, -9905.287314091602, -9426.267078669916, 0.184, 0.586, 0.792, 192.0, 0.0, 0.0, 0.0, 0.0, 0.0, 0.0, 0.0, 0.0, 0.0, 1.7426791106482992E9, 0.0, 2025-03-22 18:31:50.648
80.0, -4156.217474486527, -5730.450836473803, -9636.418180038712, -10748.529225412516, -8664.43022065523, -8093.991350411338, -9873.257264287146, -9427.161148448127, 0.184, 0.586, 0.792, 192.0, 0.0, 0.0, 0.0, 0.0, 0.0, 0.0, 0.0, 0.0, 0.0, 1.7426791106483133E9, 0.0, 2025-03-22 18:31:50.648
81.0, -4080.601522994223, -5719.5655369240685, -9643.235462097582, -10750.540882413494, -8680.635235385327, -8168.780287358795, -9889.931665650805, -9434.15724446264, 0.184, 0.586, 0.792, 192.0, 0.0, 0.0, 0.0, 0.0, 0.0, 0.0, 0.0, 0.0, 0.0, 1.742679110648327E9, 0.0, 2025-03-22 18:31:50.648
82.0, -3595.412206102873, -5678.192457937295, -9620.86136589782, -10700.472974833605, -8756.698221766737, -8084.1789345954585, -9921.760549755163, -9434.559575862835, 0.178, 0.586, 0.792, 192.0, 5.0, 144.0, 18.0, 80.0, 24.0, 192.0, 0.0, 0.0, 0.0, 1.7426791106483405E9, 0.0, 2025-03-22 18:31:50.648
83.0, -3749.8627602890447, -5693.950437778287, -9617.821528651897, -10693.856858474834, -8743.153064626822, -7992.246209650781, -9907.902468192873, -9423.62957282419, 0.178, 0.586, 0.792, 192.0, 0.0, 0.0, 0.0, 0.0, 0.0, 0.0, 0.0, 0.0, 0.0, 1.7426791106483555E9, 0.0, 2025-03-22 18:31:50.648
84.0, -4108.272982629894, -5725.1981765268065, -9632.506624759035, -10740.594356130881, -8671.515723647562, -8070.4996669888105, -9873.90546487635, -9424.255421668939, 0.178, 0.586, 0.792, 192.0, 0.0, 0.0, 0.0, 0.0, 0.0, 0.0, 0.0, 0.0, 0.0, 1.7426791106483688E9, 0.0, 2025-03-22 18:31:50.648
85.0, -4152.216512229027, -5725.42169397136, -9643.526034775501, -10753.781885359513, -8667.939444534713, -8166.634519891086, -9881.728575435707, -9430.96094500553, 0.178, 0.586, 0.792, 192.0, 0.0, 0.0, 0.0, 0.0, 0.0, 0.0, 0.0, 0.0, 0.0, 1.742679110648382E9, 0.0, 2025-03-22 18:31:50.648
86.0, -3642.306165970107, -5682.081661472519, -9623.364761276813, -10708.519602837516, -8748.025744918079, -8106.50832730631, -9919.145395653892, -9435.498349129957, 0.178, 0.586, 0.792, 192.0, 0.0, 0.0, 0.0, 0.0, 0.0, 0.0, 0.0, 0.0, 0.0, 1.7426791106483953E9, 0.0, 2025-03-22 18:31:50.648
87.0, -3676.213762308808, -5688.1613359643625, -9616.189851306659, -10689.58767528387, -8755.513579310606, -7997.923552742429, -9915.949096196782, -9426.28943041437, 0.178, 0.586, 0.792, 192.0, 0.0, 0.0, 0.0, 0.0, 0.0, 0.0, 0.0, 0.0, 0.0, 1.742679110648409E9, 0.0, 2025-03-22 18:31:50.648
88.0, -4044.8834353546426, -5720.861938102476, -9629.265621813014, -10733.642963605282, -8683.071575530956, -8050.293690001213, -9879.42634575681, -9425.19419493606, 0.178, 0.586, 0.792, 192.0, 0.0, 0.0, 0.0, 0.0, 0.0, 0.0, 0.0, 0.0, 0.0, 1.7426791106484225E9, 0.0, 2025-03-22 18:31:50.648
89.0, -4192.650817948677, -5728.908566106387, -9642.028467896995, -10755.74883887158, -8659.110505474866, -8160.130162254592, -9874.576017210009, -9429.016343237918, 0.178, 0.586, 0.792, 192.0, 0.0, 0.0, 0.0, 0.0, 0.0, 0.0, 0.0, 0.0, 0.0, 1.7426791106484487E9, 0.0, 2025-03-22 18:31:50.648
90.0, -3710.054303414143, -5684.31683591805, -9624.415293266213, -10714.666332562725, -8732.759503455103, -8124.65794380402, -9910.405863571867, -9433.464340384524, 0.178, 0.586, 0.792, 192.0, 0.0, 0.0, 0.0, 0.0, 0.0, 0.0, 0.0, 0.0, 0.0, 1.7426791106484644E9, 0.0, 2025-03-22 18:31:50.648
91.0, -3624.178901216853, -5679.779431793622, -9611.160708804216, -10683.284483347474, -8758.821637489991, -8005.165517945948, -9915.055026418571, -9424.456587369035, 0.178, 0.586, 0.792, 192.0, 0.0, 0.0, 0.0, 0.0, 0.0, 0.0, 0.0, 0.0, 0.0, 1.7426791106484811E9, 0.0, 2025-03-22 18:31:50.648
92.0, -3988.199411415984, -5712.41297869837, -9622.649505454243, -10721.26009717704, -8690.447651201208, -8027.11493100106, -9880.342767279479, -9420.790901278366, 0.17400000000000002, 0.586, 0.792, 192.0, 5.0, 112.0, 18.0, 80.0, 24.0, 192.0, 0.0, 0.0, 0.0, 1.7426791106485298E9, 0.0, 2025-03-22 18:31:50.648
93.0, -4210.532213512924, -5728.886214361932, -9637.826339939396, -10753.156036514763, -8651.734429804616, -8145.914452781017, -9868.13871480688, -9425.037732724873, 0.17400000000000002, 0.586, 0.792, 192.0, 0.0, 0.0, 0.0, 0.0, 0.0, 0.0, 0.0, 0.0, 0.0, 1.7426791106485596E9, 0.0, 2025-03-22 18:31:50.648
94.0, -3787.525449696237, -5686.17203070784, -9624.19177582166, -10718.533184353493, -8714.431073001751, -8137.353734654634, -9901.398110556378, -9428.457549626535, 0.17400000000000002, 0.586, 0.792, 192.0, 0.0, 0.0, 0.0, 0.0, 0.0, 0.0, 0.0, 0.0, 0.0, 1.7426791106485732E9, 0.0, 2025-03-22 18:31:50.648
95.0, -3573.4180895588506, -5673.297425901584, -9609.99841809254, -10680.915198435212, -8760.788591002058, -8019.381227419523, -9917.558421797565, -9424.14366294666, 0.17400000000000002, 0.586, 0.792, 192.0, 0.0, 0.0, 0.0, 0.0, 0.0, 0.0, 0.0, 0.0, 0.0, 1.7426791106485865E9, 0.0, 2025-03-22 18:31:50.648
96.0, -3920.8759571165992, -5708.8814030744325, -9622.358932776324, -10714.554573840449, -8705.311561263987, -8013.122738972037, -9889.417575528334, -9422.511985601424, 0.17400000000000002, 0.586, 0.792, 192.0, 0.0, 0.0, 0.0, 0.0, 0.0, 0.0, 0.0, 0.0, 0.0, 1.7426791106485991E9, 0.0, 2025-03-22 18:31:50.648
97.0, -4192.181431315116, -5730.763760896178, -9638.04985738395, -10753.804237103968, -8653.723735061138, -8132.70457180793, -9869.301005518557, -9426.848224025754, 0.17400000000000002, 0.586, 0.792, 192.0, 0.0, 0.0, 0.0, 0.0, 0.0, 0.0, 0.0, 0.0, 0.0, 1.7426791106486435E9, 0.0, 2025-03-22 18:31:50.648
98.0, -3875.770136805789, -5700.968885537253, -9635.05472362694, -10734.805254316958, -8706.518555464572, -8158.476133164899, -9901.845145445484, -9435.475997385502, 0.17400000000000002, 0.586, 0.792, 192.0, 0.0, 0.0, 0.0, 0.0, 0.0, 0.0, 0.0, 0.0, 0.0, 1.7426791106486564E9, 0.0, 2025-03-22 18:31:50.648
99.0, -3554.284996305108, -5673.029204968119, -9611.965371604607, -10685.139678137264, -8762.666137536304, -8040.928309074439, -9919.10069216498, -9426.714113559023, 0.17400000000000002, 0.586, 0.792, 192.0, 0.0, 0.0, 0.0, 0.0, 0.0, 0.0, 0.0, 0.0, 0.0, 1.7426791106486688E9, 0.0, 2025-03-22 18:31:50.648
100.0, -3856.882912741055, -5701.751196593189, -9617.307438529426, -10703.199887657152, -8716.710950936193, -7998.817622520641, -9892.926799407816, -9418.645133810656, 0.17400000000000002, 0.586, 0.792, 192.0, 0.0, 0.0, 0.0, 0.0, 0.0, 0.0, 0.0, 0.0, 0.0, 1.7426791106486895E9, 0.0, 2025-03-22 18:31:50.648
101.0, -4161.246616988971, -5727.835682372533, -9633.579508492889, -10747.635155634303, -8655.064839728457, -8111.425711086477, -9867.915197362328, -9423.71897980201, 0.17400000000000002, 0.586, 0.792, 192.0, 0.0, 0.0, 0.0, 0.0, 0.0, 0.0, 0.0, 0.0, 0.0, 1.742679110648703E9, 0.0, 2025-03-22 18:31:50.648
102.0, -3974.9001234650764, -5710.133100763929, -9638.943927162163, -10742.158978242753, -8691.47583144615, -8167.461534435933, -9894.938456408794, -9433.978430506997, 0.184, 0.588, 0.796, 192.0, 5.0, 192.0, 18.0, 96.0, 24.0, 224.0, 0.0, 0.0, 0.0, 1.7426791106487164E9, 0.0, 2025-03-22 18:31:50.648
103.0, -3549.479371247217, -5673.342129390494, -9615.09461582835, -10690.9734834401, -8760.140390412855, -8064.285882030235, -9921.134700910414, -9429.798654293854, 0.184, 0.588, 0.796, 192.0, 0.0, 0.0, 0.0, 0.0, 0.0, 0.0, 0.0, 0.0, 0.0, 1.7426791106487298E9, 0.0, 2025-03-22 18:31:50.648
104.0, -3784.9997025727876, -5694.531583134125, -9614.982857106073, -10695.108556164332, -8728.847948175424, -7991.463898594845, -9899.118232621937, -9418.443968110558, 0.184, 0.588, 0.796, 192.0, 0.0, 0.0, 0.0, 0.0, 0.0, 0.0, 0.0, 0.0, 0.0, 1.7426791106487536E9, 0.0, 2025-03-22 18:31:50.648
105.0, -4129.060104973329, -5723.208871270284, -9629.779711935487, -10740.817873575435, -8658.842284541402, -8087.799917197218, -9866.015299083627, -9419.606258822234, 0.184, 0.588, 0.796, 192.0, 0.0, 0.0, 0.0, 0.0, 0.0, 0.0, 0.0, 0.0, 0.0, 1.7426791111268532E9, 0.0, 2025-03-22 18:31:51.126
106.0, -4071.7278804454663, -5716.168071766862, -9638.742761462065, -10745.958774800156, -8674.95789229368, -8168.489714680877, -9883.695528947776, -9428.546956604358, 0.184, 0.588, 0.796, 192.0, 0.0, 0.0, 0.0, 0.0, 0.0, 0.0, 0.0, 0.0, 0.0, 1.7426791111269107E9, 0.0, 2025-03-22 18:31:51.126
107.0, -3584.929237953334, -5673.476239857226, -9615.318133272904, -10695.220314886608, -8750.909119952812, -8084.894190418028, -9915.926744452328, -9428.256383926439, 0.184, 0.588, 0.796, 192.0, 0.0, 0.0, 0.0, 0.0, 0.0, 0.0, 0.0, 0.0, 0.0, 1.7426791111269548E9, 0.0, 2025-03-22 18:31:51.126
108.0, -3720.090236674576, -5688.071928986541, -9612.32299951589, -10687.26309386052, -8740.403800058819, -7989.631055549509, -9904.236782102202, -9417.795767521355, 0.184, 0.588, 0.796, 192.0, 0.0, 0.0, 0.0, 0.0, 0.0, 0.0, 0.0, 0.0, 0.0, 1.7426791111269877E9, 0.0, 2025-03-22 18:31:51.126
109.0, -4073.516020001891, -5721.644249158412, -9629.489139257568, -10736.682800851202, -8670.487543402618, -8068.040975098726, -9871.916159619828, -9421.081473956285, 0.184, 0.588, 0.796, 192.0, 0.0, 0.0, 0.0, 0.0, 0.0, 0.0, 0.0, 0.0, 0.0, 1.7426791111270027E9, 0.0, 2025-03-22 18:31:51.127
110.0, -4132.748142808455, -5723.27592650365, -9641.33556381888, -10751.658469636259, -8664.743145077604, -8167.930921069494, -9878.219351556225, -9428.010514737429, 0.184, 0.588, 0.796, 192.0, 0.0, 0.0, 0.0, 0.0, 0.0, 0.0, 0.0, 0.0, 0.0, 1.7426791111270163E9, 0.0, 2025-03-22 18:31:51.127
111.0, -3632.2925844541296, -5677.767774792645, -9619.922592630695, -10704.138660924276, -8741.297869837032, -8108.1847081404585, -9912.77514848413, -9429.508081615935, 0.184, 0.588, 0.796, 192.0, 0.0, 0.0, 0.0, 0.0, 0.0, 0.0, 0.0, 0.0, 0.0, 1.7426791111270292E9, 0.0, 2025-03-22 18:31:51.127
112.0, -3653.43733470885, -5685.277960929628, -9613.887621627764, -10685.564361281915, -8752.965480442701, -7998.057663209161, -9912.082244406014, -9420.992066978462, 0.182, 0.58, 0.798, 192.0, 5.0, 176.0, 18.0, 32.0, 24.0, 240.0, 0.0, 0.0, 0.0, 1.7426791111270423E9, 0.0, 2025-03-22 18:31:51.127
113.0, -4019.089522253218, -5718.313839234572, -9627.589240978867, -10729.79846355897, -8681.574008652451, -8047.119742288559, -9877.14646782237, -9420.120348944707, 0.182, 0.58, 0.798, 192.0, 0.0, 0.0, 0.0, 0.0, 0.0, 0.0, 0.0, 0.0, 0.0, 1.7426791111270564E9, 0.0, 2025-03-22 18:31:51.127
114.0, -4176.490506707491, -5728.729752150745, -9642.274337086003, -10754.474789437627, -8656.920034518247, -8160.867769821617, -9873.123153820414, -9425.86474726972, 0.182, 0.58, 0.798, 192.0, 0.0, 0.0, 0.0, 0.0, 0.0, 0.0, 0.0, 0.0, 0.0, 1.7426791111270692E9, 0.0, 2025-03-22 18:31:51.127
115.0, -3700.7559777207352, -5685.412071396359, -9626.248136311548, -10714.800443029457, -8730.591384242938, -8129.888252006562, -9909.422386815833, -9431.407979894637, 0.182, 0.58, 0.798, 192.0, 0.0, 0.0, 0.0, 0.0, 0.0, 0.0, 0.0, 0.0, 0.0, 1.7426791111270819E9, 0.0, 2025-03-22 18:31:51.127
116.0, -3595.3227991250515, -5678.818306782045, -9612.725330916088, -10682.055137402433, -8759.44748633474, -8008.384169147512, -9915.3903025854, -9422.19906117905, 0.182, 0.58, 0.798, 192.0, 0.0, 0.0, 0.0, 0.0, 0.0, 0.0, 0.0, 0.0, 0.0, 1.7426791111270945E9, 0.0, 2025-03-22 18:31:51.127
117.0, -3957.801038956766, -5711.295391475605, -9623.85649965483, -10719.40490238725, -8692.056976801989, -8025.68441935592, -9881.169781824325, -9418.421616366102, 0.182, 0.58, 0.798, 192.0, 0.0, 0.0, 0.0, 0.0, 0.0, 0.0, 0.0, 0.0, 0.0, 1.7426791111271076E9, 0.0, 2025-03-22 18:31:51.127
118.0, -4181.87727712122, -5728.774455639656, -9639.882700429285, -10752.865463836844, -8652.002650738079, -8146.026211503293, -9868.563397951531, -9423.495462357458, 0.182, 0.58, 0.798, 192.0, 0.0, 0.0, 0.0, 0.0, 0.0, 0.0, 0.0, 0.0, 0.0, 1.74267911112712E9, 0.0, 2025-03-22 18:31:51.127
119.0, -3775.4778594348268, -5690.642379598901, -9629.980877635584, -10722.64590533327, -8716.219212558177, -8144.439237646966, -9903.700340235275, -9430.223337438505, 0.182, 0.58, 0.798, 192.0, 0.0, 0.0, 0.0, 0.0, 0.0, 0.0, 0.0, 0.0, 0.0, 1.7426791111271327E9, 0.0, 2025-03-22 18:31:51.127
120.0, -3554.2626445606525, -5674.794992780089, -9613.75351116103, -10682.435117058172, -8762.68848928076, -8023.87392805504, -9918.184270642314, -9423.227241423994, 0.182, 0.58, 0.798, 192.0, 0.0, 0.0, 0.0, 0.0, 0.0, 0.0, 0.0, 0.0, 0.0, 1.7426791111272025E9, 0.0, 2025-03-22 18:31:51.127
121.0, -3891.751634091334, -5707.093263518008, -9623.744740932554, -10712.632323817292, -8706.227982786653, -8011.133433715515, -9889.551685995066, -9419.449796611047, 0.182, 0.58, 0.798, 192.0, 0.0, 0.0, 0.0, 0.0, 0.0, 0.0, 0.0, 0.0, 0.0, 1.7426791111272156E9, 0.0, 2025-03-22 18:31:51.127
122.0, -4167.393346714181, -5731.344906252016, -9640.732066718587, -10753.60307140387, -8654.528397861528, -8131.631688074075, -9870.463296230233, -9425.171843191605, 0.184, 0.5760000000000001, 0.8, 192.0, 5.0, 192.0, 18.0, 0.0, 25.0, 0.0, 0.0, 0.0, 0.0, 1.7426791111272285E9, 0.0, 2025-03-22 18:31:51.127
123.0, -3876.2842269282614, -5702.287638460117, -9637.312249816925, -10734.760550828047, -8703.992808341123, -8159.3702029431115, -9899.34175006649, -9431.586793850278, 0.184, 0.5760000000000001, 0.8, 192.0, 0.0, 0.0, 0.0, 0.0, 0.0, 0.0, 0.0, 0.0, 0.0, 1.7426791111272416E9, 0.0, 2025-03-22 18:31:51.127
124.0, -3542.1703508103315, -5675.554952091569, -9617.218031551603, -10687.218390371609, -8765.281291637575, -8045.0857335431265, -9921.313514866057, -9426.95998274803, 0.184, 0.5760000000000001, 0.8, 192.0, 0.0, 0.0, 0.0, 0.0, 0.0, 0.0, 0.0, 0.0, 0.0, 1.7426791111272545E9, 0.0, 2025-03-22 18:31:51.127
125.0, -3841.169636388974, -5705.2380687282175, -9623.923554888195, -10705.971503969611, -8722.67886670576, -8000.3598928880565, -9897.86653493244, -9420.500328600447, 0.184, 0.5760000000000001, 0.8, 192.0, 0.0, 0.0, 0.0, 0.0, 0.0, 0.0, 0.0, 0.0, 0.0, 1.7426791111272671E9, 0.0, 2025-03-22 18:31:51.127
126.0, -4153.043526773873, -5730.629650429446, -9638.809816695431, -10749.959737057656, -8658.395249652296, -8110.151661652525, -9869.166895051825, -9423.070779212807, 0.184, 0.5760000000000001, 0.8, 192.0, 0.0, 0.0, 0.0, 0.0, 0.0, 0.0, 0.0, 0.0, 0.0, 1.7426791111272795E9, 0.0, 2025-03-22 18:31:51.127
127.0, -3977.1129461661517, -5710.826004842044, -9640.754418463042, -10742.293088709484, -8689.24065700062, -8166.612168146631, -9892.4350610298, -9429.82100603831, 0.184, 0.5760000000000001, 0.8, 192.0, 0.0, 0.0, 0.0, 0.0, 0.0, 0.0, 0.0, 0.0, 0.0, 1.7426791111272926E9, 0.0, 2025-03-22 18:31:51.127
128.0, -3541.991536854689, -5674.638530568902, -9618.112101329816, -10691.934608451678, -8761.146218913344, -8066.766925664774, -9921.469977077244, -9428.189328693072, 0.184, 0.5760000000000001, 0.8, 192.0, 0.0, 0.0, 0.0, 0.0, 0.0, 0.0, 0.0, 0.0, 0.0, 1.7426791111273055E9, 0.0, 2025-03-22 18:31:51.127
129.0, -3762.826772073123, -5698.331379691527, -9620.682551942176, -10697.58959979887, -8735.15114011182, -7994.213163162847, -9904.996741413683, -9420.522680344902, 0.184, 0.5760000000000001, 0.8, 192.0, 0.0, 0.0, 0.0, 0.0, 0.0, 0.0, 0.0, 0.0, 0.0, 1.742679111127318E9, 0.0, 2025-03-22 18:31:51.127
130.0, -4098.885249958665, -5726.762798638678, -9635.14413060476, -10743.835359076902, -8665.48075264463, -8088.671635230975, -9872.586711953487, -9422.53433734588, 0.184, 0.5760000000000001, 0.8, 192.0, 0.0, 0.0, 0.0, 0.0, 0.0, 0.0, 0.0, 0.0, 0.0, 1.7426791111273303E9, 0.0, 2025-03-22 18:31:51.127
131.0, -4065.4693919979804, -5722.024228814153, -9646.364706321325, -10751.546710913983, -8679.160020251276, -8173.563560672232, -9888.344691794478, -9432.033828739384, 0.184, 0.5760000000000001, 0.8, 192.0, 0.0, 0.0, 0.0, 0.0, 0.0, 0.0, 0.0, 0.0, 0.0, 1.742679111127344E9, 0.0, 2025-03-22 18:31:51.127
132.0, -3583.699892008292, -5680.517039360648, -9624.325886288392, -10702.149355667754, -8756.228835133175, -8094.147812622526, -9920.285334621112, -9432.078532228295, 0.186, 0.5720000000000001, 0.804, 192.0, 5.0, 208.0, 17.0, 224.0, 25.0, 32.0, 0.0, 0.0, 0.0, 1.742679111127356E9, 0.0, 2025-03-22 18:31:51.127
133.0, -3700.5101085317265, -5693.7939755671, -9620.682551942176, -10692.49340206306, -8749.925643196779, -7996.023654463727, -9911.255229861168, -9421.81908152331, 0.186, 0.5720000000000001, 0.804, 192.0, 0.0, 0.0, 0.0, 0.0, 0.0, 0.0, 0.0, 0.0, 0.0, 1.7426791111273694E9, 0.0, 2025-03-22 18:31:51.127
134.0, -4062.1166303296845, -5724.37116198196, -9634.183005593182, -10737.88979505179, -8675.874313816346, -8067.6833471874415, -9875.67125268832, -9421.10382570074, 0.186, 0.5720000000000001, 0.804, 192.0, 0.0, 0.0, 0.0, 0.0, 0.0, 0.0, 0.0, 0.0, 0.0, 1.7426791111273823E9, 0.0, 2025-03-22 18:31:51.127
135.0, -4141.577081868301, -5727.27688876115, -9646.074133643406, -10754.184216759708, -8666.352470678386, -8169.652005392552, -9879.068717845526, -9426.669410070112, 0.186, 0.5720000000000001, 0.804, 192.0, 0.0, 0.0, 0.0, 0.0, 0.0, 0.0, 0.0, 0.0, 0.0, 1.7426791111274035E9, 0.0, 2025-03-22 18:31:51.127
136.0, -3633.9913170327327, -5681.008777738664, -9624.683514199676, -10707.290256892475, -8742.326050081974, -8113.012684942804, -9913.400997328878, -9428.68106707109, 0.186, 0.5720000000000001, 0.804, 192.0, 0.0, 0.0, 0.0, 0.0, 0.0, 0.0, 0.0, 0.0, 0.0, 1.7426791111274164E9, 0.0, 2025-03-22 18:31:51.127
137.0, -3629.5209681416713, -5684.473298129237, -9616.078092584383, -10685.005567670532, -8755.424172332785, -7999.465823109845, -9912.77514848413, -9419.315686144315, 0.186, 0.5720000000000001, 0.804, 192.0, 0.0, 0.0, 0.0, 0.0, 0.0, 0.0, 0.0, 0.0, 0.0, 1.742679111127429E9, 0.0, 2025-03-22 18:31:51.127
138.0, -3990.6581033060675, -5719.476129946248, -9630.562022991422, -10730.357257170352, -8685.418508698764, -8046.359782977079, -9879.67221494582, -9420.947363489553, 0.186, 0.5720000000000001, 0.804, 192.0, 0.0, 0.0, 0.0, 0.0, 0.0, 0.0, 0.0, 0.0, 0.0, 1.7426791111274416E9, 0.0, 2025-03-22 18:31:51.127
139.0, -4168.06389904784, -5732.1272173079515, -9645.113008631828, -10757.22405400563, -8658.1940839522, -8162.097115766659, -9873.793706154074, -9426.714113559023, 0.186, 0.5720000000000001, 0.804, 192.0, 0.0, 0.0, 0.0, 0.0, 0.0, 0.0, 0.0, 0.0, 0.0, 1.7426791111274543E9, 0.0, 2025-03-22 18:31:51.127
140.0, -3704.0416841556653, -5687.781356308622, -9628.90799390173, -10717.594411086371, -8729.473797020173, -8133.285717163768, -9908.4389100598, -9430.044523482862, 0.186, 0.5720000000000001, 0.804, 192.0, 0.0, 0.0, 0.0, 0.0, 0.0, 0.0, 0.0, 0.0, 0.0, 1.742679111127467E9, 0.0, 2025-03-22 18:31:51.127
141.0, -3580.369482084451, -5679.622969582435, -9614.848746639342, -10683.060965902921, -8761.012108446612, -8011.289895926702, -9915.63617177441, -9421.595564078756, 0.186, 0.5720000000000001, 0.804, 192.0, 0.0, 0.0, 0.0, 0.0, 0.0, 0.0, 0.0, 0.0, 0.0, 1.7426791111274793E9, 0.0, 2025-03-22 18:31:51.127
142.0, -3942.3336317936937, -5713.597621154502, -9627.499834001044, -10720.947172754666, -8696.259104759587, -8026.287916456213, -9882.577941725009, -9419.449796611047, 0.178, 0.5680000000000001, 0.802, 192.0, 5.0, 144.0, 17.0, 192.0, 25.0, 16.0, 0.0, 0.0, 0.0, 1.7426791111274922E9, 0.0, 2025-03-22 18:31:51.127
