%OpenBCI Raw EXG Data
%Number of channels = 8
%Sample Rate = 250 Hz
%Board = OpenBCI_GUI$BoardCytonSerial
Sample Index, EXG Channel 0, EXG Channel 1, EXG Channel 2, EXG Channel 3, EXG Channel 4, EXG Channel 5, EXG Channel 6, EXG Channel 7, Accel Channel 0, Accel Channel 1, Accel Channel 2, Not Used, Digital Channel 0 (D11), Digital Channel 1 (D12), Digital Channel 2 (D13), Digital Channel 3 (D17), Not Used, Digital Channel 4 (D18), Analog Channel 0, Analog Channel 1, Analog Channel 2, Timestamp, Marker Channel, Timestamp (Formatted)
0.0, -187500.02235174447, -160848.18224289207, 63636.15407182623, 95625.05431473903, 77546.82928881995, 72564.31252530964, 83034.76369795368, -90427.55847305756, -0.038, 0.388, 0.296, 192.0, 254.0, 208.0, 12.0, 32.0, 9.0, 64.0, 0.0, 0.0, 0.0, 1.7395351977813332E9, 0.0, 2025-02-14 09:13:17.781
1.0, -187500.02235174447, -160694.13402010608, 63382.461772258495, 95389.60103864683, 77203.3276800308, 72273.09164680143, 82782.85953794236, -90333.90466378983, -0.038, 0.388, 0.296, 192.0, 0.0, 0.0, 0.0, 0.0, 0.0, 0.0, 0.0, 0.0, 0.0, 1.7395351977813957E9, 0.0, 2025-02-14 09:13:17.781
2.0, -187500.02235174447, -160801.3553382582, 63405.77464172538, 95434.10336185734, 77050.21823051193, 72276.9584985922, 82813.30261389048, -90465.1988107203, -0.038, 0.388, 0.296, 192.0, 0.0, 0.0, 0.0, 0.0, 0.0, 0.0, 0.0, 0.0, 0.0, 1.739535197781423E9, 0.0, 2025-02-14 09:13:17.781
3.0, -187500.02235174447, -160824.19882109153, 63260.35419229916, 95270.30977848885, 76962.37587480259, 72162.5846222144, 82666.00461793001, -90462.42719440785, -0.038, 0.388, 0.296, 192.0, 0.0, 0.0, 0.0, 0.0, 0.0, 0.0, 0.0, 0.0, 0.0, 1.7395351977814405E9, 0.0, 2025-02-14 09:13:17.781
4.0, -187500.02235174447, -160576.92147218247, 62821.00830328564, 94803.6277060065, 76695.09371460602, 71720.44476514397, 82212.08539153164, -90219.55313915649, -0.038, 0.388, 0.296, 192.0, 0.0, 0.0, 0.0, 0.0, 0.0, 0.0, 0.0, 0.0, 0.0, 1.7395351977814524E9, 0.0, 2025-02-14 09:13:17.781
5.0, -187500.02235174447, -160379.93554829783, 62509.089709411826, 94502.32619074897, 76345.64654179175, 71358.346504968, 81900.81499824703, -90077.44074790964, -0.038, 0.388, 0.296, 192.0, 0.0, 0.0, 0.0, 0.0, 0.0, 0.0, 0.0, 0.0, 0.0, 1.7395351977814643E9, 0.0, 2025-02-14 09:13:17.781
6.0, -187500.02235174447, -160456.35616259053, 62505.62518902126, 94522.48746424765, 76159.45651047904, 71332.10555697746, 81902.44667559228, -90190.0935399644, -0.038, 0.388, 0.296, 192.0, 0.0, 0.0, 0.0, 0.0, 0.0, 0.0, 0.0, 0.0, 0.0, 1.7395351977814763E9, 0.0, 2025-02-14 09:13:17.781
7.0, -187500.02235174447, -160512.54844815118, 62403.85769651624, 94414.6402972508, 76079.0572856733, 71292.2747483581, 81791.69378181623, -90233.16535152977, -0.06, 0.594, 0.442, 192.0, 254.0, 32.0, 18.0, 144.0, 13.0, 208.0, 0.0, 0.0, 0.0, 1.7395351977814877E9, 0.0, 2025-02-14 09:13:17.781
8.0, -187500.02235174447, -160245.6239158659, 61932.86173735401, 93932.49081760536, 75824.96265470536, 70917.12306942024, 81313.3888022171, -90001.75774118397, -0.06, 0.594, 0.442, 192.0, 0.0, 0.0, 0.0, 0.0, 0.0, 0.0, 0.0, 0.0, 0.0, 1.7395351977815E9, 0.0, 2025-02-14 09:13:17.781
9.0, -187500.02235174447, -159982.1192004823, 61552.63621242478, 93560.89306603587, 75434.67884477125, 70503.68285223041, 80934.32556799955, -89810.80678830229, -0.06, 0.594, 0.442, 192.0, 0.0, 0.0, 0.0, 0.0, 0.0, 0.0, 0.0, 0.0, 0.0, 1.739535197781512E9, 0.0, 2025-02-14 09:13:17.781
10.0, -187500.02235174447, -160071.92850970372, 61566.24842479807, 93601.55088920008, 75220.54913288941, 70432.78311881819, 80962.24289682423, -89907.47808307149, -0.06, 0.594, 0.442, 192.0, 0.0, 0.0, 0.0, 0.0, 0.0, 0.0, 0.0, 0.0, 0.0, 1.7395351977815235E9, 0.0, 2025-02-14 09:13:17.781
11.0, -187500.02235174447, -160200.27222636607, 61554.200834536656, 93573.03006327512, 75177.27615562394, 70414.56644708711, 80940.4499459803, -90000.28252604992, -0.06, 0.594, 0.442, 192.0, 0.0, 0.0, 0.0, 0.0, 0.0, 0.0, 0.0, 0.0, 0.0, 1.7395351977815351E9, 0.0, 2025-02-14 09:13:17.781
12.0, -187500.02235174447, -159979.83932254784, 61144.06867552623, 93129.63850851519, 74988.38156323213, 70028.0824337104, 80517.19731297462, -89807.0963987227, -0.06, 0.594, 0.442, 192.0, 0.0, 0.0, 0.0, 0.0, 0.0, 0.0, 0.0, 0.0, 0.0, 1.7395351977815468E9, 0.0, 2025-02-14 09:13:17.781
13.0, -187500.02235174447, -159671.45230429797, 60697.324359098006, 92698.8309858836, 74608.69248016983, 69571.50334972184, 80072.39759831401, -89580.56146866817, -0.06, 0.594, 0.442, 192.0, 0.0, 0.0, 0.0, 0.0, 0.0, 0.0, 0.0, 0.0, 0.0, 1.7395351977815585E9, 0.0, 2025-02-14 09:13:17.781
14.0, -187500.02235174447, -159705.9410459925, 60647.07763756248, 92681.64249439747, 74341.52207869555, 69504.96220647839, 80024.3413477351, -89639.07833565216, -0.06, 0.594, 0.442, 192.0, 0.0, 0.0, 0.0, 0.0, 0.0, 0.0, 0.0, 0.0, 0.0, 1.7395351977815702E9, 0.0, 2025-02-14 09:13:17.781
15.0, -187500.02235174447, -159869.37700144973, 60664.601405215435, 92706.00589585376, 74284.92746173471, 69563.18850078447, 80047.3412927796, -89766.4385755585, -0.06, 0.594, 0.442, 192.0, 0.0, 0.0, 0.0, 0.0, 0.0, 0.0, 0.0, 0.0, 0.0, 1.7395351977815816E9, 0.0, 2025-02-14 09:13:17.781
16.0, -187500.02235174447, -159705.7398802924, 60303.28545609539, 92315.02918184151, 74130.02987265943, 69280.30482295809, 79669.79797718501, -89615.72076269636, -0.06, 0.594, 0.442, 192.0, 0.0, 0.0, 0.0, 0.0, 0.0, 0.0, 0.0, 0.0, 0.0, 1.7395351977817595E9, 0.0, 2025-02-14 09:13:17.781
17.0, -187500.02235174447, -159370.48606520725, 59815.413929869406, 91831.4715422954, 73755.68285652195, 68811.85696266378, 79190.6883347855, -89362.38609103991, -0.076, 0.6940000000000001, 0.514, 192.0, 253.0, 160.0, 21.0, 176.0, 16.0, 16.0, 0.0, 0.0, 0.0, 1.739535197781773E9, 0.0, 2025-02-14 09:13:17.781
18.0, -187500.02235174447, -159340.7582450817, 59720.28490546762, 91755.27444544727, 73457.8905651439, 68618.71553882546, 79106.35520295563, -89374.12075687895, -0.076, 0.6940000000000001, 0.514, 192.0, 0.0, 0.0, 0.0, 0.0, 0.0, 0.0, 0.0, 0.0, 0.0, 1.739535197781787E9, 0.0, 2025-02-14 09:13:17.781
19.0, -187500.02235174447, -159524.6013432266, 59810.56360132261, 91830.68923123948, 73394.14338995736, 68621.37539641565, 79192.18590166401, -89524.45859008534, -0.076, 0.6940000000000001, 0.514, 192.0, 0.0, 0.0, 0.0, 0.0, 0.0, 0.0, 0.0, 0.0, 0.0, 1.7395351977817993E9, 0.0, 2025-02-14 09:13:17.781
20.0, -187500.02235174447, -159427.41595833492, 59515.25235357909, 91516.17783500884, 73285.46920841566, 68390.25835874777, 78892.91839515191, -89430.22363546176, -0.076, 0.6940000000000001, 0.514, 192.0, 0.0, 0.0, 0.0, 0.0, 0.0, 0.0, 0.0, 0.0, 0.0, 1.7395351977818117E9, 0.0, 2025-02-14 09:13:17.781
21.0, -187500.02235174447, -159083.4449629122, 58993.205010080936, 91001.35010496975, 72928.33303550877, 67952.25357440158, 78370.15579583119, -89164.10376597688, -0.076, 0.6940000000000001, 0.514, 192.0, 0.0, 0.0, 0.0, 0.0, 0.0, 0.0, 0.0, 0.0, 0.0, 1.7395351977818353E9, 0.0, 2025-02-14 09:13:17.781
22.0, -187500.02235174447, -158987.80184838796, 58818.704941118354, 90848.8441525512, 72587.29011860969, 67726.07627225832, 78204.61877639517, -89124.09414340189, -0.076, 0.6940000000000001, 0.514, 192.0, 0.0, 0.0, 0.0, 0.0, 0.0, 0.0, 0.0, 0.0, 0.0, 1.7395351977818525E9, 0.0, 2025-02-14 09:13:17.781
23.0, -187500.02235174447, -159171.64494653285, 58903.06042469269, 90940.2180838845, 72495.13387622045, 67774.6466129597, 78291.0306204594, -89282.38919763437, -0.076, 0.6940000000000001, 0.514, 192.0, 0.0, 0.0, 0.0, 0.0, 0.0, 0.0, 0.0, 0.0, 0.0, 1.7395351977818737E9, 0.0, 2025-02-14 09:13:17.781
24.0, -187500.02235174447, -159140.57602173998, 58688.30486396609, 90702.6637438135, 72419.56262821706, 67626.6110094322, 78064.2274694714, -89238.46801977968, -0.076, 0.6940000000000001, 0.514, 192.0, 0.0, 0.0, 0.0, 0.0, 0.0, 0.0, 0.0, 0.0, 0.0, 1.7395351977818856E9, 0.0, 2025-02-14 09:13:17.781
25.0, -187500.02235174447, -158802.05885196434, 58177.18752350659, 90177.68832179169, 72106.30292967593, 67152.32934383504, 77553.28894296753, -88971.65524621669, -0.076, 0.6940000000000001, 0.514, 192.0, 0.0, 0.0, 0.0, 0.0, 0.0, 0.0, 0.0, 0.0, 0.0, 1.7395351977818973E9, 0.0, 2025-02-14 09:13:17.781
26.0, -187500.02235174447, -158643.2944110983, 57933.06177056573, 89951.04163301487, 71751.96072482596, 66828.0725870219, 77324.38472800073, -88877.68851252658, -0.076, 0.6940000000000001, 0.514, 192.0, 0.0, 0.0, 0.0, 0.0, 0.0, 0.0, 0.0, 0.0, 0.0, 1.7395351977819088E9, 0.0, 2025-02-14 09:13:17.781
27.0, -187500.02235174447, -158815.2910846819, 58012.030483726325, 90049.07638419585, 71622.63353140754, 66860.41556124874, 77408.44963889715, -89031.73673531256, -0.084, 0.744, 0.554, 192.0, 253.0, 96.0, 23.0, 64.0, 17.0, 80.0, 0.0, 0.0, 0.0, 1.7395351977819204E9, 0.0, 2025-02-14 09:13:17.781
28.0, -187500.02235174447, -158852.4396839666, 57870.96862446888, 89891.65304799713, 71564.27312663474, 66772.57320553937, 77256.30131438987, -89047.53941864245, -0.084, 0.744, 0.554, 192.0, 0.0, 0.0, 0.0, 0.0, 0.0, 0.0, 0.0, 0.0, 0.0, 1.7395351977819328E9, 0.0, 2025-02-14 09:13:17.781
29.0, -187500.02235174447, -158539.15763368102, 57372.65883358227, 89380.13337613743, 71286.1727221218, 66341.29629627423, 76747.64266582044, -88796.35051445372, -0.084, 0.744, 0.554, 192.0, 0.0, 0.0, 0.0, 0.0, 0.0, 0.0, 0.0, 0.0, 0.0, 1.7395351977819445E9, 0.0, 2025-02-14 09:13:17.781
30.0, -187500.02235174447, -158315.8190030836, 57056.49340826195, 89072.23809626557, 70900.89570294568, 65982.10376287744, 76435.61231322435, -88649.18662895997, -0.084, 0.744, 0.554, 192.0, 0.0, 0.0, 0.0, 0.0, 0.0, 0.0, 0.0, 0.0, 0.0, 1.7395351977819557E9, 0.0, 2025-02-14 09:13:17.781
31.0, -187500.02235174447, -158454.3104117287, 57116.03845549089, 89149.2398559141, 70728.78727063982, 65977.40989654182, 76514.62572987386, -88781.1066247352, -0.084, 0.744, 0.554, 192.0, 0.0, 0.0, 0.0, 0.0, 0.0, 0.0, 0.0, 0.0, 0.0, 1.7395351977819955E9, 0.0, 2025-02-14 09:13:17.781
32.0, -187500.02235174447, -158545.88550876206, 57039.64019294264, 89071.56754393192, 70695.97490977943, 65955.16991080879, 76440.46264177116, -88844.473820266, -0.084, 0.744, 0.554, 192.0, 0.0, 0.0, 0.0, 0.0, 0.0, 0.0, 0.0, 0.0, 0.0, 1.7395351977820077E9, 0.0, 2025-02-14 09:13:17.782
33.0, -187500.02235174447, -158272.23310139574, 56572.19816114881, 88582.9584101389, 70478.78300890721, 65553.10673154674, 75970.42780762051, -88620.06230593471, -0.084, 0.744, 0.554, 192.0, 0.0, 0.0, 0.0, 0.0, 0.0, 0.0, 0.0, 0.0, 0.0, 1.7395351977820191E9, 0.0, 2025-02-14 09:13:17.782
34.0, -187500.02235174447, -157996.01024341705, 56191.57030481938, 88204.67748697728, 70089.77324840704, 65133.56448812062, 75585.41900937785, -88428.1725797859, -0.084, 0.744, 0.554, 192.0, 0.0, 0.0, 0.0, 0.0, 0.0, 0.0, 0.0, 0.0, 0.0, 1.739535197782031E9, 0.0, 2025-02-14 09:13:17.782
35.0, -187500.02235174447, -158087.25006428364, 56212.20096495163, 88250.81148753304, 69876.8952342147, 65070.68903096784, 75618.65605338289, -88531.32588044714, -0.084, 0.744, 0.554, 192.0, 0.0, 0.0, 0.0, 0.0, 0.0, 0.0, 0.0, 0.0, 0.0, 1.7395351977820427E9, 0.0, 2025-02-14 09:13:17.782
36.0, -187500.02235174447, -158232.6034584765, 56212.24566844055, 88238.04864144906, 69846.76508268894, 65061.92714714136, 75617.94079756031, -88640.4694486224, -0.084, 0.744, 0.554, 192.0, 0.0, 0.0, 0.0, 0.0, 0.0, 0.0, 0.0, 0.0, 0.0, 1.739535197782054E9, 0.0, 2025-02-14 09:13:17.782
37.0, -187500.02235174447, -158015.45626109318, 55787.78604123426, 87800.66970594761, 69652.75194081687, 64746.72284683262, 75176.80676899037, -88456.6263504775, -0.08600000000000001, 0.768, 0.5740000000000001, 192.0, 253.0, 80.0, 24.0, 0.0, 17.0, 240.0, 0.0, 0.0, 0.0, 1.7395351977820656E9, 0.0, 2025-02-14 09:13:17.782
38.0, -187500.02235174447, -157703.15768756362, 55337.174873015276, 87361.01089251172, 69262.4010756494, 64317.569353290724, 74726.66498740495, -88229.10794366694, -0.08600000000000001, 0.768, 0.5740000000000001, 192.0, 0.0, 0.0, 0.0, 0.0, 0.0, 0.0, 0.0, 0.0, 0.0, 1.7395351977820835E9, 0.0, 2025-02-14 09:13:17.782
39.0, -187500.02235174447, -157737.51231879144, 55302.417910387274, 87351.75727030722, 68997.01881373153, 64212.47145086187, 74704.51440864973, -88287.22247925073, -0.08600000000000001, 0.768, 0.5740000000000001, 192.0, 0.0, 0.0, 0.0, 0.0, 0.0, 0.0, 0.0, 0.0, 0.0, 1.739535197782096E9, 0.0, 2025-02-14 09:13:17.782
40.0, -187500.02235174447, -157908.6819778302, 55352.888149367354, 87397.80186388515, 68959.40082781325, 64240.79111108674, 74760.61728723256, -88425.28920475117, -0.08600000000000001, 0.768, 0.5740000000000001, 192.0, 0.0, 0.0, 0.0, 0.0, 0.0, 0.0, 0.0, 0.0, 0.0, 1.7395351977821112E9, 0.0, 2025-02-14 09:13:17.782
41.0, -187500.02235174447, -157749.7834264974, 54993.427395037106, 87024.37126927034, 68825.8938581817, 63968.21158745427, 74396.0603351665, -88289.10002578498, -0.08600000000000001, 0.768, 0.5740000000000001, 192.0, 0.0, 0.0, 0.0, 0.0, 0.0, 0.0, 0.0, 0.0, 0.0, 1.739535197782127E9, 0.0, 2025-02-14 09:13:17.782
42.0, -187500.02235174447, -157405.9018380525, 54509.713293279805, 86537.86319945613, 68455.07841766816, 63500.70250042707, 73906.22185542845, -88036.25709250655, -0.08600000000000001, 0.768, 0.5740000000000001, 192.0, 0.0, 0.0, 0.0, 0.0, 0.0, 0.0, 0.0, 0.0, 0.0, 1.7395351977821429E9, 0.0, 2025-02-14 09:13:17.782
43.0, -187500.02235174447, -157370.3402126241, 54404.23541119521, 86457.84395430612, 68147.02667558512, 63338.831167081735, 73810.24346473736, -88044.50488621055, -0.08600000000000001, 0.768, 0.5740000000000001, 192.0, 0.0, 0.0, 0.0, 0.0, 0.0, 0.0, 0.0, 0.0, 0.0, 1.7395351977821603E9, 0.0, 2025-02-14 09:13:17.782
44.0, -187500.02235174447, -157559.65948816057, 54494.24588611673, 86540.50070530185, 68087.52633184509, 63370.63769944164, 73897.7952477688, -88204.69983872173, -0.08600000000000001, 0.768, 0.5740000000000001, 192.0, 0.0, 0.0, 0.0, 0.0, 0.0, 0.0, 0.0, 0.0, 0.0, 1.7395351977821765E9, 0.0, 2025-02-14 09:13:17.782
45.0, -187500.02235174447, -157470.7666004618, 54217.30777231548, 86242.14962031241, 67982.78605732752, 63164.21933939688, 73606.39555530496, -88121.64075632581, -0.08600000000000001, 0.768, 0.5740000000000001, 192.0, 0.0, 0.0, 0.0, 0.0, 0.0, 0.0, 0.0, 0.0, 0.0, 1.739535197782192E9, 0.0, 2025-02-14 09:13:17.782
46.0, -187500.02235174447, -157121.00650322516, 53708.51501327932, 85729.19943680757, 67644.78297767436, 62680.3934789173, 73097.55809277989, -87858.3372066423, -0.08600000000000001, 0.768, 0.5740000000000001, 192.0, 0.0, 0.0, 0.0, 0.0, 0.0, 0.0, 0.0, 0.0, 0.0, 1.7395351977822077E9, 0.0, 2025-02-14 09:13:17.782
47.0, -187500.02235174447, -157015.84154556293, 53524.51545292324, 85570.77027210835, 67307.02576721022, 62452.65155466218, 72922.02984357237, -87814.17015959861, -0.084, 0.78, 0.586, 192.0, 253.0, 96.0, 24.0, 96.0, 18.0, 80.0, 0.0, 0.0, 0.0, 1.7395351977822323E9, 0.0, 2025-02-14 09:13:17.782
48.0, -187500.02235174447, -157201.36102454198, 53613.833023766645, 85674.05768323633, 67211.3155974526, 62519.52797407246, 73015.236617951, -87977.40494935572, -0.084, 0.78, 0.586, 192.0, 0.0, 0.0, 0.0, 0.0, 0.0, 0.0, 0.0, 0.0, 0.0, 1.7395351977822492E9, 0.0, 2025-02-14 09:13:17.782
49.0, -187500.02235174447, -157177.95874809727, 53419.28344002765, 85448.2156572599, 67142.2040035968, 62372.3193850898, 72810.49463874038, -87948.21357109709, -0.084, 0.78, 0.586, 192.0, 0.0, 0.0, 0.0, 0.0, 0.0, 0.0, 0.0, 0.0, 0.0, 1.739535197782265E9, 0.0, 2025-02-14 09:13:17.782
50.0, -187500.02235174447, -156837.74284574305, 52909.060169346354, 84922.72614511564, 66838.51085168253, 61910.88997255445, 72294.6163767119, -87685.71468421396, -0.084, 0.78, 0.586, 192.0, 0.0, 0.0, 0.0, 0.0, 0.0, 0.0, 0.0, 0.0, 0.0, 1.739535197782281E9, 0.0, 2025-02-14 09:13:17.782
51.0, -187500.02235174447, -156666.26026228192, 52654.406744767046, 84688.88219462421, 66477.39606826259, 61595.28334084551, 72055.07273138437, -87587.23289814388, -0.084, 0.78, 0.586, 192.0, 0.0, 0.0, 0.0, 0.0, 0.0, 0.0, 0.0, 0.0, 0.0, 1.739535197782297E9, 0.0, 2025-02-14 09:13:17.782
52.0, -187500.02235174447, -156833.89834569674, 52747.859388334684, 84792.68369587466, 66348.00181961081, 61609.45434683018, 72154.67210467721, -87745.63971109864, -0.084, 0.78, 0.586, 192.0, 0.0, 0.0, 0.0, 0.0, 0.0, 0.0, 0.0, 0.0, 0.0, 1.7395351977823126E9, 0.0, 2025-02-14 09:13:17.782
53.0, -187500.02235174447, -156876.41136365072, 52611.84902332414, 84653.38762442919, 66293.01652825077, 61560.25815728404, 72011.77740237444, -87774.29464749034, -0.084, 0.78, 0.586, 192.0, 0.0, 0.0, 0.0, 0.0, 0.0, 0.0, 0.0, 0.0, 0.0, 1.7395351977823288E9, 0.0, 2025-02-14 09:13:17.782
54.0, -187500.02235174447, -156563.10696162068, 52115.57324118295, 84143.76785084819, 66031.41171114585, 61126.79077706228, 71510.67364343091, -87529.00660383781, -0.084, 0.78, 0.586, 192.0, 0.0, 0.0, 0.0, 0.0, 0.0, 0.0, 0.0, 0.0, 0.0, 1.7395351977823443E9, 0.0, 2025-02-14 09:13:17.782
55.0, -187500.02235174447, -156329.21830764037, 51790.8247459918, 83832.5868645414, 65650.67209609415, 60753.33783070301, 71189.2555581636, -87377.66294213092, -0.084, 0.78, 0.586, 192.0, 0.0, 0.0, 0.0, 0.0, 0.0, 0.0, 0.0, 0.0, 0.0, 1.7395351977823603E9, 0.0, 2025-02-14 09:13:17.782
56.0, -187500.02235174447, -156457.85259698067, 51856.00243282347, 83915.66829868178, 65473.89214919713, 60753.29312721409, 71255.79670140705, -87508.93473731694, -0.084, 0.78, 0.586, 192.0, 0.0, 0.0, 0.0, 0.0, 0.0, 0.0, 0.0, 0.0, 0.0, 1.739535197782376E9, 0.0, 2025-02-14 09:13:17.782
57.0, -187500.02235174447, -156553.94274639402, 51805.10751069874, 83852.30110315098, 65443.538480226816, 60727.47686236821, 71199.6044158464, -87584.34952310915, -0.08600000000000001, 0.782, 0.588, 192.0, 253.0, 80.0, 24.0, 112.0, 18.0, 96.0, 0.0, 0.0, 0.0, 1.7395351977823918E9, 0.0, 2025-02-14 09:13:17.782
58.0, -187500.02235174447, -156284.42541175193, 51340.97353708429, 83371.42567293951, 65230.034617189725, 60345.37379090474, 70727.24500027239, -87368.18580248188, -0.08600000000000001, 0.782, 0.588, 192.0, 0.0, 0.0, 0.0, 0.0, 0.0, 0.0, 0.0, 0.0, 0.0, 1.7395351977824085E9, 0.0, 2025-02-14 09:13:17.782
59.0, -187500.02235174447, -155998.50189667963, 50938.820950844405, 82985.74632236318, 64848.13271142635, 59925.67508526744, 70341.18567004033, -87174.57499201, -0.08600000000000001, 0.782, 0.588, 192.0, 0.0, 0.0, 0.0, 0.0, 0.0, 0.0, 0.0, 0.0, 0.0, 1.7395351977824244E9, 0.0, 2025-02-14 09:13:17.782
60.0, -187500.02235174447, -156079.45991509676, 50968.14643956977, 83031.2991775631, 64633.24304023303, 59839.33029643659, 70373.77451345617, -87278.17532756036, -0.08600000000000001, 0.782, 0.588, 192.0, 0.0, 0.0, 0.0, 0.0, 0.0, 0.0, 0.0, 0.0, 0.0, 1.7395351977824404E9, 0.0, 2025-02-14 09:13:17.782
61.0, -187500.02235174447, -156223.76277730023, 50970.31455878193, 83035.25543633169, 64594.753336280985, 59885.71016618135, 70366.66665871939, -87396.81838712913, -0.08600000000000001, 0.782, 0.588, 192.0, 0.0, 0.0, 0.0, 0.0, 0.0, 0.0, 0.0, 0.0, 0.0, 1.7395351977824564E9, 0.0, 2025-02-14 09:13:17.782
62.0, -187500.02235174447, -156010.19185902976, 50566.4855917079, 82605.27492824495, 64414.5535724823, 59564.04621172503, 69951.99709558453, -87224.75465831217, -0.08600000000000001, 0.782, 0.588, 192.0, 0.0, 0.0, 0.0, 0.0, 0.0, 0.0, 0.0, 0.0, 0.0, 1.7395351977824981E9, 0.0, 2025-02-14 09:13:17.782
63.0, -187500.02235174447, -155687.63383479524, 50110.889984475376, 82158.62001879455, 64030.885878906956, 59124.02977037785, 69499.86600874258, -86997.70563813516, -0.08600000000000001, 0.782, 0.588, 192.0, 0.0, 0.0, 0.0, 0.0, 0.0, 0.0, 0.0, 0.0, 0.0, 1.739535197782514E9, 0.0, 2025-02-14 09:13:17.782
64.0, -187500.02235174447, -155708.1527362052, 50063.414879252305, 82146.93005644441, 63762.843759398915, 59019.87064121612, 69470.22759559484, -87054.72493824064, -0.08600000000000001, 0.782, 0.588, 192.0, 0.0, 0.0, 0.0, 0.0, 0.0, 0.0, 0.0, 0.0, 0.0, 1.7395351977825313E9, 0.0, 2025-02-14 09:13:17.782
65.0, -187500.02235174447, -155881.75873538957, 50125.217452671226, 82206.43040018444, 63720.66601761175, 59057.75684806787, 69533.2595149588, -87205.0851231915, -0.08600000000000001, 0.782, 0.588, 192.0, 0.0, 0.0, 0.0, 0.0, 0.0, 0.0, 0.0, 0.0, 0.0, 1.739535197782547E9, 0.0, 2025-02-14 09:13:17.782
66.0, -187500.02235174447, -155731.21973648306, 49789.918934097164, 81841.22524752919, 63598.67019637468, 58775.76724001971, 69187.09804857947, -87081.77054903157, -0.08600000000000001, 0.782, 0.588, 192.0, 0.0, 0.0, 0.0, 0.0, 0.0, 0.0, 0.0, 0.0, 0.0, 1.7395351977825627E9, 0.0, 2025-02-14 09:13:17.782
67.0, -187500.02235174447, -155387.15933408253, 49294.201945567365, 81346.06705261077, 63244.90913688054, 58303.51958316798, 68699.38298456467, -86831.11808670976, -0.078, 0.784, 0.588, 192.0, 253.0, 144.0, 24.0, 128.0, 18.0, 96.0, 0.0, 0.0, 0.0, 1.7395351977825787E9, 0.0, 2025-02-14 09:13:17.782
68.0, -187500.02235174447, -155343.23815622786, 49176.65412147691, 81257.04005444529, 62930.844775539015, 58139.547185843854, 68585.50084656487, -86838.56121761337, -0.078, 0.784, 0.588, 192.0, 0.0, 0.0, 0.0, 0.0, 0.0, 0.0, 0.0, 0.0, 0.0, 1.7395351977825954E9, 0.0, 2025-02-14 09:13:17.782
69.0, -187500.02235174447, -155532.44567304204, 49271.22435226731, 81356.7511864604, 62855.92172812483, 58194.197201037074, 68672.3597255182, -87005.75226613907, -0.078, 0.784, 0.588, 192.0, 0.0, 0.0, 0.0, 0.0, 0.0, 0.0, 0.0, 0.0, 0.0, 1.7395351977826111E9, 0.0, 2025-02-14 09:13:17.782
70.0, -187500.02235174447, -155450.07949472422, 49006.13266302737, 81069.46421497634, 62773.04145968455, 57980.849800211174, 68404.2505507768, -86935.99247169406, -0.078, 0.784, 0.588, 192.0, 0.0, 0.0, 0.0, 0.0, 0.0, 0.0, 0.0, 0.0, 0.0, 1.7395351977826269E9, 0.0, 2025-02-14 09:13:17.782
71.0, -187500.02235174447, -155099.73825213173, 48486.611066652666, 80550.94844710213, 62448.9411650826, 57513.4748236507, 67893.96022486212, -86675.52759355635, -0.078, 0.784, 0.588, 192.0, 0.0, 0.0, 0.0, 0.0, 0.0, 0.0, 0.0, 0.0, 0.0, 1.73953519778265E9, 0.0, 2025-02-14 09:13:17.782
72.0, -187500.02235174447, -154984.96204435374, 48304.31023887518, 80385.21026196603, 62109.30640808421, 57270.28784397696, 67717.04616749838, -86627.89602612211, -0.078, 0.784, 0.588, 192.0, 0.0, 0.0, 0.0, 0.0, 0.0, 0.0, 0.0, 0.0, 0.0, 1.739535197782666E9, 0.0, 2025-02-14 09:13:17.782
73.0, -187500.02235174447, -155168.3357558651, 48407.73176046989, 80494.66675456366, 62007.67302604592, 57322.233298091094, 67821.49586933802, -86799.35625783876, -0.078, 0.784, 0.588, 192.0, 0.0, 0.0, 0.0, 0.0, 0.0, 0.0, 0.0, 0.0, 0.0, 1.7395351977826817E9, 0.0, 2025-02-14 09:13:17.782
74.0, -187500.02235174447, -155155.34939233653, 48211.12581624101, 80283.6439351611, 61944.12701655949, 57216.107215417294, 67620.2631140069, -86787.59924025527, -0.078, 0.784, 0.588, 192.0, 0.0, 0.0, 0.0, 0.0, 0.0, 0.0, 0.0, 0.0, 0.0, 1.7395351977826977E9, 0.0, 2025-02-14 09:13:17.782
75.0, -187500.02235174447, -154821.3919784298, 47700.6566763707, 79758.33323697248, 61638.69042857772, 56771.419259478964, 67103.58018917801, -86532.96816742042, -0.078, 0.784, 0.588, 192.0, 0.0, 0.0, 0.0, 0.0, 0.0, 0.0, 0.0, 0.0, 0.0, 1.7395351977827134E9, 0.0, 2025-02-14 09:13:17.782
76.0, -187500.02235174447, -154642.86859546526, 47442.00228953389, 79510.3182804964, 61279.63200564766, 56435.6737060158, 66854.5817559459, -86431.98298597134, -0.078, 0.784, 0.588, 192.0, 0.0, 0.0, 0.0, 0.0, 0.0, 0.0, 0.0, 0.0, 0.0, 1.7395351977827294E9, 0.0, 2025-02-14 09:13:17.782
77.0, -187500.02235174447, -154806.25984743357, 47541.13227619318, 79615.25972071406, 61150.41657095154, 56438.110046161426, 66958.09268451843, -86591.66384836005, -0.082, 0.782, 0.592, 192.0, 253.0, 112.0, 24.0, 112.0, 18.0, 128.0, 0.0, 0.0, 0.0, 1.739535197782754E9, 0.0, 2025-02-14 09:13:17.782
78.0, -187500.02235174447, -154857.24417653613, 47427.25013819339, 79489.59821338633, 61113.60324783364, 56372.41826920727, 66836.61095340383, -86633.23809304692, -0.082, 0.782, 0.592, 192.0, 0.0, 0.0, 0.0, 0.0, 0.0, 0.0, 0.0, 0.0, 0.0, 1.7395351977827709E9, 0.0, 2025-02-14 09:13:17.782
79.0, -187500.02235174447, -154552.232271699, 46929.320326962516, 78985.83459685261, 60863.04019248965, 55963.761325330895, 66334.7025316599, -86398.85770068858, -0.082, 0.782, 0.592, 192.0, 0.0, 0.0, 0.0, 0.0, 0.0, 0.0, 0.0, 0.0, 0.0, 1.7395351977827868E9, 0.0, 2025-02-14 09:13:17.782
80.0, -187500.02235174447, -154312.8227368382, 46586.31045655137, 78663.88006971838, 60484.31223443893, 55605.44050996787, 66001.7285945092, -86246.39645175892, -0.082, 0.782, 0.592, 192.0, 0.0, 0.0, 0.0, 0.0, 0.0, 0.0, 0.0, 0.0, 0.0, 1.7395351977828023E9, 0.0, 2025-02-14 09:13:17.782
81.0, -187500.02235174447, -154438.17131974356, 46648.11302997029, 78744.12283231293, 60295.41764204713, 55613.24126878277, 66063.41940920585, -86382.38446502501, -0.082, 0.782, 0.592, 192.0, 0.0, 0.0, 0.0, 0.0, 0.0, 0.0, 0.0, 0.0, 0.0, 1.7395351977828183E9, 0.0, 2025-02-14 09:13:17.782
82.0, -187500.02235174447, -154545.41498964012, 46602.18019511464, 78693.07144797701, 60265.66747017711, 55610.67081817041, 66015.34080688248, -86474.58541090315, -0.082, 0.782, 0.592, 192.0, 0.0, 0.0, 0.0, 0.0, 0.0, 0.0, 0.0, 0.0, 0.0, 1.7395351977828343E9, 0.0, 2025-02-14 09:13:17.782
83.0, -187500.02235174447, -154285.173628947, 46156.21818974235, 78221.74021264794, 60054.53289205228, 55221.25872627005, 65561.73450490648, -86272.92797242737, -0.082, 0.782, 0.592, 192.0, 0.0, 0.0, 0.0, 0.0, 0.0, 0.0, 0.0, 0.0, 0.0, 1.7395351977828503E9, 0.0, 2025-02-14 09:13:17.782
84.0, -187500.02235174447, -153998.02076792964, 45751.67396684575, 77829.46709745731, 59666.61836703043, 54789.37831990461, 65170.22134902732, -86081.17235674529, -0.082, 0.782, 0.592, 192.0, 0.0, 0.0, 0.0, 0.0, 0.0, 0.0, 0.0, 0.0, 0.0, 1.7395351977828665E9, 0.0, 2025-02-14 09:13:17.782
85.0, -187500.02235174447, -154072.54148394364, 45768.035443787034, 77863.86643217402, 59450.00761151405, 54710.05197883272, 65197.91516040745, -86183.29747716158, -0.082, 0.782, 0.592, 192.0, 0.0, 0.0, 0.0, 0.0, 0.0, 0.0, 0.0, 0.0, 0.0, 1.7395351977828825E9, 0.0, 2025-02-14 09:13:17.782
86.0, -187500.02235174447, -154222.27582004975, 45793.78465339955, 77873.56708926763, 59425.040712957474, 54734.79535994475, 65209.42630880193, -86315.28452817017, -0.082, 0.782, 0.592, 192.0, 0.0, 0.0, 0.0, 0.0, 0.0, 0.0, 0.0, 0.0, 0.0, 1.7395351977828996E9, 0.0, 2025-02-14 09:13:17.782
87.0, -187500.02235174447, -154016.61741931646, 45387.63110490216, 77452.30376151846, 59259.95072841057, 54436.15370227739, 64795.91903637875, -86157.95059894928, -0.084, 0.788, 0.592, 192.0, 253.0, 96.0, 24.0, 160.0, 18.0, 128.0, 0.0, 0.0, 0.0, 1.7395351977829156E9, 0.0, 2025-02-14 09:13:17.782
88.0, -187500.02235174447, -153688.29264501247, 44915.919889917364, 76998.920976987, 58872.147962111, 54024.41221766618, 64330.30984763025, -85931.77329680602, -0.084, 0.788, 0.592, 192.0, 0.0, 0.0, 0.0, 0.0, 0.0, 0.0, 0.0, 0.0, 0.0, 1.739535197782932E9, 0.0, 2025-02-14 09:13:17.782
89.0, -187500.02235174447, -153698.50739222855, 44877.51959294314, 76979.29614535524, 58600.59661872347, 53891.12876547918, 64299.24092283737, -85987.295030033, -0.084, 0.788, 0.592, 192.0, 0.0, 0.0, 0.0, 0.0, 0.0, 0.0, 0.0, 0.0, 0.0, 1.7395351977829475E9, 0.0, 2025-02-14 09:13:17.782
90.0, -187500.02235174447, -153872.8733507244, 44949.91689323389, 77042.97626530842, 58563.6715368833, 53923.449387961555, 64378.29904297579, -86147.13235463291, -0.084, 0.788, 0.592, 192.0, 0.0, 0.0, 0.0, 0.0, 0.0, 0.0, 0.0, 0.0, 0.0, 1.7395351977829633E9, 0.0, 2025-02-14 09:13:17.782
91.0, -187500.02235174447, -153734.0913694014, 44623.134389297295, 76690.13162733694, 58446.593099426405, 53669.33240524917, 64031.89170740744, -86039.53105682506, -0.084, 0.788, 0.592, 192.0, 0.0, 0.0, 0.0, 0.0, 0.0, 0.0, 0.0, 0.0, 0.0, 1.7395351977829792E9, 0.0, 2025-02-14 09:13:17.782
92.0, -187500.02235174447, -153392.8025833133, 44129.47376125739, 76200.56136853235, 58086.08181310676, 53189.73102447165, 63535.347704332795, -85796.12055970676, -0.084, 0.788, 0.592, 192.0, 0.0, 0.0, 0.0, 0.0, 0.0, 0.0, 0.0, 0.0, 0.0, 1.739535197782992E9, 0.0, 2025-02-14 09:13:17.782
93.0, -187500.02235174447, -153340.32068733225, 44009.266079576744, 76108.78510579886, 57782.54512340369, 52976.741251557025, 63431.43444436008, -85802.4013998987, -0.084, 0.788, 0.592, 192.0, 0.0, 0.0, 0.0, 0.0, 0.0, 0.0, 0.0, 0.0, 0.0, 1.7395351977830095E9, 0.0, 2025-02-14 09:13:17.783
94.0, -187500.02235174447, -153528.1423959902, 44098.91892658698, 76202.32715634431, 57721.54721278515, 53036.800388908436, 63524.171832105145, -85978.04140782851, -0.084, 0.788, 0.592, 192.0, 0.0, 0.0, 0.0, 0.0, 0.0, 0.0, 0.0, 0.0, 0.0, 1.7395351977830215E9, 0.0, 2025-02-14 09:13:17.783
95.0, -187500.02235174447, -153457.46618002251, 43828.30635646658, 75922.75153669734, 57638.13050247795, 52877.477154431006, 63253.067523606725, -85924.48662811359, -0.084, 0.788, 0.592, 192.0, 0.0, 0.0, 0.0, 0.0, 0.0, 0.0, 0.0, 0.0, 0.0, 1.7395351977830331E9, 0.0, 2025-02-14 09:13:17.783
96.0, -187500.02235174447, -153112.6011148216, 43313.590385149764, 75404.95102464569, 57292.9748645991, 52439.60648055154, 62733.03183710955, -85670.25788667893, -0.084, 0.788, 0.592, 192.0, 0.0, 0.0, 0.0, 0.0, 0.0, 0.0, 0.0, 0.0, 0.0, 1.7395351977830446E9, 0.0, 2025-02-14 09:13:17.783
97.0, -187500.02235174447, -152989.7112238063, 43129.90374921605, 75229.82510683837, 56948.40037207608, 52177.197000646236, 62545.38894240725, -85619.29590932082, -0.088, 0.794, 0.594, 192.0, 253.0, 64.0, 24.0, 208.0, 18.0, 144.0, 0.0, 0.0, 0.0, 1.739535197783056E9, 0.0, 2025-02-14 09:13:17.783
98.0, -187500.02235174447, -153170.1121533051, 43237.3038813238, 75344.48955589409, 56852.53374010727, 52218.234803466185, 62656.20889141666, -85794.89121376172, -0.088, 0.794, 0.594, 192.0, 0.0, 0.0, 0.0, 0.0, 0.0, 0.0, 0.0, 0.0, 0.0, 1.7395351977830684E9, 0.0, 2025-02-14 09:13:17.783
99.0, -187500.02235174447, -153169.665118416, 43062.557943172214, 75150.05173087737, 56801.37059704907, 52095.389615939814, 62477.66315670767, -85797.72988530755, -0.088, 0.794, 0.594, 192.0, 0.0, 0.0, 0.0, 0.0, 0.0, 0.0, 0.0, 0.0, 0.0, 1.7395351977830803E9, 0.0, 2025-02-14 09:13:17.783
100.0, -187500.02235174447, -152844.46958833572, 42554.100460302885, 74625.72450944479, 56509.70268365177, 51651.88630245761, 61958.7227056888, -85554.96758877845, -0.088, 0.794, 0.594, 192.0, 0.0, 0.0, 0.0, 0.0, 0.0, 0.0, 0.0, 0.0, 0.0, 1.7395351977830925E9, 0.0, 2025-02-14 09:13:17.783
101.0, -187500.02235174447, -152659.10657156786, 42284.15844251614, 74373.99916338912, 56141.189472817125, 51323.36036245351, 61696.08970833894, -85453.15539278452, -0.088, 0.794, 0.594, 192.0, 0.0, 0.0, 0.0, 0.0, 0.0, 0.0, 0.0, 0.0, 0.0, 1.7395351977831047E9, 0.0, 2025-02-14 09:13:17.783
102.0, -187500.02235174447, -152816.7087217222, 42376.80642328339, 74484.2826705316, 56006.92254387409, 51331.58580441306, 61796.627854898914, -85617.2619005754, -0.088, 0.794, 0.594, 192.0, 0.0, 0.0, 0.0, 0.0, 0.0, 0.0, 0.0, 0.0, 0.0, 1.7395351977831168E9, 0.0, 2025-02-14 09:13:17.783
103.0, -187500.02235174447, -152878.26542595215, 42269.20512547554, 74371.31695405448, 55973.953720802514, 51300.22630694226, 61682.611606432394, -85674.79529080335, -0.088, 0.794, 0.594, 192.0, 0.0, 0.0, 0.0, 0.0, 0.0, 0.0, 0.0, 0.0, 0.0, 1.7395351977831287E9, 0.0, 2025-02-14 09:13:17.783
104.0, -187500.02235174447, -152584.45174508714, 41787.79325339714, 73866.01106715335, 55723.14479626952, 50905.203927183626, 61193.10840286117, -85452.46248870641, -0.088, 0.794, 0.594, 192.0, 0.0, 0.0, 0.0, 0.0, 0.0, 0.0, 0.0, 0.0, 0.0, 1.7395351977831411E9, 0.0, 2025-02-14 09:13:17.783
105.0, -187500.02235174447, -152343.99167823693, 41442.10117365136, 73535.76404282618, 55345.7132393972, 50531.77333256881, 60855.172378441384, -85301.90113805547, -0.088, 0.794, 0.594, 192.0, 0.0, 0.0, 0.0, 0.0, 0.0, 0.0, 0.0, 0.0, 0.0, 1.7395351977831533E9, 0.0, 2025-02-14 09:13:17.783
106.0, -187500.02235174447, -152464.5793395733, 41508.21763375016, 73621.95236944585, 55163.83709476436, 50497.46340482991, 60929.268411310724, -85440.2137327449, -0.088, 0.794, 0.594, 192.0, 0.0, 0.0, 0.0, 0.0, 0.0, 0.0, 0.0, 0.0, 0.0, 1.7395351977831657E9, 0.0, 2025-02-14 09:13:17.783
107.0, -187500.02235174447, -152580.58489329636, 41493.01844752055, 73588.80473241863, 55139.09371365234, 50477.212724353405, 60902.40161447545, -85544.73048981793, -0.092, 0.798, 0.596, 192.0, 253.0, 32.0, 24.0, 240.0, 18.0, 160.0, 0.0, 0.0, 0.0, 1.739535197783179E9, 0.0, 2025-02-14 09:13:17.783
108.0, -187500.02235174447, -152335.76623627738, 41045.35770956966, 73120.73685178005, 54935.24580421994, 50131.02890622961, 60445.62136478679, -85358.58516199412, -0.092, 0.798, 0.596, 192.0, 0.0, 0.0, 0.0, 0.0, 0.0, 0.0, 0.0, 0.0, 0.0, 1.7395351977832143E9, 0.0, 2025-02-14 09:13:17.783
109.0, -187500.02235174447, -152046.15468336997, 40633.30330053608, 72715.90205620552, 54547.15246524245, 49731.491474090995, 60033.70106621994, -85167.2989329456, -0.092, 0.798, 0.596, 192.0, 0.0, 0.0, 0.0, 0.0, 0.0, 0.0, 0.0, 0.0, 0.0, 1.739535197783227E9, 0.0, 2025-02-14 09:13:17.783
110.0, -187500.02235174447, -152114.28280046975, 40646.33436755352, 72749.0720449772, 54320.23755553217, 49651.69574638555, 60061.216063644424, -85269.55816382864, -0.092, 0.798, 0.596, 192.0, 0.0, 0.0, 0.0, 0.0, 0.0, 0.0, 0.0, 0.0, 0.0, 1.73953519778324E9, 0.0, 2025-02-14 09:13:17.783
111.0, -187500.02235174447, -152271.3932122461, 40679.01261794718, 72780.431542448, 54302.89260183485, 49671.87937162869, 60090.87682853662, -85414.19630219894, -0.092, 0.798, 0.596, 192.0, 0.0, 0.0, 0.0, 0.0, 0.0, 0.0, 0.0, 0.0, 0.0, 1.7395351977832515E9, 0.0, 2025-02-14 09:13:17.783
112.0, -187500.02235174447, -152082.18569543192, 40297.17776741717, 72379.70946785324, 54155.348736685366, 49367.470963891865, 59696.05561447807, -85269.8263847621, -0.092, 0.798, 0.596, 192.0, 0.0, 0.0, 0.0, 0.0, 0.0, 0.0, 0.0, 0.0, 0.0, 1.7395351977832632E9, 0.0, 2025-02-14 09:13:17.783
113.0, -187500.02235174447, -151761.30405203154, 39829.64632864551, 71922.34807280876, 53778.76654610236, 48954.32131937997, 59229.1276728067, -85047.85121057645, -0.092, 0.798, 0.596, 192.0, 0.0, 0.0, 0.0, 0.0, 0.0, 0.0, 0.0, 0.0, 0.0, 1.7395351977832747E9, 0.0, 2025-02-14 09:13:17.783
114.0, -187500.02235174447, -151766.80258116755, 39781.32185713314, 71893.60372943923, 53496.59812409856, 48834.60537607734, 59186.12291647469, -85105.09402812649, -0.092, 0.798, 0.596, 192.0, 0.0, 0.0, 0.0, 0.0, 0.0, 0.0, 0.0, 0.0, 0.0, 1.739535197783286E9, 0.0, 2025-02-14 09:13:17.783
115.0, -187500.02235174447, -151948.54461533364, 39869.34302679814, 71969.44319837609, 53457.54962653514, 48869.652911383266, 59268.8914261927, -85276.66601856542, -0.092, 0.798, 0.596, 192.0, 0.0, 0.0, 0.0, 0.0, 0.0, 0.0, 0.0, 0.0, 0.0, 1.7395351977832973E9, 0.0, 2025-02-14 09:13:17.783
116.0, -187500.02235174447, -151825.34179989598, 39557.91617130234, 71634.9046391135, 53356.765610786155, 48605.49999541044, 58949.440294437445, -85186.16380526588, -0.092, 0.798, 0.596, 192.0, 0.0, 0.0, 0.0, 0.0, 0.0, 0.0, 0.0, 0.0, 0.0, 1.7395351977833087E9, 0.0, 2025-02-14 09:13:17.783
117.0, -187500.02235174447, -151488.29984525443, 39069.35174099824, 71137.24304881609, 53009.955943817615, 48137.543873494134, 58457.23252978713, -84947.60363669439, -0.092, 0.792, 0.592, 192.0, 253.0, 32.0, 24.0, 192.0, 18.0, 128.0, 0.0, 0.0, 0.0, 1.7395351977833204E9, 0.0, 2025-02-14 09:13:17.783
118.0, -187500.02235174447, -151429.85003350378, 38937.498800456386, 71028.21123936311, 52695.846878987184, 47963.51319116512, 58334.16382481621, -84952.54337221902, -0.092, 0.792, 0.592, 192.0, 0.0, 0.0, 0.0, 0.0, 0.0, 0.0, 0.0, 0.0, 0.0, 1.7395351977833323E9, 0.0, 2025-02-14 09:13:17.783
119.0, -187500.02235174447, -151621.76211139705, 39036.49467664894, 71136.86306916036, 52629.998639821846, 48027.662697751846, 58440.17814876773, -85135.71591803026, -0.092, 0.792, 0.592, 192.0, 0.0, 0.0, 0.0, 0.0, 0.0, 0.0, 0.0, 0.0, 0.0, 1.739535197783344E9, 0.0, 2025-02-14 09:13:17.783
120.0, -187500.02235174447, -151566.03921246997, 38802.11428429059, 70882.25434806995, 52566.47498207987, 47838.052849537475, 58203.584933708305, -85097.20386233376, -0.092, 0.792, 0.592, 192.0, 0.0, 0.0, 0.0, 0.0, 0.0, 0.0, 0.0, 0.0, 0.0, 1.7395351982624283E9, 0.0, 2025-02-14 09:13:18.262
121.0, -187500.02235174447, -151228.97490608395, 38293.61209793235, 70366.97958314176, 52250.5330742041, 47386.793480729284, 57688.93601762486, -84852.40755705924, -0.092, 0.792, 0.592, 192.0, 0.0, 0.0, 0.0, 0.0, 0.0, 0.0, 0.0, 0.0, 0.0, 1.7395351982626288E9, 0.0, 2025-02-14 09:13:18.262
122.0, -187500.02235174447, -151104.14041330104, 38086.16555764265, 70185.50576990913, 51903.008151412985, 47139.605538798045, 57491.212486173215, -84802.42905645717, -0.092, 0.792, 0.592, 192.0, 0.0, 0.0, 0.0, 0.0, 0.0, 0.0, 0.0, 0.0, 0.0, 1.7395351982626503E9, 0.0, 2025-02-14 09:13:18.262
123.0, -187500.02235174447, -151287.67058702357, 38189.385913537255, 70304.9981957672, 51796.5244408279, 47188.01941728824, 57606.99452245171, -84986.1603958798, -0.092, 0.792, 0.592, 192.0, 0.0, 0.0, 0.0, 0.0, 0.0, 0.0, 0.0, 0.0, 0.0, 1.7395351982627845E9, 0.0, 2025-02-14 09:13:18.262
124.0, -187500.02235174447, -151301.3498546302, 38026.53110343589, 70122.36209182288, 51751.57508272828, 47085.53666896065, 57440.809302426496, -85007.70747753471, -0.092, 0.792, 0.592, 192.0, 0.0, 0.0, 0.0, 0.0, 0.0, 0.0, 0.0, 0.0, 0.0, 1.739535198262798E9, 0.0, 2025-02-14 09:13:18.262
125.0, -187500.02235174447, -150984.40211825396, 37526.96961485978, 69610.0824606517, 51469.83134386913, 46652.404564905715, 56929.133168355605, -84775.96459102209, -0.092, 0.792, 0.592, 192.0, 0.0, 0.0, 0.0, 0.0, 0.0, 0.0, 0.0, 0.0, 0.0, 1.7395351982628107E9, 0.0, 2025-02-14 09:13:18.262
126.0, -187500.02235174447, -150795.30636016207, 37251.26084700356, 69351.51748079271, 51100.62522895637, 46327.6337179701, 56655.88309238948, -84674.46531945054, -0.092, 0.792, 0.592, 192.0, 0.0, 0.0, 0.0, 0.0, 0.0, 0.0, 0.0, 0.0, 0.0, 1.7395351982628236E9, 0.0, 2025-02-14 09:13:18.262
127.0, -187500.02235174447, -150955.05427778416, 37340.131382957865, 69459.96814488985, 50961.57502669991, 46358.25560787387, 56755.90714882698, -84844.11505986632, -0.09, 0.792, 0.594, 192.0, 253.0, 48.0, 24.0, 192.0, 18.0, 144.0, 0.0, 0.0, 0.0, 1.7395351982628365E9, 0.0, 2025-02-14 09:13:18.262
128.0, -187500.02235174447, -151028.43505483092, 37262.36966399785, 69367.05194318914, 50942.106657279335, 46309.215880538926, 56672.155162352945, -84917.33937470191, -0.09, 0.792, 0.594, 192.0, 0.0, 0.0, 0.0, 0.0, 0.0, 0.0, 0.0, 0.0, 0.0, 1.7395351982628496E9, 0.0, 2025-02-14 09:13:18.262
129.0, -187500.02235174447, -150743.7855891926, 36794.52530080382, 68874.93358551664, 50705.44638698654, 45904.82811985351, 56196.10770894381, -84707.74706694449, -0.09, 0.792, 0.594, 192.0, 0.0, 0.0, 0.0, 0.0, 0.0, 0.0, 0.0, 0.0, 0.0, 1.7395351982628622E9, 0.0, 2025-02-14 09:13:18.262
130.0, -187500.02235174447, -150499.25750485153, 36443.11117447748, 68535.678808174, 50332.75339993875, 45517.87471984324, 55860.00452756936, -84558.8620971277, -0.09, 0.792, 0.594, 192.0, 0.0, 0.0, 0.0, 0.0, 0.0, 0.0, 0.0, 0.0, 0.0, 1.7395351982628748E9, 0.0, 2025-02-14 09:13:18.262
131.0, -187500.02235174447, -150620.38160805483, 36497.247099548236, 68616.56977135775, 50152.08424950651, 45496.81937656634, 55926.83624349073, -84702.13677908621, -0.09, 0.792, 0.594, 192.0, 0.0, 0.0, 0.0, 0.0, 0.0, 0.0, 0.0, 0.0, 0.0, 1.7395351982628975E9, 0.0, 2025-02-14 09:13:18.262
132.0, -187500.02235174447, -150751.31812707402, 36486.94294535434, 68594.59800655818, 50136.99682199917, 45489.13037647372, 55918.00730443088, -84824.78080091249, -0.09, 0.792, 0.594, 192.0, 0.0, 0.0, 0.0, 0.0, 0.0, 0.0, 0.0, 0.0, 0.0, 1.73953519826291E9, 0.0, 2025-02-14 09:13:18.262
133.0, -187500.02235174447, -150517.72004577162, 36057.6106378568, 68143.20452728326, 49944.39184002779, 45153.13895382154, 55470.86065660247, -84651.84535406178, -0.09, 0.792, 0.594, 192.0, 0.0, 0.0, 0.0, 0.0, 0.0, 0.0, 0.0, 0.0, 0.0, 1.7395351982629223E9, 0.0, 2025-02-14 09:13:18.262
134.0, -187500.02235174447, -150228.68963822004, 35632.77103099478, 67735.79928109638, 49559.785373185325, 44774.634513215366, 55042.86945377225, -84462.19080235848, -0.09, 0.792, 0.594, 192.0, 0.0, 0.0, 0.0, 0.0, 0.0, 0.0, 0.0, 0.0, 0.0, 1.7395351982629344E9, 0.0, 2025-02-14 09:13:18.262
135.0, -187500.02235174447, -150295.36489193022, 35645.5115253343, 67764.49892097698, 49332.22226288584, 44701.65606756879, 55055.38643066722, -84563.22068729647, -0.09, 0.792, 0.594, 192.0, 0.0, 0.0, 0.0, 0.0, 0.0, 0.0, 0.0, 0.0, 0.0, 1.7395351982629464E9, 0.0, 2025-02-14 09:13:18.262
136.0, -187500.02235174447, -150464.4111352457, 35694.05951429123, 67809.58238954334, 49312.21745159834, 44738.916425575786, 55103.465032990585, -84717.9394624161, -0.09, 0.792, 0.594, 192.0, 0.0, 0.0, 0.0, 0.0, 0.0, 0.0, 0.0, 0.0, 0.0, 1.7395351982629585E9, 0.0, 2025-02-14 09:13:18.262
137.0, -187500.02235174447, -150289.24051394948, 35326.77564940163, 67418.5609720422, 49174.41894703137, 44443.38166038772, 54730.615583731604, -84589.68515273156, -0.094, 0.8, 0.594, 192.0, 253.0, 16.0, 25.0, 0.0, 18.0, 144.0, 0.0, 0.0, 0.0, 1.7395351982629707E9, 0.0, 2025-02-14 09:13:18.262
138.0, -187500.02235174447, -149966.77189669275, 34872.6329055587, 66961.24428048662, 48820.41201834822, 43968.54120117917, 54278.43979340074, -84372.33678964815, -0.094, 0.8, 0.594, 192.0, 0.0, 0.0, 0.0, 0.0, 0.0, 0.0, 0.0, 0.0, 0.0, 1.7395351982629836E9, 0.0, 2025-02-14 09:13:18.262
139.0, -187500.02235174447, -149969.36469904956, 34815.434791497566, 66927.62725682584, 48546.06670690378, 43843.81846711856, 54219.61000199438, -84429.55725545374, -0.094, 0.8, 0.594, 192.0, 0.0, 0.0, 0.0, 0.0, 0.0, 0.0, 0.0, 0.0, 0.0, 1.7395351982630043E9, 0.0, 2025-02-14 09:13:18.263
140.0, -187500.02235174447, -150161.12031473164, 34906.89812980868, 67011.75922295562, 48501.720845904456, 43914.71820053079, 54297.43877618775, -84612.03689718687, -0.094, 0.8, 0.594, 192.0, 0.0, 0.0, 0.0, 0.0, 0.0, 0.0, 0.0, 0.0, 0.0, 1.7395351982630167E9, 0.0, 2025-02-14 09:13:18.263
141.0, -187500.02235174447, -150051.97674655638, 34609.955204719925, 66688.86592255425, 48401.316809811215, 43701.951945060726, 53981.07218516734, -84536.44329743902, -0.094, 0.8, 0.594, 192.0, 0.0, 0.0, 0.0, 0.0, 0.0, 0.0, 0.0, 0.0, 0.0, 1.7395351982630424E9, 0.0, 2025-02-14 09:13:18.263
142.0, -187500.02235174447, -149713.01254189166, 34116.02635574655, 66190.86905609001, 48055.44591610979, 43260.70615776851, 53485.55636233764, -84301.97349810285, -0.094, 0.8, 0.594, 192.0, 0.0, 0.0, 0.0, 0.0, 0.0, 0.0, 0.0, 0.0, 0.0, 1.739535198263055E9, 0.0, 2025-02-14 09:13:18.263
143.0, -187500.02235174447, -149645.39851491436, 33992.667078097715, 66085.14530481641, 47750.27754906149, 43033.2101027024, 53373.685881338824, -84303.8510446371, -0.094, 0.8, 0.594, 192.0, 0.0, 0.0, 0.0, 0.0, 0.0, 0.0, 0.0, 0.0, 0.0, 1.7395351982630675E9, 0.0, 2025-02-14 09:13:18.263
144.0, -187500.02235174447, -149842.20562484334, 34098.39082937132, 66201.5755416841, 47680.204830194096, 43115.39746706456, 53482.71769079181, -84494.13144518512, -0.094, 0.8, 0.594, 192.0, 0.0, 0.0, 0.0, 0.0, 0.0, 0.0, 0.0, 0.0, 0.0, 1.7395351982630796E9, 0.0, 2025-02-14 09:13:18.263
145.0, -187500.02235174447, -149801.3019324901, 33876.66152437467, 65961.80837891203, 47614.26718405094, 42971.966322894856, 53246.48210364367, -84472.47260480793, -0.094, 0.8, 0.594, 192.0, 0.0, 0.0, 0.0, 0.0, 0.0, 0.0, 0.0, 0.0, 0.0, 1.739535198263092E9, 0.0, 2025-02-14 09:13:18.263
146.0, -187500.02235174447, -149466.2269313606, 33371.35563747354, 65451.652163464096, 47310.88695655906, 42507.541776602484, 52746.741801111915, -84234.60534031455, -0.094, 0.8, 0.594, 192.0, 0.0, 0.0, 0.0, 0.0, 0.0, 0.0, 0.0, 0.0, 0.0, 1.7395351982631044E9, 0.0, 2025-02-14 09:13:18.263
147.0, -187500.02235174447, -149331.37885706173, 33171.19576587627, 65268.07728625266, 46966.9383128808, 42220.1653981406, 52553.82389471816, -84181.6764094444, -0.092, 0.8, 0.594, 192.0, 253.0, 32.0, 25.0, 0.0, 18.0, 144.0, 0.0, 0.0, 0.0, 1.7395351982631164E9, 0.0, 2025-02-14 09:13:18.263
148.0, -187500.02235174447, -149519.06645525296, 33282.105121863504, 65386.11684872113, 46858.93468367275, 42291.06513155284, 52656.86543665713, -84370.48159485837, -0.092, 0.8, 0.594, 192.0, 0.0, 0.0, 0.0, 0.0, 0.0, 0.0, 0.0, 0.0, 0.0, 1.7395351982631288E9, 0.0, 2025-02-14 09:13:18.263
149.0, -187500.02235174447, -149546.4026387218, 33139.45628874973, 65221.697416507894, 46824.31183151148, 42217.34907833923, 52502.86191736006, -84406.24438598685, -0.092, 0.8, 0.594, 192.0, 0.0, 0.0, 0.0, 0.0, 0.0, 0.0, 0.0, 0.0, 0.0, 1.739535198263141E9, 0.0, 2025-02-14 09:13:18.263
150.0, -187500.02235174447, -149231.6677250466, 32641.124146118662, 64712.412919093724, 46561.388261483706, 41788.17323305288, 52006.18380381868, -84181.85522340002, -0.092, 0.8, 0.594, 192.0, 0.0, 0.0, 0.0, 0.0, 0.0, 0.0, 0.0, 0.0, 0.0, 1.7395351982631533E9, 0.0, 2025-02-14 09:13:18.263
151.0, -187500.02235174447, -149034.7712081398, 32360.095663082084, 64448.438817076545, 46203.089797865134, 41433.249882847056, 51739.14751281113, -84076.69026573781, -0.092, 0.8, 0.594, 192.0, 0.0, 0.0, 0.0, 0.0, 0.0, 0.0, 0.0, 0.0, 0.0, 1.7395351982631655E9, 0.0, 2025-02-14 09:13:18.263
152.0, -187500.02235174447, -149191.99337863844, 32451.357835693103, 64558.118827118735, 46060.70918568483, 41466.01754021854, 51837.11520875874, -84245.82591603111, -0.092, 0.8, 0.594, 192.0, 0.0, 0.0, 0.0, 0.0, 0.0, 0.0, 0.0, 0.0, 0.0, 1.7395351982631776E9, 0.0, 2025-02-14 09:13:18.263
153.0, -187500.02235174447, -149280.14865877017, 32385.73311397232, 64482.05584073733, 46043.006604076225, 41442.16822888473, 51763.82383868979, -84331.58955950613, -0.092, 0.8, 0.594, 192.0, 0.0, 0.0, 0.0, 0.0, 0.0, 0.0, 0.0, 0.0, 0.0, 1.7395351982631893E9, 0.0, 2025-02-14 09:13:18.263
154.0, -187500.02235174447, -149005.35631243663, 31923.610797358848, 63998.25233200221, 45830.821493961994, 41037.19932284347, 51301.58976335404, -84131.87672279797, -0.092, 0.8, 0.594, 192.0, 0.0, 0.0, 0.0, 0.0, 0.0, 0.0, 0.0, 0.0, 0.0, 1.739535198263208E9, 0.0, 2025-02-14 09:13:18.263
155.0, -187500.02235174447, -148751.3510884465, 31565.357037229187, 63651.86734817831, 45464.40934710614, 40633.079783091525, 50957.95404409815, -83979.46017735722, -0.092, 0.8, 0.594, 192.0, 0.0, 0.0, 0.0, 0.0, 0.0, 0.0, 0.0, 0.0, 0.0, 1.7395351982632203E9, 0.0, 2025-02-14 09:13:18.263
156.0, -187500.02235174447, -148864.42856364592, 31612.787438963347, 63724.77873859152, 45266.8869813546, 40630.08464933451, 51007.329047599924, -84122.93602501584, -0.092, 0.8, 0.594, 192.0, 0.0, 0.0, 0.0, 0.0, 0.0, 0.0, 0.0, 0.0, 0.0, 1.7395351982632325E9, 0.0, 2025-02-14 09:13:18.263
157.0, -187500.02235174447, -149001.0200740123, 31614.620282008684, 63714.45223265317, 45238.679079851994, 40673.24586787771, 50992.174564859226, -84255.8394975471, -0.088, 0.798, 0.59, 192.0, 253.0, 64.0, 24.0, 240.0, 18.0, 112.0, 0.0, 0.0, 0.0, 1.7395351982632446E9, 0.0, 2025-02-14 09:13:18.263
158.0, -187500.02235174447, -148773.25579801272, 31196.352088016523, 63275.73219248441, 45059.373385831525, 40335.98039579158, 50566.95497834146, -84092.93998395682, -0.088, 0.798, 0.59, 192.0, 0.0, 0.0, 0.0, 0.0, 0.0, 0.0, 0.0, 0.0, 0.0, 1.7395351982632575E9, 0.0, 2025-02-14 09:13:18.263
159.0, -187500.02235174447, -148474.3906229008, 30780.028495791972, 62865.689440451795, 44688.93792497372, 39908.70444878393, 50156.174618741825, -83900.62557466335, -0.088, 0.798, 0.59, 192.0, 0.0, 0.0, 0.0, 0.0, 0.0, 0.0, 0.0, 0.0, 0.0, 1.7395351982632697E9, 0.0, 2025-02-14 09:13:18.263
160.0, -187500.02235174447, -148529.35356251642, 30788.991545318553, 62891.773926231144, 44464.52641064244, 39809.462703402365, 50177.07349980754, -83997.90036653285, -0.088, 0.798, 0.59, 192.0, 0.0, 0.0, 0.0, 0.0, 0.0, 0.0, 0.0, 0.0, 0.0, 1.7395351982632816E9, 0.0, 2025-02-14 09:13:18.263
161.0, -187500.02235174447, -148703.7418727567, 30846.368473335326, 62941.37244717747, 44451.85297153628, 39857.429547003456, 50238.07141042607, -84163.10210980203, -0.088, 0.798, 0.59, 192.0, 0.0, 0.0, 0.0, 0.0, 0.0, 0.0, 0.0, 0.0, 0.0, 1.7395351982632935E9, 0.0, 2025-02-14 09:13:18.263
162.0, -187500.02235174447, -148538.18250157626, 30494.060277230776, 62563.22563448258, 44324.5150833744, 39568.57795340753, 49878.76711830701, -84047.96827411275, -0.088, 0.798, 0.59, 192.0, 0.0, 0.0, 0.0, 0.0, 0.0, 0.0, 0.0, 0.0, 0.0, 1.7395351982633057E9, 0.0, 2025-02-14 09:13:18.263
163.0, -187500.02235174447, -148212.2270121845, 30032.675568184328, 62098.644625979025, 43972.005721569745, 39096.35264830025, 49420.44459825094, -83829.61408252885, -0.088, 0.798, 0.59, 192.0, 0.0, 0.0, 0.0, 0.0, 0.0, 0.0, 0.0, 0.0, 0.0, 1.7395351982633176E9, 0.0, 2025-02-14 09:13:18.263
164.0, -187500.02235174447, -148207.0190557264, 29949.191802643756, 62044.24047997481, 43683.19883146272, 38993.02053368337, 49350.03660321672, -83881.17955698723, -0.088, 0.798, 0.59, 192.0, 0.0, 0.0, 0.0, 0.0, 0.0, 0.0, 0.0, 0.0, 0.0, 1.7395351982633297E9, 0.0, 2025-02-14 09:13:18.263
165.0, -187500.02235174447, -148403.64735169976, 30048.47825151423, 62139.52596658778, 43629.48758953662, 39078.471252736, 49444.18215086248, -84068.35306505598, -0.088, 0.798, 0.59, 192.0, 0.0, 0.0, 0.0, 0.0, 0.0, 0.0, 0.0, 0.0, 0.0, 1.7395351982633417E9, 0.0, 2025-02-14 09:13:18.263
166.0, -187500.02235174447, -148303.98092317354, 29773.998829603057, 61838.09034086351, 43549.267178686525, 38847.533029023776, 49159.64444394642, -84003.95768928024, -0.088, 0.798, 0.59, 192.0, 0.0, 0.0, 0.0, 0.0, 0.0, 0.0, 0.0, 0.0, 0.0, 1.7395351982633536E9, 0.0, 2025-02-14 09:13:18.263
167.0, -187500.02235174447, -147961.75336381834, 29277.812454439696, 61342.84273896727, 43218.997802614904, 38395.24547997063, 48662.16166760465, -83768.5714684214, -0.092, 0.794, 0.588, 192.0, 253.0, 32.0, 24.0, 208.0, 18.0, 96.0, 0.0, 0.0, 0.0, 1.7395351982633655E9, 0.0, 2025-02-14 09:13:18.263
168.0, -187500.02235174447, -147882.3152640242, 29134.113089336526, 61226.01017069938, 42909.49319714227, 38178.67942794316, 48534.08617187574, -83763.9223055747, -0.092, 0.794, 0.588, 192.0, 0.0, 0.0, 0.0, 0.0, 0.0, 0.0, 0.0, 0.0, 0.0, 1.7395351982633784E9, 0.0, 2025-02-14 09:13:18.263
169.0, -187500.02235174447, -148079.12237395317, 29243.010788322783, 61348.6318407812, 42839.264016063695, 38258.07282424842, 48643.900292384664, -83959.9694561922, -0.092, 0.794, 0.588, 192.0, 0.0, 0.0, 0.0, 0.0, 0.0, 0.0, 0.0, 0.0, 0.0, 1.7395351982633967E9, 0.0, 2025-02-14 09:13:18.263
170.0, -187500.02235174447, -148045.66181250356, 29036.61478002248, 61124.06386423873, 42785.441015415316, 38112.58531958882, 48432.96687995993, -83953.30863634452, -0.092, 0.794, 0.588, 192.0, 0.0, 0.0, 0.0, 0.0, 0.0, 0.0, 0.0, 0.0, 0.0, 1.739535198263409E9, 0.0, 2025-02-14 09:13:18.263
171.0, -187500.02235174447, -147707.70343633933, 28539.623742058724, 60610.644294100326, 42483.73716875758, 37650.84298263109, 47930.05262971552, -83721.47634285408, -0.092, 0.794, 0.588, 192.0, 0.0, 0.0, 0.0, 0.0, 0.0, 0.0, 0.0, 0.0, 0.0, 1.7395351982634208E9, 0.0, 2025-02-14 09:13:18.263
172.0, -187500.02235174447, -147559.08668745597, 28310.36189918064, 60408.09278584633, 42131.227806952935, 37392.54622370556, 47704.50117641702, -83666.2004788161, -0.092, 0.794, 0.588, 192.0, 0.0, 0.0, 0.0, 0.0, 0.0, 0.0, 0.0, 0.0, 0.0, 1.739535198263433E9, 0.0, 2025-02-14 09:13:18.263
173.0, -187500.02235174447, -147738.88411985448, 28416.53268534335, 60532.56965071794, 42023.17947425598, 37457.63450355941, 47815.27642193752, -83858.4925363651, -0.092, 0.794, 0.588, 192.0, 0.0, 0.0, 0.0, 0.0, 0.0, 0.0, 0.0, 0.0, 0.0, 1.7395351982634451E9, 0.0, 2025-02-14 09:13:18.263
174.0, -187500.02235174447, -147770.66830046993, 28292.36874489412, 60388.57971293685, 41998.63725884405, 37374.86599384141, 47681.612990094785, -83906.57113868846, -0.092, 0.794, 0.588, 192.0, 0.0, 0.0, 0.0, 0.0, 0.0, 0.0, 0.0, 0.0, 0.0, 1.7395351982634573E9, 0.0, 2025-02-14 09:13:18.263
175.0, -187500.02235174447, -147455.21813097218, 27805.324233212978, 59885.97838711481, 41741.614549352475, 36940.661006052615, 47188.86878357754, -83686.47351103705, -0.092, 0.794, 0.588, 192.0, 0.0, 0.0, 0.0, 0.0, 0.0, 0.0, 0.0, 0.0, 0.0, 1.7395351982634692E9, 0.0, 2025-02-14 09:13:18.263
176.0, -187500.02235174447, -147240.93195687915, 27508.560122079867, 59603.34057847746, 41377.459928686614, 36593.80663559516, 46899.86072777042, -83575.60885853873, -0.092, 0.794, 0.588, 192.0, 0.0, 0.0, 0.0, 0.0, 0.0, 0.0, 0.0, 0.0, 0.0, 1.7395351982634811E9, 0.0, 2025-02-14 09:13:18.263
177.0, -187500.02235174447, -147387.91702841723, 27593.384992287756, 59708.28201869512, 41224.26107218994, 36621.27692953074, 46992.82163296004, -83745.48211639907, -0.082, 0.794, 0.588, 192.0, 253.0, 112.0, 24.0, 208.0, 18.0, 96.0, 0.0, 0.0, 0.0, 1.7395351982634935E9, 0.0, 2025-02-14 09:13:18.263
178.0, -187500.02235174447, -147480.5203056956, 27542.06538701837, 59645.98770689818, 41213.55458659585, 36593.02432453923, 46930.974356052204, -83843.76273676906, -0.082, 0.794, 0.588, 192.0, 0.0, 0.0, 0.0, 0.0, 0.0, 0.0, 0.0, 0.0, 0.0, 1.7395351982635064E9, 0.0, 2025-02-14 09:13:18.263
179.0, -187500.02235174447, -147202.82223258284, 27079.5407390047, 59166.20751216501, 40996.16152002353, 36219.23610201313, 46458.23496082246, -83652.38710074272, -0.082, 0.794, 0.588, 192.0, 0.0, 0.0, 0.0, 0.0, 0.0, 0.0, 0.0, 0.0, 0.0, 1.7395351982635183E9, 0.0, 2025-02-14 09:13:18.263
180.0, -187500.02235174447, -146933.61782236313, 26706.1548478788, 58806.344426434574, 40612.69499214828, 35822.73850712043, 46098.64009602548, -83497.19893898952, -0.082, 0.794, 0.588, 192.0, 0.0, 0.0, 0.0, 0.0, 0.0, 0.0, 0.0, 0.0, 0.0, 1.7395351982635305E9, 0.0, 2025-02-14 09:13:18.263
181.0, -187500.02235174447, -147033.5077683339, 26753.38408391286, 58873.399659800496, 40420.64880378828, 35774.54814607479, 46161.13557352252, -83636.24914124598, -0.082, 0.794, 0.588, 192.0, 0.0, 0.0, 0.0, 0.0, 0.0, 0.0, 0.0, 0.0, 0.0, 1.739535198263543E9, 0.0, 2025-02-14 09:13:18.263
182.0, -187500.02235174447, -147174.7260898025, 26763.375313684384, 58873.33260456713, 40412.356306595364, 35792.02721023884, 46171.93146609444, -83776.84161386987, -0.082, 0.794, 0.588, 192.0, 0.0, 0.0, 0.0, 0.0, 0.0, 0.0, 0.0, 0.0, 0.0, 1.7395351982635548E9, 0.0, 2025-02-14 09:13:18.263
183.0, -187500.02235174447, -146950.67220338254, 26357.221765186998, 58442.100398790884, 40246.17108657015, 35462.40603475643, 45744.16378070877, -83623.0392602729, -0.082, 0.794, 0.588, 192.0, 0.0, 0.0, 0.0, 0.0, 0.0, 0.0, 0.0, 0.0, 0.0, 1.7395351982635667E9, 0.0, 2025-02-14 09:13:18.263
184.0, -187500.02235174447, -146636.33962110753, 25920.17810585238, 58016.25496342838, 39862.03400636125, 35069.79764339896, 45299.47582477043, -83427.52855152232, -0.082, 0.794, 0.588, 192.0, 0.0, 0.0, 0.0, 0.0, 0.0, 0.0, 0.0, 0.0, 0.0, 1.7395351982635849E9, 0.0, 2025-02-14 09:13:18.263
185.0, -187500.02235174447, -146676.52805763818, 25909.158695835915, 58025.44153039951, 39607.04530561511, 34992.0582761834, 45295.49721425739, -83522.29994801283, -0.082, 0.794, 0.588, 192.0, 0.0, 0.0, 0.0, 0.0, 0.0, 0.0, 0.0, 0.0, 0.0, 1.7395351982635972E9, 0.0, 2025-02-14 09:13:18.263
186.0, -187500.02235174447, -146849.9552428669, 25968.99431574277, 58083.60076947222, 39581.11728204695, 35045.47894543158, 45361.85954354519, -83696.82236871986, -0.082, 0.794, 0.588, 192.0, 0.0, 0.0, 0.0, 0.0, 0.0, 0.0, 0.0, 0.0, 0.0, 1.7395351982636092E9, 0.0, 2025-02-14 09:13:18.263
187.0, -187500.02235174447, -146687.50276416575, 25620.620026662356, 57710.594858002056, 39465.67052193529, 34766.618581607174, 45007.070303806104, -83593.31144014734, -0.082, 0.798, 0.586, 192.0, 253.0, 112.0, 24.0, 240.0, 18.0, 80.0, 0.0, 0.0, 0.0, 1.739535198263621E9, 0.0, 2025-02-14 09:13:18.263
188.0, -187500.02235174447, -146347.62213797835, 25155.949611180975, 57235.41912262668, 39108.31083158384, 34278.031799558616, 44544.92563544818, -83375.94072531948, -0.082, 0.798, 0.586, 192.0, 0.0, 0.0, 0.0, 0.0, 0.0, 0.0, 0.0, 0.0, 0.0, 1.739535198263634E9, 0.0, 2025-02-14 09:13:18.263
189.0, -187500.02235174447, -146320.0847888094, 25089.028488281787, 57179.85268591079, 38825.24833980183, 34096.35682062588, 44477.51277417097, -83420.0407171298, -0.082, 0.798, 0.586, 192.0, 0.0, 0.0, 0.0, 0.0, 0.0, 0.0, 0.0, 0.0, 0.0, 1.739535198263646E9, 0.0, 2025-02-14 09:13:18.263
190.0, -187500.02235174447, -146509.6946370238, 25173.7415997674, 57275.20522775713, 38776.00744676679, 34204.60631902293, 44561.17535366718, -83612.64569910118, -0.082, 0.798, 0.586, 192.0, 0.0, 0.0, 0.0, 0.0, 0.0, 0.0, 0.0, 0.0, 0.0, 1.7395351982636647E9, 0.0, 2025-02-14 09:13:18.263
191.0, -187500.02235174447, -146411.83869979845, 24894.434201053882, 56976.92119800105, 38684.45470147785, 34031.62616868331, 44269.395681547605, -83559.89558218665, -0.082, 0.798, 0.586, 192.0, 0.0, 0.0, 0.0, 0.0, 0.0, 0.0, 0.0, 0.0, 0.0, 1.7395351982636771E9, 0.0, 2025-02-14 09:13:18.263
192.0, -187500.02235174447, -146059.35168973825, 24394.425677588664, 56471.928235522304, 38357.29221788552, 33570.21910789241, 43772.270533117124, -83327.28097764027, -0.082, 0.798, 0.586, 192.0, 0.0, 0.0, 0.0, 0.0, 0.0, 0.0, 0.0, 0.0, 0.0, 1.7395351982636893E9, 0.0, 2025-02-14 09:13:18.263
193.0, -187500.02235174447, -145962.5015810134, 24243.238478092968, 56334.3979518888, 38041.97615885451, 33326.920369496394, 43631.36513607087, -83318.13911415805, -0.082, 0.798, 0.586, 192.0, 0.0, 0.0, 0.0, 0.0, 0.0, 0.0, 0.0, 0.0, 0.0, 1.7395351982637017E9, 0.0, 2025-02-14 09:13:18.263
194.0, -187500.02235174447, -146154.72658332903, 24369.235261587535, 56457.868988259914, 37970.69644578653, 33369.209870005834, 43754.880875930896, -83519.12600030018, -0.082, 0.798, 0.586, 192.0, 0.0, 0.0, 0.0, 0.0, 0.0, 0.0, 0.0, 0.0, 0.0, 1.739535198263714E9, 0.0, 2025-02-14 09:13:18.263
195.0, -187500.02235174447, -146132.17367317365, 24179.625413373164, 56245.929747334696, 37918.99686086141, 33229.86909507145, 43554.34102467788, -83524.22219803599, -0.082, 0.798, 0.586, 192.0, 0.0, 0.0, 0.0, 0.0, 0.0, 0.0, 0.0, 0.0, 0.0, 1.7395351982637262E9, 0.0, 2025-02-14 09:13:18.263
196.0, -187500.02235174447, -145796.62928541057, 23668.95510780276, 55731.906680096, 37609.067572244116, 32804.22482540904, 43032.65130909101, -83296.27910808077, -0.082, 0.798, 0.586, 192.0, 0.0, 0.0, 0.0, 0.0, 0.0, 0.0, 0.0, 0.0, 0.0, 1.7395351982637384E9, 0.0, 2025-02-14 09:13:18.263
197.0, -187500.02235174447, -145635.60731835454, 23434.485308466592, 55518.8051484591, 37256.312341250465, 32505.38200204158, 42809.200919771305, -83231.39199392701, -0.076, 0.8, 0.594, 192.0, 253.0, 160.0, 25.0, 0.0, 18.0, 144.0, 0.0, 0.0, 0.0, 1.7395351982637506E9, 0.0, 2025-02-14 09:13:18.263
198.0, -187500.02235174447, -145809.52624196128, 23534.12938524835, 55637.02352488322, 37151.01327312151, 32557.64038057809, 42921.138456003486, -83421.11360086365, -0.076, 0.8, 0.594, 192.0, 0.0, 0.0, 0.0, 0.0, 0.0, 0.0, 0.0, 0.0, 0.0, 1.7395351982637632E9, 0.0, 2025-02-14 09:13:18.263
199.0, -187500.02235174447, -145847.83713195767, 23420.403709459748, 55500.342607539016, 37128.14743854373, 32490.071057089695, 42798.13680626593, -83479.96574401448, -0.076, 0.8, 0.594, 192.0, 0.0, 0.0, 0.0, 0.0, 0.0, 0.0, 0.0, 0.0, 0.0, 1.739535198263775E9, 0.0, 2025-02-14 09:13:18.263
200.0, -187500.02235174447, -145532.6998868823, 22926.76543316429, 54997.87539218371, 36873.47166221996, 32087.471435960706, 42297.65889616715, -83265.59016294363, -0.076, 0.8, 0.594, 192.0, 0.0, 0.0, 0.0, 0.0, 0.0, 0.0, 0.0, 0.0, 0.0, 1.7395351982637937E9, 0.0, 2025-02-14 09:13:18.263
201.0, -187500.02235174447, -145307.03667486153, 22622.71465333875, 54704.68756016345, 36492.955564612814, 31734.80561194487, 41994.83746228665, -83148.9811121203, -0.076, 0.8, 0.594, 192.0, 0.0, 0.0, 0.0, 0.0, 0.0, 0.0, 0.0, 0.0, 0.0, 1.739535198263806E9, 0.0, 2025-02-14 09:13:18.263
202.0, -187500.02235174447, -145446.1315806069, 22704.29852060062, 54807.885564313605, 36324.28930095307, 31747.32258883984, 42093.76628324584, -83316.48508506836, -0.076, 0.8, 0.594, 192.0, 0.0, 0.0, 0.0, 0.0, 0.0, 0.0, 0.0, 0.0, 0.0, 1.739535198263818E9, 0.0, 2025-02-14 09:13:18.263
203.0, -187500.02235174447, -145545.12745679944, 22666.568775960062, 54753.012031675826, 36320.087172995474, 31717.550065225372, 42049.55453271324, -83425.11456312115, -0.076, 0.8, 0.594, 192.0, 0.0, 0.0, 0.0, 0.0, 0.0, 0.0, 0.0, 0.0, 0.0, 1.73953519826383E9, 0.0, 2025-02-14 09:13:18.263
204.0, -187500.02235174447, -145275.40895645725, 22217.902209508684, 54276.83046779996, 36123.16830434422, 31326.95333086888, 41584.99587595414, -83244.11013652208, -0.076, 0.8, 0.594, 192.0, 0.0, 0.0, 0.0, 0.0, 0.0, 0.0, 0.0, 0.0, 0.0, 1.739535198263842E9, 0.0, 2025-02-14 09:13:18.263
205.0, -187500.02235174447, -144995.9227437881, 21834.815661289176, 53904.76332959692, 35740.43938403599, 30942.16805007077, 41202.51282483493, -83084.94336425583, -0.076, 0.8, 0.594, 192.0, 0.0, 0.0, 0.0, 0.0, 0.0, 0.0, 0.0, 0.0, 0.0, 1.7395351982638545E9, 0.0, 2025-02-14 09:13:18.263
206.0, -187500.02235174447, -145085.44148033162, 21867.18098726046, 53964.554246014864, 35535.54094261419, 30913.155485767784, 41254.10065103777, -83219.97025251035, -0.076, 0.8, 0.594, 192.0, 0.0, 0.0, 0.0, 0.0, 0.0, 0.0, 0.0, 0.0, 0.0, 1.7395351982638664E9, 0.0, 2025-02-14 09:13:18.263
207.0, -187500.02235174447, -145231.91246174724, 21891.946720116943, 53980.513391555956, 35522.46517210784, 30944.962018127684, 41274.68660768111, -83369.86105082763, -0.076, 0.804, 0.596, 192.0, 253.0, 160.0, 25.0, 32.0, 18.0, 160.0, 0.0, 0.0, 0.0, 1.7395351982638783E9, 0.0, 2025-02-14 09:13:18.263
208.0, -187500.02235174447, -145014.74291261946, 21508.904875386343, 53562.40165977498, 35359.69976898429, 30605.48372334048, 40876.15500404299, -83226.47461014683, -0.076, 0.804, 0.596, 192.0, 0.0, 0.0, 0.0, 0.0, 0.0, 0.0, 0.0, 0.0, 0.0, 1.739535198263891E9, 0.0, 2025-02-14 09:13:18.263
209.0, -187500.02235174447, -144695.82822273116, 21066.943832271558, 53129.44836967569, 34982.17880513416, 30197.184407375385, 40433.1434289388, -83031.45563977429, -0.076, 0.804, 0.596, 192.0, 0.0, 0.0, 0.0, 0.0, 0.0, 0.0, 0.0, 0.0, 0.0, 1.739535198263903E9, 0.0, 2025-02-14 09:13:18.263
210.0, -187500.02235174447, -144725.667801579, 21047.721332039993, 53131.01299178755, 34734.78969750282, 30108.49268537673, 40416.96076595316, -83124.10362054153, -0.076, 0.804, 0.596, 192.0, 0.0, 0.0, 0.0, 0.0, 0.0, 0.0, 0.0, 0.0, 0.0, 1.739535198263915E9, 0.0, 2025-02-14 09:13:18.263
211.0, -187500.02235174447, -144904.48175722145, 21127.718225445537, 53205.33254210145, 34719.21053161747, 30145.06013930561, 40497.76232215909, -83308.19258787544, -0.076, 0.804, 0.596, 192.0, 0.0, 0.0, 0.0, 0.0, 0.0, 0.0, 0.0, 0.0, 0.0, 1.7395351982639272E9, 0.0, 2025-02-14 09:13:18.263
212.0, -187500.02235174447, -144753.24985423684, 20789.82690451466, 52847.74933430545, 34605.28369012877, 29890.049086815012, 40148.806887722836, -83218.56209260966, -0.076, 0.804, 0.596, 192.0, 0.0, 0.0, 0.0, 0.0, 0.0, 0.0, 0.0, 0.0, 0.0, 1.739535198263939E9, 0.0, 2025-02-14 09:13:18.263
213.0, -187500.02235174447, -144410.30703905906, 20305.084622512415, 52369.80198261762, 34250.09211898949, 29438.230924395433, 39670.12192846798, -83001.68311615981, -0.076, 0.804, 0.596, 192.0, 0.0, 0.0, 0.0, 0.0, 0.0, 0.0, 0.0, 0.0, 0.0, 1.739535198263951E9, 0.0, 2025-02-14 09:13:18.263
214.0, -187500.02235174447, -144373.0690327965, 20218.024577858996, 52304.49018531921, 33954.46794682359, 29266.99421012333, 39599.378657266934, -83042.2515323462, -0.076, 0.804, 0.596, 192.0, 0.0, 0.0, 0.0, 0.0, 0.0, 0.0, 0.0, 0.0, 0.0, 1.7395351982639632E9, 0.0, 2025-02-14 09:13:18.263
215.0, -187500.02235174447, -144566.29986361266, 20321.110823286872, 52415.2207273508, 33904.6012049438, 29355.529469910798, 39700.16267301592, -83240.17622949794, -0.076, 0.804, 0.596, 192.0, 0.0, 0.0, 0.0, 0.0, 0.0, 0.0, 0.0, 0.0, 0.0, 1.739535198263981E9, 0.0, 2025-02-14 09:13:18.263
216.0, -187500.02235174447, -144484.33601669504, 20060.377724215716, 52137.03091586005, 33826.481858072504, 29184.359810872058, 39429.9077308068, -83200.47953134532, -0.076, 0.804, 0.596, 192.0, 0.0, 0.0, 0.0, 0.0, 0.0, 0.0, 0.0, 0.0, 0.0, 1.7395351982639933E9, 0.0, 2025-02-14 09:13:18.263
217.0, -187500.02235174447, -144135.20176830314, 19567.74527642075, 51634.94368016049, 33497.17360701247, 28716.671909889214, 38932.804934120766, -82974.07871175751, -0.074, 0.8, 0.598, 192.0, 253.0, 176.0, 25.0, 0.0, 18.0, 176.0, 0.0, 0.0, 0.0, 1.7395351982640054E9, 0.0, 2025-02-14 09:13:18.264
218.0, -187500.02235174447, -144027.3546013063, 19410.768975111125, 51494.39591102552, 33182.975135204215, 28436.179868719562, 38792.03364754125, -82960.66766508433, -0.074, 0.8, 0.598, 192.0, 0.0, 0.0, 0.0, 0.0, 0.0, 0.0, 0.0, 0.0, 0.0, 1.739535198264018E9, 0.0, 2025-02-14 09:13:18.264
219.0, -187500.02235174447, -144218.4396646547, 19515.889229284436, 51620.19152881999, 33108.34266046794, 28519.954206938055, 38908.77680883132, -83164.40381579445, -0.074, 0.8, 0.598, 192.0, 0.0, 0.0, 0.0, 0.0, 0.0, 0.0, 0.0, 0.0, 0.0, 1.7395351982640297E9, 0.0, 2025-02-14 09:13:18.264
220.0, -187500.02235174447, -144206.14620520428, 19313.762404175093, 51419.11523570005, 33053.37972085235, 28450.283819470864, 38711.16503610194, -83184.1404061485, -0.074, 0.8, 0.598, 192.0, 0.0, 0.0, 0.0, 0.0, 0.0, 0.0, 0.0, 0.0, 0.0, 1.7395351982640417E9, 0.0, 2025-02-14 09:13:18.264
221.0, -187500.02235174447, -143870.62416918567, 18820.168831368548, 50908.266116174, 32761.19771733257, 27996.185779116844, 38212.76583823751, -82960.53355461759, -0.074, 0.8, 0.598, 192.0, 0.0, 0.0, 0.0, 0.0, 0.0, 0.0, 0.0, 0.0, 0.0, 1.7395351982640536E9, 0.0, 2025-02-14 09:13:18.264
222.0, -187500.02235174447, -143697.35344616813, 18588.940034978394, 50683.921657076084, 32406.31907061566, 27669.805606580452, 37985.20272793803, -82890.8631671504, -0.074, 0.8, 0.598, 192.0, 0.0, 0.0, 0.0, 0.0, 0.0, 0.0, 0.0, 0.0, 0.0, 1.7395351982640655E9, 0.0, 2025-02-14 09:13:18.264
223.0, -187500.02235174447, -143867.94195985104, 18698.08360315366, 50810.85721383777, 32293.040429716162, 27707.24477854309, 38105.72333404104, -83082.6634863214, -0.074, 0.8, 0.598, 192.0, 0.0, 0.0, 0.0, 0.0, 0.0, 0.0, 0.0, 0.0, 0.0, 1.7395351982640777E9, 0.0, 2025-02-14 09:13:18.264
224.0, -187500.02235174447, -143919.70860000953, 18587.91185473345, 50689.04020655635, 32269.414635826903, 27688.089333544893, 37986.588536094256, -83153.4291092669, -0.074, 0.8, 0.598, 192.0, 0.0, 0.0, 0.0, 0.0, 0.0, 0.0, 0.0, 0.0, 0.0, 1.7395351982640896E9, 0.0, 2025-02-14 09:13:18.264
225.0, -187500.02235174447, -143615.03197133922, 18106.388223932772, 50190.88687788092, 32018.24808338262, 27283.612165881656, 37493.03966677662, -82949.46944111222, -0.074, 0.8, 0.598, 192.0, 0.0, 0.0, 0.0, 0.0, 0.0, 0.0, 0.0, 0.0, 0.0, 1.7395351982641017E9, 0.0, 2025-02-14 09:13:18.264
226.0, -187500.02235174447, -143381.16566910336, 17786.311243332773, 49888.579534122895, 31650.78540453737, 26909.354556721995, 37184.60794503784, -82830.35699490989, -0.074, 0.8, 0.598, 192.0, 0.0, 0.0, 0.0, 0.0, 0.0, 0.0, 0.0, 0.0, 0.0, 1.7395351982641137E9, 0.0, 2025-02-14 09:13:18.264
227.0, -187500.02235174447, -143514.71734222383, 17868.07392455029, 49989.40825336078, 31489.74108573688, 26907.32054797656, 37275.49013799312, -82998.79974112508, -0.07200000000000001, 0.798, 0.59, 192.0, 253.0, 192.0, 24.0, 240.0, 18.0, 112.0, 0.0, 0.0, 0.0, 1.7395351982641256E9, 0.0, 2025-02-14 09:13:18.264
228.0, -187500.02235174447, -143625.2020150664, 17840.067188747787, 49948.45985751866, 31479.66044898754, 26905.532408420135, 37242.253093988074, -83121.35435597353, -0.07200000000000001, 0.798, 0.59, 192.0, 0.0, 0.0, 0.0, 0.0, 0.0, 0.0, 0.0, 0.0, 0.0, 1.739535198264138E9, 0.0, 2025-02-14 09:13:18.264
229.0, -187500.02235174447, -143363.06075609455, 17402.218866612777, 49486.8292792832, 31285.24497571528, 26525.910380591202, 36792.9830304364, -82948.64242656737, -0.07200000000000001, 0.798, 0.59, 192.0, 0.0, 0.0, 0.0, 0.0, 0.0, 0.0, 0.0, 0.0, 0.0, 1.7395351982641504E9, 0.0, 2025-02-14 09:13:18.264
230.0, -187500.02235174447, -143075.90789507722, 17003.37433855228, 49108.90598403287, 30903.432476929724, 26143.628495172085, 36402.31924084655, -82785.94407867719, -0.07200000000000001, 0.798, 0.59, 192.0, 0.0, 0.0, 0.0, 0.0, 0.0, 0.0, 0.0, 0.0, 0.0, 1.7395351982641687E9, 0.0, 2025-02-14 09:13:18.264
231.0, -187500.02235174447, -143157.0894309389, 17024.161460895713, 49159.890313135424, 30687.045238857896, 26132.117346777603, 36439.624302342454, -82917.68526049677, -0.07200000000000001, 0.798, 0.59, 192.0, 0.0, 0.0, 0.0, 0.0, 0.0, 0.0, 0.0, 0.0, 0.0, 1.739535198264181E9, 0.0, 2025-02-14 09:13:18.264
232.0, -187500.02235174447, -143309.64008684637, 17058.203167701147, 49185.840688448036, 30682.55253822238, 26176.59731824366, 36470.71557887978, -83078.81898627509, -0.07200000000000001, 0.798, 0.59, 192.0, 0.0, 0.0, 0.0, 0.0, 0.0, 0.0, 0.0, 0.0, 0.0, 1.7395351982641928E9, 0.0, 2025-02-14 09:13:18.264
233.0, -187500.02235174447, -143104.78634891348, 16673.01555550284, 48777.25079980503, 30542.6082661877, 25848.96544801777, 36078.24129798905, -82950.31880740152, -0.07200000000000001, 0.798, 0.59, 192.0, 0.0, 0.0, 0.0, 0.0, 0.0, 0.0, 0.0, 0.0, 0.0, 1.7395351982642047E9, 0.0, 2025-02-14 09:13:18.264
234.0, -187500.02235174447, -142781.17779268956, 16232.999114155666, 48336.76497182429, 30176.39728503195, 25398.153114098684, 35645.891504990046, -82754.85280213987, -0.07200000000000001, 0.798, 0.59, 192.0, 0.0, 0.0, 0.0, 0.0, 0.0, 0.0, 0.0, 0.0, 0.0, 1.739535198264217E9, 0.0, 2025-02-14 09:13:18.264
235.0, -187500.02235174447, -142803.2613162114, 16224.21487858473, 48333.94865202292, 29919.866313918392, 25258.164138575095, 35636.928455463465, -82841.06348050397, -0.07200000000000001, 0.798, 0.59, 192.0, 0.0, 0.0, 0.0, 0.0, 0.0, 0.0, 0.0, 0.0, 0.0, 1.7395351982642288E9, 0.0, 2025-02-14 09:13:18.264
236.0, -187500.02235174447, -142988.93725740162, 16307.22925749174, 48413.52086228381, 29890.719639148672, 25344.508927405946, 35693.5230724243, -83031.96972989675, -0.07200000000000001, 0.798, 0.59, 192.0, 0.0, 0.0, 0.0, 0.0, 0.0, 0.0, 0.0, 0.0, 0.0, 1.7395351982642407E9, 0.0, 2025-02-14 09:13:18.264
237.0, -187500.02235174447, -142848.43419175557, 15972.623642995793, 48067.493506371204, 29775.31758252592, 25149.713474477947, 35343.40534727638, -82952.35281614696, -0.074, 0.802, 0.59, 192.0, 253.0, 176.0, 25.0, 16.0, 18.0, 112.0, 0.0, 0.0, 0.0, 1.739535198264253E9, 0.0, 2025-02-14 09:13:18.264
238.0, -187500.02235174447, -142504.35143761057, 15487.993119715826, 47586.9310005821, 29429.267874868856, 24679.83510253848, 34869.0789781903, -82735.13856353029, -0.074, 0.802, 0.59, 192.0, 0.0, 0.0, 0.0, 0.0, 0.0, 0.0, 0.0, 0.0, 0.0, 1.7395351982642653E9, 0.0, 2025-02-14 09:13:18.264
239.0, -187500.02235174447, -142457.9715678658, 15394.80869708165, 47515.38306658067, 29142.830269674098, 24472.925004115703, 34789.283250484856, -82768.55442149096, -0.074, 0.802, 0.59, 192.0, 0.0, 0.0, 0.0, 0.0, 0.0, 0.0, 0.0, 0.0, 0.0, 1.7395351982642772E9, 0.0, 2025-02-14 09:13:18.264
240.0, -187500.02235174447, -142654.08577371668, 15493.648111063017, 47630.04751563639, 29086.727391091277, 24584.840188603426, 34893.308269179855, -82971.4859094007, -0.074, 0.802, 0.59, 192.0, 0.0, 0.0, 0.0, 0.0, 0.0, 0.0, 0.0, 0.0, 0.0, 1.7395351982642941E9, 0.0, 2025-02-14 09:13:18.264
241.0, -187500.02235174447, -142584.9518281164, 15243.241517930213, 47362.27361706181, 29016.45350652379, 24424.17584945868, 34638.18545796698, -82945.91551374382, -0.074, 0.802, 0.59, 192.0, 0.0, 0.0, 0.0, 0.0, 0.0, 0.0, 0.0, 0.0, 0.0, 1.7395351987418199E9, 0.0, 2025-02-14 09:13:18.741
242.0, -187500.02235174447, -142239.66207977082, 14748.753875345456, 46856.31952957148, 28704.87018881681, 23943.523936691756, 34142.46846943718, -82721.36988894582, -0.074, 0.802, 0.59, 192.0, 0.0, 0.0, 0.0, 0.0, 0.0, 0.0, 0.0, 0.0, 0.0, 1.7395351987418764E9, 0.0, 2025-02-14 09:13:18.741
243.0, -187500.02235174447, -142123.2988981365, 14572.957405204465, 46700.080835828885, 28383.94384192751, 23673.24664273818, 33983.83813903786, -82701.78976080296, -0.074, 0.802, 0.59, 192.0, 0.0, 0.0, 0.0, 0.0, 0.0, 0.0, 0.0, 0.0, 0.0, 1.739535198741902E9, 0.0, 2025-02-14 09:13:18.741
244.0, -187500.02235174447, -142314.56277544054, 14695.377909586181, 46827.91046236878, 28296.302651918253, 23746.001570940207, 34099.28489914953, -82908.61045224791, -0.074, 0.802, 0.59, 192.0, 0.0, 0.0, 0.0, 0.0, 0.0, 0.0, 0.0, 0.0, 0.0, 1.739535198741933E9, 0.0, 2025-02-14 09:13:18.741
245.0, -187500.02235174447, -142313.95927834028, 14535.294715797272, 46643.68738456815, 28247.0170553943, 23658.62860186441, 33917.69932719461, -82940.081708441, -0.074, 0.802, 0.59, 192.0, 0.0, 0.0, 0.0, 0.0, 0.0, 0.0, 0.0, 0.0, 0.0, 1.7395351987419624E9, 0.0, 2025-02-14 09:13:18.741
246.0, -187500.02235174447, -141980.9182859562, 14038.370733066886, 46131.49716037478, 27965.899165379902, 23220.556762284847, 33410.89587341498, -82723.09097326887, -0.074, 0.802, 0.59, 192.0, 0.0, 0.0, 0.0, 0.0, 0.0, 0.0, 0.0, 0.0, 0.0, 1.7395351987420635E9, 0.0, 2025-02-14 09:13:18.742
247.0, -187500.02235174447, -141796.09171105525, 13781.39272706422, 45896.08858777149, 27614.283873353466, 22897.082316527645, 33169.049998408555, -82649.84430668883, -0.074, 0.8, 0.588, 192.0, 253.0, 176.0, 25.0, 0.0, 18.0, 96.0, 0.0, 0.0, 0.0, 1.739535198742076E9, 0.0, 2025-02-14 09:13:18.742
248.0, -187500.02235174447, -141960.73466071306, 13875.426515987698, 46020.38663868745, 27485.850749713274, 22960.471863802893, 33278.14886309491, -82842.87397180486, -0.074, 0.8, 0.588, 192.0, 0.0, 0.0, 0.0, 0.0, 0.0, 0.0, 0.0, 0.0, 0.0, 1.7395351987420895E9, 0.0, 2025-02-14 09:13:18.742
249.0, -187500.02235174447, -142022.89486204326, 13792.590951036329, 45917.725076404226, 27465.600069236767, 22922.317436017685, 33179.17533864681, -82927.18475189028, -0.074, 0.8, 0.588, 192.0, 0.0, 0.0, 0.0, 0.0, 0.0, 0.0, 0.0, 0.0, 0.0, 1.7395351987421021E9, 0.0, 2025-02-14 09:13:18.742
250.0, -187500.02235174447, -141721.28042236334, 13325.238326220313, 45430.255881578436, 27234.214810635425, 22486.033735994548, 32707.508827150923, -82731.29406348396, -0.074, 0.8, 0.588, 192.0, 0.0, 0.0, 0.0, 0.0, 0.0, 0.0, 0.0, 0.0, 0.0, 1.7395351987421167E9, 0.0, 2025-02-14 09:13:18.742
251.0, -187500.02235174447, -141476.86409674457, 12990.319787301993, 45115.27509871425, 26869.724913802733, 22104.601216864732, 32384.660230238467, -82608.82885561333, -0.074, 0.8, 0.588, 192.0, 0.0, 0.0, 0.0, 0.0, 0.0, 0.0, 0.0, 0.0, 0.0, 1.7395351987421288E9, 0.0, 2025-02-14 09:13:18.742
252.0, -187500.02235174447, -141605.94542097396, 13061.331279436503, 45203.69859977944, 26686.82058892496, 22135.916010846617, 32455.492908417335, -82778.23272684011, -0.074, 0.8, 0.588, 192.0, 0.0, 0.0, 0.0, 0.0, 0.0, 0.0, 0.0, 0.0, 0.0, 1.7395351987421412E9, 0.0, 2025-02-14 09:13:18.742
253.0, -187500.02235174447, -141724.61083228717, 13040.052418715051, 45172.45086103092, 26672.873100384844, 22172.505816519955, 32424.535742346736, -82911.80675170502, -0.074, 0.8, 0.588, 192.0, 0.0, 0.0, 0.0, 0.0, 0.0, 0.0, 0.0, 0.0, 0.0, 1.7395351987421536E9, 0.0, 2025-02-14 09:13:18.742
254.0, -187500.02235174447, -141469.75624200777, 12600.371253534706, 44717.12347473186, 26491.980432508044, 21823.08099545014, 31977.590260218414, -82749.39897649277, -0.074, 0.8, 0.588, 192.0, 0.0, 0.0, 0.0, 0.0, 0.0, 0.0, 0.0, 0.0, 0.0, 1.739535198742166E9, 0.0, 2025-02-14 09:13:18.742
255.0, -187500.02235174447, -141175.09319485346, 12215.630676225504, 44330.95238577752, 26116.64993961453, 21394.70981296418, 31589.720438685472, -82583.90666054568, -0.074, 0.8, 0.588, 192.0, 0.0, 0.0, 0.0, 0.0, 0.0, 0.0, 0.0, 0.0, 0.0, 1.7395351987421784E9, 0.0, 2025-02-14 09:13:18.742
0.0, -187500.02235174447, -141246.73053583273, 12255.550891822684, 44381.31086603533, 25904.442477755845, 21320.725538817114, 31634.02159619589, -82712.78681907497, -0.074, 0.8, 0.588, 192.0, 0.0, 0.0, 0.0, 0.0, 0.0, 0.0, 0.0, 0.0, 0.0, 1.7395351987421904E9, 0.0, 2025-02-14 09:13:18.742
1.0, -187500.02235174447, -141408.71362790032, 12309.753872126803, 44421.56635779934, 25902.475524243775, 21351.28037348752, 31683.1283787642, -82885.20817580321, -0.082, 0.804, 0.588, 192.0, 253.0, 112.0, 25.0, 32.0, 18.0, 96.0, 0.0, 0.0, 0.0, 1.7395351987422023E9, 0.0, 2025-02-14 09:13:18.742
2.0, -187500.02235174447, -141214.11934067242, 11925.16975702879, 44021.04544890469, 25766.442807488776, 21066.385038660173, 31292.978679296815, -82768.59912497987, -0.082, 0.804, 0.588, 192.0, 0.0, 0.0, 0.0, 0.0, 0.0, 0.0, 0.0, 0.0, 0.0, 1.7395351987422156E9, 0.0, 2025-02-14 09:13:18.742
3.0, -187500.02235174447, -140886.1521942797, 11468.344803851225, 43573.89880107627, 25399.74008795501, 20642.305391109632, 30840.266447099028, -82573.6919133296, -0.082, 0.804, 0.588, 192.0, 0.0, 0.0, 0.0, 0.0, 0.0, 0.0, 0.0, 0.0, 0.0, 1.739535198742228E9, 0.0, 2025-02-14 09:13:18.742
4.0, -187500.02235174447, -140897.70804616308, 11434.727780190442, 43559.258408458045, 25138.761119694846, 20517.426194837833, 30820.216932322615, -82660.28257134945, -0.082, 0.804, 0.588, 192.0, 0.0, 0.0, 0.0, 0.0, 0.0, 0.0, 0.0, 0.0, 0.0, 1.73953519874224E9, 0.0, 2025-02-14 09:13:18.742
5.0, -187500.02235174447, -141086.69204553272, 11524.022999289395, 43648.01718569007, 25115.939988605976, 20586.716602649285, 30914.20601775718, -82860.84477434693, -0.082, 0.804, 0.588, 192.0, 0.0, 0.0, 0.0, 0.0, 0.0, 0.0, 0.0, 0.0, 0.0, 1.739535198742277E9, 0.0, 2025-02-14 09:13:18.742
6.0, -187500.02235174447, -140958.19186665915, 11208.282257113726, 43318.3736584632, 25022.397938060516, 20364.294393574524, 30598.889958726166, -82795.4882735596, -0.082, 0.804, 0.588, 192.0, 0.0, 0.0, 0.0, 0.0, 0.0, 0.0, 0.0, 0.0, 0.0, 1.7395351987422893E9, 0.0, 2025-02-14 09:13:18.742
7.0, -187500.02235174447, -140611.15868224605, 10714.375759884806, 42832.84906540502, 24678.315183915518, 19934.269181998872, 30101.742458551224, -82580.91152678867, -0.082, 0.804, 0.588, 192.0, 0.0, 0.0, 0.0, 0.0, 0.0, 0.0, 0.0, 0.0, 0.0, 1.7395351987423017E9, 0.0, 2025-02-14 09:13:18.742
8.0, -187500.02235174447, -140552.19478037296, 10607.512069643983, 42753.276855144126, 24375.49375003502, 19747.118025674587, 30011.642576651884, -82612.27102425946, -0.082, 0.804, 0.588, 192.0, 0.0, 0.0, 0.0, 0.0, 0.0, 0.0, 0.0, 0.0, 0.0, 1.739535198742314E9, 0.0, 2025-02-14 09:13:18.742
9.0, -187500.02235174447, -140750.0300705469, 10735.11817873933, 42879.608914805525, 24327.661016900664, 19806.059575803232, 30139.941589825346, -82822.75740179508, -0.082, 0.804, 0.588, 192.0, 0.0, 0.0, 0.0, 0.0, 0.0, 0.0, 0.0, 0.0, 0.0, 1.739535198742326E9, 0.0, 2025-02-14 09:13:18.742
10.0, -187500.02235174447, -140693.34604660823, 10515.109958065745, 42626.96714722719, 24268.875928983205, 19637.706236565857, 29902.409601498795, -82811.22390165615, -0.082, 0.804, 0.588, 192.0, 0.0, 0.0, 0.0, 0.0, 0.0, 0.0, 0.0, 0.0, 0.0, 1.739535198742338E9, 0.0, 2025-02-14 09:13:18.742
11.0, -187500.02235174447, -140349.30799595214, 10011.927486887871, 42118.10733295767, 23953.984553096838, 19193.510019005542, 29394.354450029667, -82590.90275656019, -0.076, 0.804, 0.592, 192.0, 253.0, 160.0, 25.0, 32.0, 18.0, 128.0, 0.0, 0.0, 0.0, 1.7395351987423503E9, 0.0, 2025-02-14 09:13:18.742
12.0, -187500.02235174447, -140224.83113108054, 9815.187432192259, 41949.70929023138, 23624.408081103335, 18943.192832850556, 29211.383069918524, -82568.10397721577, -0.076, 0.804, 0.592, 192.0, 0.0, 0.0, 0.0, 0.0, 0.0, 0.0, 0.0, 0.0, 0.0, 1.7395351987423632E9, 0.0, 2025-02-14 09:13:18.742
13.0, -187500.02235174447, -140415.96089791786, 9929.047218447593, 42082.18807961799, 23543.56182140849, 19015.768947096938, 29333.155373711037, -82781.22786059712, -0.076, 0.804, 0.592, 192.0, 0.0, 0.0, 0.0, 0.0, 0.0, 0.0, 0.0, 0.0, 0.0, 1.7395351987423756E9, 0.0, 2025-02-14 09:13:18.742
14.0, -187500.02235174447, -140427.56145329017, 9780.184600375247, 41911.73367640182, 23510.25772217008, 18924.529126230376, 29174.97207820083, -82828.92648326475, -0.076, 0.804, 0.592, 192.0, 0.0, 0.0, 0.0, 0.0, 0.0, 0.0, 0.0, 0.0, 0.0, 1.7395351987423878E9, 0.0, 2025-02-14 09:13:18.742
15.0, -187500.02235174447, -140098.2084987412, 9293.542420094302, 41402.78445515448, 23234.28073338041, 18493.229865220772, 28676.349362891837, -82618.84243712932, -0.076, 0.804, 0.592, 192.0, 0.0, 0.0, 0.0, 0.0, 0.0, 0.0, 0.0, 0.0, 0.0, 1.7395351987424004E9, 0.0, 2025-02-14 09:13:18.742
16.0, -187500.02235174447, -139901.44609230116, 9024.472120341316, 41147.728699174964, 22875.691697083916, 18187.54740804999, 28424.1099267137, -82540.76779374693, -0.076, 0.804, 0.592, 192.0, 0.0, 0.0, 0.0, 0.0, 0.0, 0.0, 0.0, 0.0, 0.0, 1.7395351987424126E9, 0.0, 2025-02-14 09:13:18.742
17.0, -187500.02235174447, -140062.1104314459, 9114.236726073828, 41259.15214528467, 22744.486957131263, 18213.140155451318, 28581.75678035698, -82738.1336972873, -0.076, 0.804, 0.592, 192.0, 0.0, 0.0, 0.0, 0.0, 0.0, 0.0, 0.0, 0.0, 0.0, 1.7395351987424245E9, 0.0, 2025-02-14 09:13:18.742
18.0, -187500.02235174447, -140135.29004279256, 9041.168873449431, 41169.901629674634, 22732.93110524787, 18166.514416517548, 28522.994044183975, -82838.69419559171, -0.076, 0.804, 0.592, 192.0, 0.0, 0.0, 0.0, 0.0, 0.0, 0.0, 0.0, 0.0, 0.0, 1.7395351987424366E9, 0.0, 2025-02-14 09:13:18.742
19.0, -187500.02235174447, -139841.38695494973, 8580.231199292088, 40685.226402905755, 22498.304843700513, 17786.08772588822, 28036.55302960313, -82652.79473695693, -0.076, 0.804, 0.592, 192.0, 0.0, 0.0, 0.0, 0.0, 0.0, 0.0, 0.0, 0.0, 0.0, 1.7395351987424488E9, 0.0, 2025-02-14 09:13:18.742
20.0, -187500.02235174447, -139589.86277459416, 8240.3952765936, 40355.806393123436, 22128.584638665277, 17409.50553530521, 27705.76956340904, -82528.6754999966, -0.076, 0.804, 0.592, 192.0, 0.0, 0.0, 0.0, 0.0, 0.0, 0.0, 0.0, 0.0, 0.0, 1.7395351987424679E9, 0.0, 2025-02-14 09:13:18.742
21.0, -187500.02235174447, -139709.71282836352, 8310.40094022762, 40447.96263551267, 21963.606412840654, 17384.717450704273, 27792.337869684445, -82695.4195136332, -0.08, 0.806, 0.592, 192.0, 253.0, 128.0, 25.0, 48.0, 18.0, 128.0, 0.0, 0.0, 0.0, 1.7395351987424803E9, 0.0, 2025-02-14 09:13:18.742
22.0, -187500.02235174447, -139836.7601438475, 8301.460242445499, 40437.50201910758, 21964.880462274607, 17404.498744547218, 27784.291241680534, -82839.83413455894, -0.08, 0.806, 0.592, 192.0, 0.0, 0.0, 0.0, 0.0, 0.0, 0.0, 0.0, 0.0, 0.0, 1.7395351987424932E9, 0.0, 2025-02-14 09:13:18.742
23.0, -187500.02235174447, -139592.52263218435, 7875.123068704971, 39990.19890906798, 21776.723477449832, 17094.971787330127, 27341.41377704308, -82687.52934784048, -0.08, 0.806, 0.592, 192.0, 0.0, 0.0, 0.0, 0.0, 0.0, 0.0, 0.0, 0.0, 0.0, 1.7395351987425053E9, 0.0, 2025-02-14 09:13:18.742
24.0, -187500.02235174447, -139291.131709949, 7477.284369144961, 39574.18824126581, 21403.918731679765, 16707.97368383094, 26942.8598216605, -82519.35482255874, -0.08, 0.806, 0.592, 192.0, 0.0, 0.0, 0.0, 0.0, 0.0, 0.0, 0.0, 0.0, 0.0, 1.7395351987425172E9, 0.0, 2025-02-14 09:13:18.742
25.0, -187500.02235174447, -139353.9401118684, 7504.799366569444, 39600.36213402297, 21191.33129016534, 16642.840700488174, 26984.925804725386, -82645.93275140914, -0.08, 0.806, 0.592, 192.0, 0.0, 0.0, 0.0, 0.0, 0.0, 0.0, 0.0, 0.0, 0.0, 1.7395351987425292E9, 0.0, 2025-02-14 09:13:18.742
26.0, -187500.02235174447, -139519.94651793796, 7576.302597081972, 39655.79446027213, 21185.56454009587, 16676.368317171135, 27041.229849008305, -82826.75836405258, -0.08, 0.806, 0.592, 192.0, 0.0, 0.0, 0.0, 0.0, 0.0, 0.0, 0.0, 0.0, 0.0, 1.7395351987425413E9, 0.0, 2025-02-14 09:13:18.742
27.0, -187500.02235174447, -139336.10341979307, 7214.137281672631, 39274.60781033133, 21063.591070603263, 16369.389458821948, 26677.879891142835, -82723.33684245788, -0.08, 0.806, 0.592, 192.0, 0.0, 0.0, 0.0, 0.0, 0.0, 0.0, 0.0, 0.0, 0.0, 1.7395351987425532E9, 0.0, 2025-02-14 09:13:18.742
28.0, -187500.02235174447, -139004.93997394323, 6752.551406926085, 38821.60500545562, 20706.29843548518, 15934.603325677315, 26219.020929219834, -82530.3295290863, -0.08, 0.806, 0.592, 192.0, 0.0, 0.0, 0.0, 0.0, 0.0, 0.0, 0.0, 0.0, 0.0, 1.7395351987425761E9, 0.0, 2025-02-14 09:13:18.742
29.0, -187500.02235174447, -139003.062427409, 6708.160842437845, 38802.717781390886, 20440.692656122763, 15809.187687538588, 26178.877196178102, -82611.84634111481, -0.08, 0.806, 0.592, 192.0, 0.0, 0.0, 0.0, 0.0, 0.0, 0.0, 0.0, 0.0, 0.0, 1.7395351987425883E9, 0.0, 2025-02-14 09:13:18.742
30.0, -187500.02235174447, -139191.1523570004, 6797.567820259073, 38899.00909650434, 20412.261237175615, 15910.105813754299, 26266.07135129826, -82818.55527383748, -0.08, 0.806, 0.592, 192.0, 0.0, 0.0, 0.0, 0.0, 0.0, 0.0, 0.0, 0.0, 0.0, 1.7395351987426004E9, 0.0, 2025-02-14 09:13:18.742
31.0, -187500.02235174447, -139072.08461428699, 6495.215773012134, 38582.82131943957, 20323.25659075458, 15724.139299886145, 25949.391835855466, -82765.62634296731, -0.076, 0.796, 0.586, 192.0, 253.0, 160.0, 24.0, 224.0, 18.0, 80.0, 0.0, 0.0, 0.0, 1.7395351987426128E9, 0.0, 2025-02-14 09:13:18.742
32.0, -187500.02235174447, -138722.8833106617, 6014.116825356105, 38098.704886282074, 19989.790915225854, 15265.839131574528, 25460.223908451073, -82551.85425899675, -0.076, 0.796, 0.586, 192.0, 0.0, 0.0, 0.0, 0.0, 0.0, 0.0, 0.0, 0.0, 0.0, 1.7395351987426255E9, 0.0, 2025-02-14 09:13:18.742
33.0, -187500.02235174447, -138650.55306560436, 5902.2910478462045, 38004.693449103055, 19679.95103358639, 15061.544187253021, 25353.53903216589, -82577.98344826502, -0.076, 0.796, 0.586, 192.0, 0.0, 0.0, 0.0, 0.0, 0.0, 0.0, 0.0, 0.0, 0.0, 1.7395351987426372E9, 0.0, 2025-02-14 09:13:18.742
34.0, -187500.02235174447, -138844.99089062106, 6031.90881394253, 38137.798087334406, 19623.40112011446, 15126.163080473314, 25477.74767610403, -82794.70596250368, -0.076, 0.796, 0.586, 192.0, 0.0, 0.0, 0.0, 0.0, 0.0, 0.0, 0.0, 0.0, 0.0, 1.7395351987426496E9, 0.0, 2025-02-14 09:13:18.742
35.0, -187500.02235174447, -138795.92881154167, 5813.755788058733, 37901.20487227498, 19571.656831700424, 14975.91465424474, 25258.074731597273, -82797.63404102731, -0.076, 0.796, 0.586, 192.0, 0.0, 0.0, 0.0, 0.0, 0.0, 0.0, 0.0, 0.0, 0.0, 1.7395351987426617E9, 0.0, 2025-02-14 09:13:18.742
36.0, -187500.02235174447, -138448.96268236192, 5311.780311081447, 37390.176938793295, 19269.461246664672, 14524.789395903277, 24757.93209766532, -82584.13017799023, -0.076, 0.796, 0.586, 192.0, 0.0, 0.0, 0.0, 0.0, 0.0, 0.0, 0.0, 0.0, 0.0, 1.7395351987426808E9, 0.0, 2025-02-14 09:13:18.742
37.0, -187500.02235174447, -138307.5878986821, 5111.128701106156, 37214.156951207755, 18935.190908335557, 14260.480017719272, 24566.891737805814, -82557.21867766604, -0.076, 0.796, 0.586, 192.0, 0.0, 0.0, 0.0, 0.0, 0.0, 0.0, 0.0, 0.0, 0.0, 1.7395351987426932E9, 0.0, 2025-02-14 09:13:18.742
38.0, -187500.02235174447, -138490.38046483762, 5228.542414729884, 37351.55312437453, 18842.073540934747, 14332.519690098727, 24689.714573587728, -82771.57190699242, -0.076, 0.796, 0.586, 192.0, 0.0, 0.0, 0.0, 0.0, 0.0, 0.0, 0.0, 0.0, 0.0, 1.7395351987427053E9, 0.0, 2025-02-14 09:13:18.742
39.0, -187500.02235174447, -138507.88188074614, 5100.958657378991, 37200.63414581229, 18814.290322576802, 14245.951383823322, 24548.295086419, -82830.75932631009, -0.076, 0.796, 0.586, 192.0, 0.0, 0.0, 0.0, 0.0, 0.0, 0.0, 0.0, 0.0, 0.0, 1.7395351987427175E9, 0.0, 2025-02-14 09:13:18.742
40.0, -187500.02235174447, -138179.04301631966, 4613.958849186761, 36698.77042755728, 18552.372581049513, 13826.073864230379, 24051.14758624406, -82626.06205058839, -0.076, 0.796, 0.586, 192.0, 0.0, 0.0, 0.0, 0.0, 0.0, 0.0, 0.0, 0.0, 0.0, 1.7395351987427297E9, 0.0, 2025-02-14 09:13:18.742
41.0, -187500.02235174447, -137971.5741242855, 4331.3433922938575, 36435.086898218025, 18194.83407674242, 13516.05516863527, 23776.064667232593, -82545.43930833809, -0.076, 0.788, 0.588, 192.0, 253.0, 160.0, 24.0, 160.0, 18.0, 96.0, 0.0, 0.0, 0.0, 1.739535198742742E9, 0.0, 2025-02-14 09:13:18.742
42.0, -187500.02235174447, -138126.42700987184, 4439.011745335072, 36551.986521719286, 18069.351383370325, 13529.645029264097, 23895.802962279675, -82743.11813630082, -0.076, 0.788, 0.588, 192.0, 0.0, 0.0, 0.0, 0.0, 0.0, 0.0, 0.0, 0.0, 0.0, 1.7395351987427547E9, 0.0, 2025-02-14 09:13:18.742
43.0, -187500.02235174447, -138207.54149050015, 4386.909829009751, 36478.002247572214, 18067.563243813904, 13488.651929933063, 23835.497955739254, -82855.10037602192, -0.076, 0.788, 0.588, 192.0, 0.0, 0.0, 0.0, 0.0, 0.0, 0.0, 0.0, 0.0, 0.0, 1.739535198742767E9, 0.0, 2025-02-14 09:13:18.742
44.0, -187500.02235174447, -137919.58396668243, 3917.009105325831, 35995.428084782136, 17840.91655503709, 13129.146472113905, 23355.360133094804, -82679.37096111428, -0.076, 0.788, 0.588, 192.0, 0.0, 0.0, 0.0, 0.0, 0.0, 0.0, 0.0, 0.0, 0.0, 1.7395351987427793E9, 0.0, 2025-02-14 09:13:18.742
45.0, -187500.02235174447, -137655.5428094319, 3561.795182442091, 35658.65435107402, 17464.535530154175, 12755.581767032358, 23012.104393494654, -82550.28963688489, -0.076, 0.788, 0.588, 192.0, 0.0, 0.0, 0.0, 0.0, 0.0, 0.0, 0.0, 0.0, 0.0, 1.7395351987427912E9, 0.0, 2025-02-14 09:13:18.742
46.0, -187500.02235174447, -137762.764127584, 3620.7143808262804, 35743.59098000419, 17281.60885353194, 12753.90538619821, 23083.294699584807, -82717.41363017722, -0.076, 0.788, 0.588, 192.0, 0.0, 0.0, 0.0, 0.0, 0.0, 0.0, 0.0, 0.0, 0.0, 1.7395351987428033E9, 0.0, 2025-02-14 09:13:18.742
47.0, -187500.02235174447, -137893.07479775845, 3640.4509711803166, 35745.55793351626, 17281.05005992056, 12759.806246734412, 23097.868036969667, -82874.34522799794, -0.076, 0.788, 0.588, 192.0, 0.0, 0.0, 0.0, 0.0, 0.0, 0.0, 0.0, 0.0, 0.0, 1.7395351987428155E9, 0.0, 2025-02-14 09:13:18.742
48.0, -187500.02235174447, -137654.11229778675, 3234.0292017494685, 35309.02836430411, 17115.736557929107, 12426.228812483409, 22672.179063818345, -82732.34459547336, -0.076, 0.788, 0.588, 192.0, 0.0, 0.0, 0.0, 0.0, 0.0, 0.0, 0.0, 0.0, 0.0, 1.7395351987428277E9, 0.0, 2025-02-14 09:13:18.742
49.0, -187500.02235174447, -137345.03237545877, 2816.9680019578936, 34899.41029541616, 16750.59846050721, 12011.76041504865, 22263.92445134216, -82563.7900905359, -0.076, 0.788, 0.588, 192.0, 0.0, 0.0, 0.0, 0.0, 0.0, 0.0, 0.0, 0.0, 0.0, 1.7395351987428396E9, 0.0, 2025-02-14 09:13:18.742
50.0, -187500.02235174447, -137396.59784991716, 2827.249804407335, 34932.82615337684, 16524.532917086235, 11930.131844297868, 22292.60173947832, -82690.4127228752, -0.076, 0.788, 0.588, 192.0, 0.0, 0.0, 0.0, 0.0, 0.0, 0.0, 0.0, 0.0, 0.0, 1.7395351987428515E9, 0.0, 2025-02-14 09:13:18.742
51.0, -187500.02235174447, -137566.33699731078, 2887.3536452476555, 34993.24291863953, 16515.16753615946, 11990.36979560492, 22354.33725766388, -82883.62120194688, -0.076, 0.786, 0.592, 192.0, 253.0, 160.0, 24.0, 144.0, 18.0, 128.0, 0.0, 0.0, 0.0, 1.7395351987428699E9, 0.0, 2025-02-14 09:13:18.742
52.0, -187500.02235174447, -137392.08279753718, 2542.98031842474, 34620.5722833362, 16395.071613201097, 11700.244152575035, 21991.434334687514, -82793.70013400319, -0.076, 0.786, 0.592, 192.0, 0.0, 0.0, 0.0, 0.0, 0.0, 0.0, 0.0, 0.0, 0.0, 1.7395351987428825E9, 0.0, 2025-02-14 09:13:18.742
53.0, -187500.02235174447, -137055.17495336235, 2081.863830311755, 34164.10495806992, 16034.9850100261, 11270.576568910667, 21522.24886682616, -82599.66464038666, -0.076, 0.786, 0.592, 192.0, 0.0, 0.0, 0.0, 0.0, 0.0, 0.0, 0.0, 0.0, 0.0, 1.739535198742895E9, 0.0, 2025-02-14 09:13:18.742
54.0, -187500.02235174447, -137041.31687180005, 2011.2993730663507, 34134.444193177726, 15757.488102613463, 11153.028744820207, 21476.316031970506, -82676.35347561282, -0.076, 0.786, 0.592, 192.0, 0.0, 0.0, 0.0, 0.0, 0.0, 0.0, 0.0, 0.0, 0.0, 1.7395351987429068E9, 0.0, 2025-02-14 09:13:18.742
55.0, -187500.02235174447, -137230.65849908098, 2113.2680312714615, 34240.43616538479, 15721.054759151311, 11232.489196358823, 21582.88914953341, -82888.09155083794, -0.076, 0.786, 0.592, 192.0, 0.0, 0.0, 0.0, 0.0, 0.0, 0.0, 0.0, 0.0, 0.0, 1.739535198742919E9, 0.0, 2025-02-14 09:13:18.742
56.0, -187500.02235174447, -137123.48188441776, 1838.4980366823718, 33938.419394304685, 15642.533080879819, 11022.002818823197, 21297.278558883496, -82845.1538497393, -0.076, 0.786, 0.592, 192.0, 0.0, 0.0, 0.0, 0.0, 0.0, 0.0, 0.0, 0.0, 0.0, 1.7395351987429311E9, 0.0, 2025-02-14 09:13:18.742
57.0, -187500.02235174447, -136773.94530462567, 1351.9229116347924, 33444.11056567557, 15320.399739789933, 10551.722115483537, 20814.614989115595, -82634.48865824802, -0.076, 0.786, 0.592, 192.0, 0.0, 0.0, 0.0, 0.0, 0.0, 0.0, 0.0, 0.0, 0.0, 1.7395351987429433E9, 0.0, 2025-02-14 09:13:18.742
58.0, -187500.02235174447, -136692.1602716637, 1210.2575552770563, 33333.24591317724, 15005.240142970104, 10367.789610360815, 20686.494789897777, -82656.97451317008, -0.076, 0.786, 0.592, 192.0, 0.0, 0.0, 0.0, 0.0, 0.0, 0.0, 0.0, 0.0, 0.0, 1.7395351987429557E9, 0.0, 2025-02-14 09:13:18.742
59.0, -187500.02235174447, -136887.13453854734, 1332.3427834919435, 33461.92490600645, 14945.359819574336, 10445.171349665088, 20815.084375749157, -82879.84375713393, -0.076, 0.786, 0.592, 192.0, 0.0, 0.0, 0.0, 0.0, 0.0, 0.0, 0.0, 0.0, 0.0, 1.7395351987429678E9, 0.0, 2025-02-14 09:13:18.742
60.0, -187500.02235174447, -136849.58360786244, 1133.2557956285234, 33234.27238872914, 14914.626170948288, 10288.46326928893, 20609.89536164944, -82896.7193241977, -0.076, 0.786, 0.592, 192.0, 0.0, 0.0, 0.0, 0.0, 0.0, 0.0, 0.0, 0.0, 0.0, 1.73953519874298E9, 0.0, 2025-02-14 09:13:18.742
61.0, -187500.02235174447, -136506.05964732883, 628.5087023387792, 32725.256112248437, 14623.204126739995, 9845.786970351573, 20106.109393371273, -82683.26016464952, -0.08, 0.786, 0.596, 192.0, 253.0, 128.0, 24.0, 144.0, 18.0, 160.0, 0.0, 0.0, 0.0, 1.739535198742992E9, 0.0, 2025-02-14 09:13:18.742
62.0, -187500.02235174447, -136356.61588390064, 420.30220273759403, 32536.607389045646, 14277.132067338476, 9569.675871095165, 19902.663815339067, -82649.33021656636, -0.08, 0.786, 0.596, 192.0, 0.0, 0.0, 0.0, 0.0, 0.0, 0.0, 0.0, 0.0, 0.0, 1.7395351987430048E9, 0.0, 2025-02-14 09:13:18.743
63.0, -187500.02235174447, -136538.2238076, 534.0055267817411, 32672.975381967473, 14167.742629974204, 9659.373421594313, 20023.25147667545, -82865.53864068254, -0.08, 0.786, 0.596, 192.0, 0.0, 0.0, 0.0, 0.0, 0.0, 0.0, 0.0, 0.0, 0.0, 1.7395351987430172E9, 0.0, 2025-02-14 09:13:18.743
64.0, -187500.02235174447, -136568.51042133695, 414.08841777901864, 32532.785240743786, 14147.670763453338, 9589.27835098247, 19898.88637052612, -82934.6725862828, -0.08, 0.786, 0.596, 192.0, 0.0, 0.0, 0.0, 0.0, 0.0, 0.0, 0.0, 0.0, 0.0, 1.7395351987430296E9, 0.0, 2025-02-14 09:13:18.743
65.0, -187500.02235174447, -136247.82994363667, -59.902675140222925, 32034.162525434796, 13899.231123832598, 9141.505854309304, 19415.21697225773, -82736.7255373866, -0.08, 0.786, 0.596, 192.0, 0.0, 0.0, 0.0, 0.0, 0.0, 0.0, 0.0, 0.0, 0.0, 1.7395351987430415E9, 0.0, 2025-02-14 09:13:18.743
66.0, -187500.02235174447, -136031.28624335365, -356.532675806603, 31758.721978512047, 13539.30098286879, 8819.55132717506, 19128.041759495947, -82650.73837646704, -0.08, 0.786, 0.596, 192.0, 0.0, 0.0, 0.0, 0.0, 0.0, 0.0, 0.0, 0.0, 0.0, 1.739535198743054E9, 0.0, 2025-02-14 09:13:18.743
67.0, -187500.02235174447, -136179.27714339225, -261.6718723382798, 31867.865546687313, 13395.288693343246, 8866.333528320018, 19223.349597853376, -82848.59601838542, -0.08, 0.786, 0.596, 192.0, 0.0, 0.0, 0.0, 0.0, 0.0, 0.0, 0.0, 0.0, 0.0, 1.739535198743073E9, 0.0, 2025-02-14 09:13:18.743
68.0, -187500.02235174447, -136271.411034037, -307.694114171757, 31803.8054470784, 13383.93400715995, 8862.936063162811, 19165.682097158682, -82974.95042979126, -0.08, 0.786, 0.596, 192.0, 0.0, 0.0, 0.0, 0.0, 0.0, 0.0, 0.0, 0.0, 0.0, 1.7395351987430856E9, 0.0, 2025-02-14 09:13:18.743
69.0, -187500.02235174447, -135992.7965394016, -755.5783695672, 31329.25556054778, 13176.912150014896, 8478.77663120945, 18704.923236956984, -82806.48533183162, -0.08, 0.786, 0.596, 192.0, 0.0, 0.0, 0.0, 0.0, 0.0, 0.0, 0.0, 0.0, 0.0, 1.739535198743098E9, 0.0, 2025-02-14 09:13:18.743
70.0, -187500.02235174447, -135721.96045183664, -1111.753417462518, 30980.501291811623, 12811.930514804188, 8086.212943340892, 18347.16121520534, -82674.65474303422, -0.08, 0.786, 0.596, 192.0, 0.0, 0.0, 0.0, 0.0, 0.0, 0.0, 0.0, 0.0, 0.0, 1.7395351987431104E9, 0.0, 2025-02-14 09:13:18.743
71.0, -187500.02235174447, -135822.43154316326, -1047.9838905315269, 31062.06280732904, 12626.232221869495, 8058.653242427497, 18418.373873039945, -82839.16358222527, -0.08600000000000001, 0.792, 0.6, 192.0, 253.0, 80.0, 24.0, 192.0, 18.0, 192.0, 0.0, 0.0, 0.0, 1.7395351987431228E9, 0.0, 2025-02-14 09:13:18.743
72.0, -187500.02235174447, -135960.81119308606, -1021.273555907435, 31073.261031301146, 12623.460605557038, 8095.645379501031, 18434.847108703507, -83003.31479350505, -0.08600000000000001, 0.792, 0.6, 192.0, 0.0, 0.0, 0.0, 0.0, 0.0, 0.0, 0.0, 0.0, 0.0, 1.7395351987431355E9, 0.0, 2025-02-14 09:13:18.743
73.0, -187500.02235174447, -135731.66110893025, -1421.123912468423, 30650.92481981812, 12472.295757805796, 7767.477067408213, 18008.822859385356, -82875.03813207605, -0.08600000000000001, 0.792, 0.6, 192.0, 0.0, 0.0, 0.0, 0.0, 0.0, 0.0, 0.0, 0.0, 0.0, 1.739535198743148E9, 0.0, 2025-02-14 09:13:18.743
74.0, -187500.02235174447, -135416.50151211044, -1840.1073622831539, 30242.89372478649, 12116.187765143844, 7333.473245319516, 17579.155275720987, -82706.93066202768, -0.08600000000000001, 0.792, 0.6, 192.0, 0.0, 0.0, 0.0, 0.0, 0.0, 0.0, 0.0, 0.0, 0.0, 1.73953519874316E9, 0.0, 2025-02-14 09:13:18.743
75.0, -187500.02235174447, -135460.95913183203, -1849.2492257653746, 30263.65849538547, 11874.565407581975, 7286.4675267300045, 17578.887054787523, -82831.02754724355, -0.08600000000000001, 0.792, 0.6, 192.0, 0.0, 0.0, 0.0, 0.0, 0.0, 0.0, 0.0, 0.0, 0.0, 1.7395351987431724E9, 0.0, 2025-02-14 09:13:18.743
76.0, -187500.02235174447, -135638.18611361817, -1783.8033180002355, 30329.014996172788, 11855.029982928036, 7367.559655613859, 17650.41263704451, -83031.2991775631, -0.08600000000000001, 0.792, 0.6, 192.0, 0.0, 0.0, 0.0, 0.0, 0.0, 0.0, 0.0, 0.0, 0.0, 1.7395351987431848E9, 0.0, 2025-02-14 09:13:18.743
77.0, -187500.02235174447, -135473.2749430269, -2123.549833720903, 29963.631029561882, 11746.534615341976, 7097.863507016124, 17301.79247877508, -82948.91064750083, -0.08600000000000001, 0.792, 0.6, 192.0, 0.0, 0.0, 0.0, 0.0, 0.0, 0.0, 0.0, 0.0, 0.0, 1.739535198743204E9, 0.0, 2025-02-14 09:13:18.743
78.0, -187500.02235174447, -135132.00850868327, -2582.1405747104377, 29501.08402980376, 11400.216686751448, 6637.88695787036, 16838.194947027558, -82753.44464223918, -0.08600000000000001, 0.792, 0.6, 192.0, 0.0, 0.0, 0.0, 0.0, 0.0, 0.0, 0.0, 0.0, 0.0, 1.7395351987432165E9, 0.0, 2025-02-14 09:13:18.743
79.0, -187500.02235174447, -135106.9969066378, -2643.4067062624345, 29459.39802639461, 11119.746997326256, 6487.1020897748585, 16787.232969669458, -82825.551369852, -0.08600000000000001, 0.792, 0.6, 192.0, 0.0, 0.0, 0.0, 0.0, 0.0, 0.0, 0.0, 0.0, 0.0, 1.739535198743229E9, 0.0, 2025-02-14 09:13:18.743
80.0, -187500.02235174447, -135300.2947926873, -2527.4682077727566, 29576.074132451315, 11092.567276068601, 6561.779268000039, 16901.96447395855, -83044.53141028064, -0.08600000000000001, 0.792, 0.6, 192.0, 0.0, 0.0, 0.0, 0.0, 0.0, 0.0, 0.0, 0.0, 0.0, 1.7395351987432413E9, 0.0, 2025-02-14 09:13:18.743
81.0, -187500.02235174447, -135203.82466361817, -2794.348036569123, 29288.831864456162, 11021.622839167458, 6376.9303413546495, 16617.203249597937, -83016.7481919227, -0.082, 0.798, 0.596, 192.0, 253.0, 112.0, 24.0, 240.0, 18.0, 160.0, 0.0, 0.0, 0.0, 1.7395351987432537E9, 0.0, 2025-02-14 09:13:18.743
82.0, -187500.02235174447, -134853.08108962548, -3279.9173331162137, 28799.954509729687, 10694.63916953077, 5905.4649955588575, 16128.95174371621, -82807.87113998785, -0.082, 0.798, 0.596, 192.0, 0.0, 0.0, 0.0, 0.0, 0.0, 0.0, 0.0, 0.0, 0.0, 1.7395351987432737E9, 0.0, 2025-02-14 09:13:18.743
83.0, -187500.02235174447, -134761.1707164253, -3434.4572942802065, 28686.497054874548, 10369.331880728232, 5722.605374169991, 15983.933625690179, -82826.75836405258, -0.082, 0.798, 0.596, 192.0, 0.0, 0.0, 0.0, 0.0, 0.0, 0.0, 0.0, 0.0, 0.0, 1.7395351987432861E9, 0.0, 2025-02-14 09:13:18.743
84.0, -187500.02235174447, -134956.7037769203, -3321.4468743141742, 28821.635701851334, 10295.951103681458, 5831.05603826714, 16104.677749237748, -83055.37200634147, -0.082, 0.798, 0.596, 192.0, 0.0, 0.0, 0.0, 0.0, 0.0, 0.0, 0.0, 0.0, 0.0, 1.7395351987432985E9, 0.0, 2025-02-14 09:13:18.743
85.0, -187500.02235174447, -134930.3957736964, -3509.469748672217, 28612.177504560652, 10262.155266065034, 5702.578211138036, 15906.52953464145, -83084.63043983346, -0.082, 0.798, 0.596, 192.0, 0.0, 0.0, 0.0, 0.0, 0.0, 0.0, 0.0, 0.0, 0.0, 1.7395351987433107E9, 0.0, 2025-02-14 09:13:18.743
86.0, -187500.02235174447, -134588.07880736337, -3997.8553650206763, 28104.345870536075, 9986.982940075748, 5227.983621118501, 15413.450051957376, -82878.90498386681, -0.082, 0.798, 0.596, 192.0, 0.0, 0.0, 0.0, 0.0, 0.0, 0.0, 0.0, 0.0, 0.0, 1.739535198743323E9, 0.0, 2025-02-14 09:13:18.743
87.0, -187500.02235174447, -134426.52039844042, -4220.545795028901, 27901.593196581984, 9640.821473696407, 4960.902626622036, 15194.805287695563, -82840.52703863705, -0.082, 0.798, 0.596, 192.0, 0.0, 0.0, 0.0, 0.0, 0.0, 0.0, 0.0, 0.0, 0.0, 1.7395351987433352E9, 0.0, 2025-02-14 09:13:18.743
88.0, -187500.02235174447, -134602.09335113686, -4103.556764549824, 28041.515116872208, 9537.288193379425, 5035.736267058404, 15324.154832858425, -83056.26607611967, -0.082, 0.798, 0.596, 192.0, 0.0, 0.0, 0.0, 0.0, 0.0, 0.0, 0.0, 0.0, 0.0, 1.7395351987433472E9, 0.0, 2025-02-14 09:13:18.743
89.0, -187500.02235174447, -134640.49364811106, -4219.495263039501, 27915.04894674408, 9524.726512995543, 4977.5546762412405, 15209.490383802698, -83138.43108873739, -0.082, 0.798, 0.596, 192.0, 0.0, 0.0, 0.0, 0.0, 0.0, 0.0, 0.0, 0.0, 0.0, 1.7395351987433596E9, 0.0, 2025-02-14 09:13:18.743
90.0, -187500.02235174447, -134323.16593207908, -4703.343475263533, 27413.60991163372, 9271.369489594637, 4567.981310842194, 14713.125194683695, -82948.70948180073, -0.082, 0.798, 0.596, 192.0, 0.0, 0.0, 0.0, 0.0, 0.0, 0.0, 0.0, 0.0, 0.0, 1.739535198743372E9, 0.0, 2025-02-14 09:13:18.743
91.0, -187500.02235174447, -134096.85451946908, -4996.933638683991, 27131.016806485273, 8900.934028736834, 4217.282440338426, 14415.489365516827, -82857.87199233437, -0.084, 0.794, 0.594, 192.0, 253.0, 96.0, 24.0, 208.0, 18.0, 144.0, 0.0, 0.0, 0.0, 1.7395351987433844E9, 0.0, 2025-02-14 09:13:18.743
92.0, -187500.02235174447, -134240.10684968316, -4900.530564848253, 27248.29640964227, 8752.987832187157, 4232.749847501498, 14514.194669031462, -83053.98619818523, -0.084, 0.794, 0.594, 192.0, 0.0, 0.0, 0.0, 0.0, 0.0, 0.0, 0.0, 0.0, 0.0, 1.7395351987433968E9, 0.0, 2025-02-14 09:13:18.743
93.0, -187500.02235174447, -134338.99096715343, -4931.398323941031, 27199.256682307325, 8757.59229154495, 4209.615791990255, 14482.946930282944, -83186.19676663837, -0.084, 0.794, 0.594, 192.0, 0.0, 0.0, 0.0, 0.0, 0.0, 0.0, 0.0, 0.0, 0.0, 1.7395351987434092E9, 0.0, 2025-02-14 09:13:18.743
94.0, -187500.02235174447, -134061.5834667186, -5385.429309061684, 26724.639740543338, 8562.21569326111, 3838.4203718209715, 14028.446558528729, -83023.72193619274, -0.084, 0.794, 0.594, 192.0, 0.0, 0.0, 0.0, 0.0, 0.0, 0.0, 0.0, 0.0, 0.0, 1.7395351987434213E9, 0.0, 2025-02-14 09:13:18.743
95.0, -187500.02235174447, -133777.60455341396, -5763.084383378552, 26356.953544253534, 8186.281703267301, 3455.8702654683907, 13656.491179047964, -82886.01283860361, -0.084, 0.794, 0.594, 192.0, 0.0, 0.0, 0.0, 0.0, 0.0, 0.0, 0.0, 0.0, 0.0, 1.7395351987434337E9, 0.0, 2025-02-14 09:13:18.743
96.0, -187500.02235174447, -133867.7491388022, -5719.5655369240685, 26427.249780565475, 7994.0790526961155, 3432.5350442570502, 13717.354979199765, -83044.97844516975, -0.084, 0.794, 0.594, 192.0, 0.0, 0.0, 0.0, 0.0, 0.0, 0.0, 0.0, 0.0, 0.0, 1.7395351987434456E9, 0.0, 2025-02-14 09:13:18.743
97.0, -187500.02235174447, -134009.12392248202, -5695.783280823623, 26450.04855990989, 7987.6193985485315, 3469.5271813305835, 13737.449197465086, -83216.14810420849, -0.084, 0.794, 0.594, 192.0, 0.0, 0.0, 0.0, 0.0, 0.0, 0.0, 0.0, 0.0, 0.0, 1.7395351987434645E9, 0.0, 2025-02-14 09:13:18.743
98.0, -187500.02235174447, -133778.78919587008, -6091.25269547137, 26024.24782803629, 7823.959925646774, 3133.4463517005865, 13324.277201208735, -83087.78203580166, -0.084, 0.794, 0.594, 192.0, 0.0, 0.0, 0.0, 0.0, 0.0, 0.0, 0.0, 0.0, 0.0, 1.7395351987434769E9, 0.0, 2025-02-14 09:13:18.743
99.0, -187500.02235174447, -133446.91049419768, -6526.418808271744, 25584.700773322675, 7439.644031482224, 2696.357988877057, 12880.617425515346, -82903.82717893449, -0.084, 0.794, 0.594, 192.0, 0.0, 0.0, 0.0, 0.0, 0.0, 0.0, 0.0, 0.0, 0.0, 1.7395351987434893E9, 0.0, 2025-02-14 09:13:18.743
100.0, -187500.02235174447, -133471.22919216505, -6552.324480095444, 25585.88541577881, 7176.385185287618, 2611.8907465804514, 12869.486256776603, -83009.01448834116, -0.084, 0.794, 0.594, 192.0, 0.0, 0.0, 0.0, 0.0, 0.0, 0.0, 0.0, 0.0, 0.0, 1.7395351987435017E9, 0.0, 2025-02-14 09:13:18.743
101.0, -187500.02235174447, -133638.040261035, -6478.563723392931, 25656.896907913317, 7153.9216821100335, 2649.8887121544735, 12941.7047431117, -83202.31237439065, -0.084, 0.792, 0.592, 192.0, 253.0, 96.0, 24.0, 192.0, 18.0, 128.0, 0.0, 0.0, 0.0, 1.7395351987435138E9, 0.0, 2025-02-14 09:13:18.743
102.0, -187500.02235174447, -133461.3497211158, -6836.079875955567, 25280.761752219412, 7036.843244653135, 2390.8096421730093, 12572.29746249884, -83114.04533553665, -0.084, 0.792, 0.592, 192.0, 0.0, 0.0, 0.0, 0.0, 0.0, 0.0, 0.0, 0.0, 0.0, 1.7395351987435336E9, 0.0, 2025-02-14 09:13:18.743
103.0, -187500.02235174447, -133089.34963814612, -7342.771571012923, 24781.893167721413, 6667.79359195156, 1930.6095755826923, 12073.831209401038, -82897.54633874254, -0.084, 0.792, 0.592, 192.0, 0.0, 0.0, 0.0, 0.0, 0.0, 0.0, 0.0, 0.0, 0.0, 1.7395351987435465E9, 0.0, 2025-02-14 09:13:18.743
104.0, -187500.02235174447, -133029.6928321949, -7435.218386080073, 24705.249035984165, 6363.407535959189, 1746.7664774377915, 11986.167667647323, -82941.22164740821, -0.084, 0.792, 0.592, 192.0, 0.0, 0.0, 0.0, 0.0, 0.0, 0.0, 0.0, 0.0, 0.0, 1.739535198743559E9, 0.0, 2025-02-14 09:13:18.743
105.0, -187500.02235174447, -133198.64966853257, -7338.211815144041, 24803.686118565336, 6310.702122533575, 1787.0666726907102, 12081.922540893858, -83142.81203065063, -0.084, 0.792, 0.592, 192.0, 0.0, 0.0, 0.0, 0.0, 0.0, 0.0, 0.0, 0.0, 0.0, 1.7395351992219443E9, 0.0, 2025-02-14 09:13:19.221
106.0, -187500.02235174447, -133082.1076729426, -7628.784493063033, 24496.684908471696, 6219.305839455824, 1586.6609319044271, 11784.040842537981, -83099.78492257415, -0.084, 0.792, 0.592, 192.0, 0.0, 0.0, 0.0, 0.0, 0.0, 0.0, 0.0, 0.0, 0.0, 1.7395351992220027E9, 0.0, 2025-02-14 09:13:19.222
107.0, -187500.02235174447, -132693.18731942028, -8167.305072224745, 23959.147806066016, 5866.72942241781, 1121.498778045032, 11246.74960932131, -82866.09743429393, -0.084, 0.792, 0.592, 192.0, 0.0, 0.0, 0.0, 0.0, 0.0, 0.0, 0.0, 0.0, 0.0, 1.7395351992220316E9, 0.0, 2025-02-14 09:13:19.222
108.0, -187500.02235174447, -132553.91359971924, -8349.36003081322, 23794.080173263574, 5505.145252364308, 871.4498128235117, 11065.879293188966, -82851.52409690907, -0.084, 0.792, 0.592, 192.0, 0.0, 0.0, 0.0, 0.0, 0.0, 0.0, 0.0, 0.0, 0.0, 1.7395351992220588E9, 0.0, 2025-02-14 09:13:19.222
109.0, -187500.02235174447, -132717.03663075407, -8240.372924849144, 23905.458915884366, 5410.418559362717, 911.0347522538606, 11173.391184018992, -83056.1543173974, -0.084, 0.792, 0.592, 192.0, 0.0, 0.0, 0.0, 0.0, 0.0, 0.0, 0.0, 0.0, 0.0, 1.7395351992220726E9, 0.0, 2025-02-14 09:13:19.222
110.0, -187500.02235174447, -132667.63927550786, -8445.33842150431, 23684.109590543463, 5357.087297092355, 749.4092880975352, 10966.771658274134, -83071.7111315383, -0.084, 0.792, 0.592, 192.0, 0.0, 0.0, 0.0, 0.0, 0.0, 0.0, 0.0, 0.0, 0.0, 1.7395351992220852E9, 0.0, 2025-02-14 09:13:19.222
111.0, -187500.02235174447, -132286.65379126713, -8981.646177964947, 23139.017598511888, 5046.822732308237, 277.69807311273496, 10424.764206977392, -82839.9011897923, -0.09, 0.79, 0.594, 192.0, 253.0, 48.0, 24.0, 176.0, 18.0, 144.0, 0.0, 0.0, 0.0, 1.7395351992220974E9, 0.0, 2025-02-14 09:13:19.222
112.0, -187500.02235174447, -132072.74759682984, -9265.625091269623, 22889.616833879572, 4654.3037479285895, -6.77257856995804, 10150.664764721962, -82766.4310057677, -0.09, 0.79, 0.594, 192.0, 0.0, 0.0, 0.0, 0.0, 0.0, 0.0, 0.0, 0.0, 0.0, 1.7395351992221107E9, 0.0, 2025-02-14 09:13:19.222
113.0, -187500.02235174447, -132213.34006945373, -9171.837171535155, 23001.263797433832, 4510.738493292152, 23.111703766787503, 10247.961908335914, -82960.71236857324, -0.09, 0.79, 0.594, 192.0, 0.0, 0.0, 0.0, 0.0, 0.0, 0.0, 0.0, 0.0, 0.0, 1.7395351992221594E9, 0.0, 2025-02-14 09:13:19.222
114.0, -187500.02235174447, -132232.38375572965, -9292.22366717144, 22861.341877143608, 4479.557809776999, -71.68204446816975, 10120.556964940664, -83032.08148861903, -0.09, 0.79, 0.594, 192.0, 0.0, 0.0, 0.0, 0.0, 0.0, 0.0, 0.0, 0.0, 0.0, 1.7395351992221718E9, 0.0, 2025-02-14 09:13:19.222
115.0, -187500.02235174447, -131878.91326891343, -9802.111661685904, 22330.197373652147, 4214.1755478591385, -544.1755705089057, 9605.103386056828, -82819.69521280471, -0.09, 0.79, 0.594, 192.0, 0.0, 0.0, 0.0, 0.0, 0.0, 0.0, 0.0, 0.0, 0.0, 1.7395351992221844E9, 0.0, 2025-02-14 09:13:19.222
116.0, -187500.02235174447, -131602.7574661681, -10153.928119412438, 21993.311881221758, 3816.0239238767535, -940.9413863350615, 9259.947748177976, -82696.9170805117, -0.09, 0.79, 0.594, 192.0, 0.0, 0.0, 0.0, 0.0, 0.0, 0.0, 0.0, 0.0, 0.0, 1.739535199222197E9, 0.0, 2025-02-14 09:13:19.222
117.0, -187500.02235174447, -131710.04583955358, -10092.483173904799, 22074.716934527987, 3625.072970995065, -932.3359647197682, 9326.265373976872, -82871.7077221522, -0.09, 0.79, 0.594, 192.0, 0.0, 0.0, 0.0, 0.0, 0.0, 0.0, 0.0, 0.0, 0.0, 1.7395351992222097E9, 0.0, 2025-02-14 09:13:19.222
118.0, -187500.02235174447, -131792.59083182702, -10138.840691905105, 22016.445936733002, 3596.4850898367276, -931.3077844748241, 9274.878713474121, -82999.69381090329, -0.09, 0.79, 0.594, 192.0, 0.0, 0.0, 0.0, 0.0, 0.0, 0.0, 0.0, 0.0, 0.0, 1.739535199222222E9, 0.0, 2025-02-14 09:13:19.222
119.0, -187500.02235174447, -131489.67999096873, -10612.585915635338, 21520.21485808073, 3376.230999974132, -1317.5012251736196, 8790.181134960787, -82823.2491401731, -0.09, 0.79, 0.594, 192.0, 0.0, 0.0, 0.0, 0.0, 0.0, 0.0, 0.0, 0.0, 0.0, 1.7395351992222345E9, 0.0, 2025-02-14 09:13:19.222
120.0, -187500.02235174447, -131159.79059455285, -11030.116502060475, 21111.870838626724, 2974.7713178123618, -1756.3106723202077, 8377.366766615722, -82651.72185322308, -0.09, 0.79, 0.594, 192.0, 0.0, 0.0, 0.0, 0.0, 0.0, 0.0, 0.0, 0.0, 0.0, 1.739535199222247E9, 0.0, 2025-02-14 09:13:19.222
121.0, -187500.02235174447, -131219.2685865484, -11001.662731368868, 21162.0952084178, 2740.569739409654, -1815.4757398934055, 8415.387083934198, -82792.00140142458, -0.08, 0.792, 0.598, 192.0, 253.0, 128.0, 24.0, 192.0, 18.0, 176.0, 0.0, 0.0, 0.0, 1.7395351992222593E9, 0.0, 2025-02-14 09:13:19.222
122.0, -187500.02235174447, -131358.43054752715, -10956.758076758157, 21192.895912277214, 2724.4094281684675, -1790.6206000591042, 8450.792247151405, -82972.15646173435, -0.08, 0.792, 0.598, 192.0, 0.0, 0.0, 0.0, 0.0, 0.0, 0.0, 0.0, 0.0, 0.0, 1.7395351992222724E9, 0.0, 2025-02-14 09:13:19.222
123.0, -187500.02235174447, -131121.3455940897, -11359.760029287343, 20762.446017556907, 2578.8548682755077, -2131.37294428026, 8036.748532861297, -82851.36763469788, -0.08, 0.792, 0.598, 192.0, 0.0, 0.0, 0.0, 0.0, 0.0, 0.0, 0.0, 0.0, 0.0, 1.7395351992222848E9, 0.0, 2025-02-14 09:13:19.222
124.0, -187500.02235174447, -130758.68854030235, -11841.998915910592, 20296.21097996366, 2186.045311217941, -2573.1104699504936, 7551.872140392321, -82655.49929803603, -0.08, 0.792, 0.598, 192.0, 0.0, 0.0, 0.0, 0.0, 0.0, 0.0, 0.0, 0.0, 0.0, 1.7395351992222974E9, 0.0, 2025-02-14 09:13:19.222
125.0, -187500.02235174447, -130761.54956359263, -11878.029927972548, 20287.180875203714, 1903.5416130473154, -2661.578674504599, 7523.999515056553, -82757.64677019678, -0.08, 0.792, 0.598, 192.0, 0.0, 0.0, 0.0, 0.0, 0.0, 0.0, 0.0, 0.0, 0.0, 1.7395351992223096E9, 0.0, 2025-02-14 09:13:19.222
126.0, -187500.02235174447, -130944.2080192814, -11770.89801679826, 20381.79580948303, 1881.905124414578, -2594.8363655610524, 7627.733961073633, -82980.9406973053, -0.08, 0.792, 0.598, 192.0, 0.0, 0.0, 0.0, 0.0, 0.0, 0.0, 0.0, 0.0, 0.0, 1.739535199222322E9, 0.0, 2025-02-14 09:13:19.222
127.0, -187500.02235174447, -130787.23171797178, -12093.433689288342, 20033.466223891526, 1790.2629721478193, -2847.098153483648, 7299.878573403189, -82923.76493498862, -0.08, 0.792, 0.598, 192.0, 0.0, 0.0, 0.0, 0.0, 0.0, 0.0, 0.0, 0.0, 0.0, 1.7395351992223341E9, 0.0, 2025-02-14 09:13:19.222
128.0, -187500.02235174447, -130410.67187913322, -12598.11372734472, 19532.071892270076, 1439.3405841994984, -3314.383723066297, 6797.478413281252, -82710.3728306738, -0.08, 0.792, 0.598, 192.0, 0.0, 0.0, 0.0, 0.0, 0.0, 0.0, 0.0, 0.0, 0.0, 1.7395351992223532E9, 0.0, 2025-02-14 09:13:19.222
129.0, -187500.02235174447, -130353.56317204991, -12695.500277936493, 19463.027353647634, 1127.6008042813307, -3481.440661125262, 6709.077263960513, -82765.7381016896, -0.08, 0.792, 0.598, 192.0, 0.0, 0.0, 0.0, 0.0, 0.0, 0.0, 0.0, 0.0, 0.0, 1.7395351992223656E9, 0.0, 2025-02-14 09:13:19.222
130.0, -187500.02235174447, -130565.23419204167, -12547.53172964236, 19609.65479727445, 1085.69128342763, -3385.708139623182, 6851.59198660755, -83016.7481919227, -0.08, 0.792, 0.598, 192.0, 0.0, 0.0, 0.0, 0.0, 0.0, 0.0, 0.0, 0.0, 0.0, 1.739535199222378E9, 0.0, 2025-02-14 09:13:19.222
131.0, -187500.02235174447, -130497.21783366417, -12774.089011441352, 19355.78368375107, 1045.8381230638174, -3557.7718684401357, 6619.714989628195, -83031.14271535192, -0.08, 0.794, 0.59, 192.0, 253.0, 128.0, 24.0, 208.0, 18.0, 112.0, 0.0, 0.0, 0.0, 1.7395351992223904E9, 0.0, 2025-02-14 09:13:19.222
132.0, -187500.02235174447, -130131.5656461198, -13282.948825710873, 18833.825747230738, 735.7523722353426, -4022.5093391548803, 6105.378997967124, -82825.28314891853, -0.08, 0.794, 0.59, 192.0, 0.0, 0.0, 0.0, 0.0, 0.0, 0.0, 0.0, 0.0, 0.0, 1.7395351992224035E9, 0.0, 2025-02-14 09:13:19.222
133.0, -187500.02235174447, -130011.5367783948, -13455.392534183567, 18689.053498393714, 406.60058338649077, -4260.622472837266, 5945.429914644947, -82832.65922458879, -0.08, 0.794, 0.59, 192.0, 0.0, 0.0, 0.0, 0.0, 0.0, 0.0, 0.0, 0.0, 0.0, 1.7395351992224157E9, 0.0, 2025-02-14 09:13:19.222
134.0, -187500.02235174447, -130225.37591759872, -13299.220895674336, 18862.815959789274, 347.41316406883766, -4164.264102490438, 6113.000942826384, -83090.62070734748, -0.08, 0.794, 0.59, 192.0, 0.0, 0.0, 0.0, 0.0, 0.0, 0.0, 0.0, 0.0, 0.0, 1.739535199222428E9, 0.0, 2025-02-14 09:13:19.222
135.0, -187500.02235174447, -130241.06684220635, -13437.913470019517, 18711.18172540447, 339.14301862037405, -4229.55354804439, 5961.567874141679, -83170.77406296422, -0.08, 0.794, 0.59, 192.0, 0.0, 0.0, 0.0, 0.0, 0.0, 0.0, 0.0, 0.0, 0.0, 1.73953519922244E9, 0.0, 2025-02-14 09:13:19.222
136.0, -187500.02235174447, -129897.07349503918, -13936.446778350686, 18199.304425633483, 70.13977410075356, -4649.408715892878, 5453.60212965037, -82978.72787460421, -0.08, 0.794, 0.59, 192.0, 0.0, 0.0, 0.0, 0.0, 0.0, 0.0, 0.0, 0.0, 0.0, 1.739535199222452E9, 0.0, 2025-02-14 09:13:19.222
137.0, -187500.02235174447, -129709.81057999261, -14191.636644796927, 17975.027021768932, -285.4541284387265, -4942.998879313335, 5211.733902899493, -82932.99620544865, -0.08, 0.794, 0.59, 192.0, 0.0, 0.0, 0.0, 0.0, 0.0, 0.0, 0.0, 0.0, 0.0, 1.7395351992224643E9, 0.0, 2025-02-14 09:13:19.222
138.0, -187500.02235174447, -129906.34946898812, -14043.556337780517, 18143.760340662044, -379.8678970179435, -4877.2400471258225, 5368.844314675845, -83180.80999622465, -0.08, 0.794, 0.59, 192.0, 0.0, 0.0, 0.0, 0.0, 0.0, 0.0, 0.0, 0.0, 0.0, 1.7395351992224765E9, 0.0, 2025-02-14 09:13:19.222
139.0, -187500.02235174447, -129997.36577241014, -14084.102402222445, 18078.605005574824, -357.918483962832, -4900.329399148154, 5316.250659972508, -83324.8222857502, -0.08, 0.794, 0.59, 192.0, 0.0, 0.0, 0.0, 0.0, 0.0, 0.0, 0.0, 0.0, 0.0, 1.739535199222489E9, 0.0, 2025-02-14 09:13:19.222
140.0, -187500.02235174447, -129694.99137341874, -14561.513312043347, 17588.34184269212, -580.0277686152183, -5280.420813610651, 4831.284860525711, -83162.95095240486, -0.08, 0.794, 0.59, 192.0, 0.0, 0.0, 0.0, 0.0, 0.0, 0.0, 0.0, 0.0, 0.0, 1.7395351992225013E9, 0.0, 2025-02-14 09:13:19.222
141.0, -187500.02235174447, -129446.28351286454, -14898.37645272928, 17271.818789460514, -944.2941480033575, -5629.666820724824, 4508.726836291175, -83065.6538087909, -0.078, 0.796, 0.594, 192.0, 253.0, 144.0, 24.0, 224.0, 18.0, 144.0, 0.0, 0.0, 0.0, 1.7395351992225134E9, 0.0, 2025-02-14 09:13:19.222
142.0, -187500.02235174447, -129601.2928606621, -14786.438916497102, 17404.051709658113, -1096.174251577169, -5588.338445226961, 4631.013230206159, -83284.92442189746, -0.078, 0.796, 0.594, 192.0, 0.0, 0.0, 0.0, 0.0, 0.0, 0.0, 0.0, 0.0, 0.0, 1.7395351992225263E9, 0.0, 2025-02-14 09:13:19.222
143.0, -187500.02235174447, -129751.76480433522, -14758.432180694603, 17421.039035444144, -1067.49696344101, -5529.016915442577, 4650.928634515838, -83476.68003757954, -0.078, 0.796, 0.594, 192.0, 0.0, 0.0, 0.0, 0.0, 0.0, 0.0, 0.0, 0.0, 0.0, 1.7395351992225387E9, 0.0, 2025-02-14 09:13:19.222
144.0, -187500.02235174447, -129496.68669661126, -15181.751868933663, 16975.099381816315, -1224.0932850948914, -5873.144373076484, 4219.249393850493, -83346.81640229421, -0.078, 0.796, 0.594, 192.0, 0.0, 0.0, 0.0, 0.0, 0.0, 0.0, 0.0, 0.0, 0.0, 1.7395351992225573E9, 0.0, 2025-02-14 09:13:19.222
145.0, -187500.02235174447, -129194.69227727561, -15574.561425991229, 16590.895246374042, -1586.213897015321, -6289.7585379789525, 3828.3844385605385, -83204.391086625, -0.078, 0.796, 0.594, 192.0, 0.0, 0.0, 0.0, 0.0, 0.0, 0.0, 0.0, 0.0, 0.0, 1.7395351992225697E9, 0.0, 2025-02-14 09:13:19.222
146.0, -187500.02235174447, -129294.04578137945, -15508.377910659065, 16677.195331715982, -1787.2231349018973, -6315.306581891368, 3899.3512272061384, -83382.19921376696, -0.078, 0.796, 0.594, 192.0, 0.0, 0.0, 0.0, 0.0, 0.0, 0.0, 0.0, 0.0, 0.0, 1.7395351992225819E9, 0.0, 2025-02-14 09:13:19.222
147.0, -187500.02235174447, -129491.83636806445, -15414.120604291036, 16767.295213615325, -1758.0541083877217, -6228.7159238715085, 3990.702806794978, -83614.45619040207, -0.078, 0.796, 0.594, 192.0, 0.0, 0.0, 0.0, 0.0, 0.0, 0.0, 0.0, 0.0, 0.0, 1.739535199222594E9, 0.0, 2025-02-14 09:13:19.222
148.0, -187500.02235174447, -129301.71242972762, -15777.470562156506, 16379.7159647603, -1864.6719294395364, -6512.225450542624, 3616.512252868683, -83535.8674568972, -0.078, 0.796, 0.594, 192.0, 0.0, 0.0, 0.0, 0.0, 0.0, 0.0, 0.0, 0.0, 0.0, 1.7395351992226062E9, 0.0, 2025-02-14 09:13:19.222
149.0, -187500.02235174447, -128962.94939076298, -16226.204183841252, 15927.875450596268, -2212.085093508374, -6962.255473405776, 3163.8000206708934, -83359.7804140783, -0.078, 0.796, 0.594, 192.0, 0.0, 0.0, 0.0, 0.0, 0.0, 0.0, 0.0, 0.0, 0.0, 1.7395351992226183E9, 0.0, 2025-02-14 09:13:19.222
150.0, -187500.02235174447, -128991.82784459923, -16227.880564675399, 15945.801549649424, -2463.1845907192937, -7054.031736139266, 3160.6707764471507, -83485.17370047256, -0.078, 0.796, 0.594, 192.0, 0.0, 0.0, 0.0, 0.0, 0.0, 0.0, 0.0, 0.0, 0.0, 1.7395351992226305E9, 0.0, 2025-02-14 09:13:19.222
151.0, -187500.02235174447, -129215.45704787459, -16087.824533918445, 16084.427068761239, -2459.8988842843632, -6928.280821833709, 3294.513022245529, -83745.59387512134, -0.08600000000000001, 0.796, 0.596, 192.0, 253.0, 80.0, 24.0, 224.0, 18.0, 160.0, 0.0, 0.0, 0.0, 1.739535199222643E9, 0.0, 2025-02-14 09:13:19.222
152.0, -187500.02235174447, -129093.59533710426, -16377.95017694833, 15772.240253953965, -2523.623707726444, -7127.904251564057, 2994.820832588772, -83720.33640388685, -0.08600000000000001, 0.796, 0.596, 192.0, 0.0, 0.0, 0.0, 0.0, 0.0, 0.0, 0.0, 0.0, 0.0, 1.7395351992226555E9, 0.0, 2025-02-14 09:13:19.222
