%OpenBCI Raw EXG Data
%Number of channels = 8
%Sample Rate = 250 Hz
%Board = OpenBCI_GUI$BoardCytonSerial
Sample Index, EXG Channel 0, EXG Channel 1, EXG Channel 2, EXG Channel 3, EXG Channel 4, EXG Channel 5, EXG Channel 6, EXG Channel 7, Accel Channel 0, Accel Channel 1, Accel Channel 2, Not Used, Digital Channel 0 (D11), Digital Channel 1 (D12), Digital Channel 2 (D13), Digital Channel 3 (D17), Not Used, Digital Channel 4 (D18), Analog Channel 0, Analog Channel 1, Analog Channel 2, Timestamp, Marker Channel, Timestamp (Formatted)
122.0, -8509.44322460213, -8546.658879120218, 0.0, -9109.878135905044, -23709.300006544592, -7712.357665581426, -7416.532327715437, -7389.374958202238, 0.0, 0.0, 0.0, 192.0, 0.0, 0.0, 0.0, 0.0, 0.0, 0.0, 0.0, 0.0, 0.0, 1.7307464843424823E9, 0.0, 2024-11-04 15:54:44.342
123.0, -8509.733797280049, -8546.234195975567, 0.0, -9087.973426338844, -23721.235838083725, -7698.611342741412, -7404.261220009473, -7383.183524988119, 0.0, 0.0, 0.0, 192.0, 0.0, 0.0, 0.0, 0.0, 0.0, 0.0, 0.0, 0.0, 0.0, 1.7307464843425176E9, 0.0, 2024-11-04 15:54:44.342
124.0, -8535.617117359296, -8571.871646865804, 0.0, -9089.672158917447, -23691.887997613907, -7720.560755796523, -7420.5332899729365, -7374.22047546154, 0.0, 0.0, 0.0, 192.0, 0.0, 0.0, 0.0, 0.0, 0.0, 0.0, 0.0, 0.0, 0.0, 1.7307464843425467E9, 0.0, 2024-11-04 15:54:44.342
0.0, 0.0, 0.0, 0.0, 0.0, 0.0, 0.0, 0.0, 0.0, 0.058, 0.9500000000000001, 0.19, 192.0, 1.0, 208.0, 29.0, 176.0, 5.0, 240.0, 0.0, 0.0, 0.0, 1.7307464844184196E9, 0.0, 2024-11-04 15:54:44.418
1.0, -8309.97625708297, -8348.778885457383, 0.0, -8912.57928759805, -23930.69403537441, -7507.302761948438, -7219.233479408441, -7216.819491007268, 0.058, 0.9500000000000001, 0.19, 192.0, 0.0, 0.0, 0.0, 0.0, 0.0, 0.0, 0.0, 0.0, 0.0, 1.7307464844345322E9, 0.0, 2024-11-04 15:54:44.434
2.0, -8329.60108871473, -8367.934330455582, 0.0, -8895.480203089739, -23921.127488747537, -7512.667180617712, -7221.491005598427, -7203.587258289726, 0.058, 0.9500000000000001, 0.19, 192.0, 0.0, 0.0, 0.0, 0.0, 0.0, 0.0, 0.0, 0.0, 0.0, 1.7307464844383917E9, 0.0, 2024-11-04 15:54:44.438
3.0, -8355.551464027341, -8393.795298790372, 0.0, -8903.817403771569, -23884.671793540932, -7537.567023940925, -7241.831093052757, -7191.249095350397, 0.058, 0.9500000000000001, 0.19, 192.0, 0.0, 0.0, 0.0, 0.0, 0.0, 0.0, 0.0, 0.0, 0.0, 1.730746484441475E9, 0.0, 2024-11-04 15:54:44.441
4.0, -8337.692420207552, -8376.80797300434, 0.0, -8920.961191768789, -23889.902101743475, -7537.835244874388, -7241.987555263943, -7197.574639031249, 0.058, 0.9500000000000001, 0.19, 192.0, 0.0, 0.0, 0.0, 0.0, 0.0, 0.0, 0.0, 0.0, 0.0, 1.7307464844445696E9, 0.0, 2024-11-04 15:54:44.444
5.0, -8293.994759797426, -8332.976202127482, 0.0, -8904.309142149585, -23943.635695414032, -7497.512697877014, -7207.543517058315, -7208.61640079217, 0.058, 0.9500000000000001, 0.19, 192.0, 0.0, 0.0, 0.0, 0.0, 0.0, 0.0, 0.0, 0.0, 0.0, 1.7307464844484365E9, 0.0, 2024-11-04 15:54:44.448
6.0, -8304.500079691421, -8342.78861794336, 0.0, -8880.079851160031, -23947.949582093905, -7490.941285007154, -7200.458014065983, -7195.987665174922, 0.058, 0.9500000000000001, 0.19, 192.0, 0.0, 0.0, 0.0, 0.0, 0.0, 0.0, 0.0, 0.0, 0.0, 1.7307464844524477E9, 0.0, 2024-11-04 15:54:44.452
7.0, -8332.059780604814, -8370.236560134479, 0.0, -8884.684310517825, -23919.249942213293, -7513.561250395925, -7221.155729431597, -7184.476516780439, 0.058, 0.9500000000000001, 0.19, 192.0, 0.0, 0.0, 0.0, 0.0, 0.0, 0.0, 0.0, 0.0, 0.0, 1.7307464844574568E9, 0.0, 2024-11-04 15:54:44.457
8.0, -8323.700228178528, -8362.860484464227, 0.0, -8900.28582814763, -23916.098346245093, -7519.529166165491, -7226.184871934041, -7185.571752258748, 0.026000000000000002, 0.9500000000000001, 0.198, 192.0, 0.0, 208.0, 29.0, 176.0, 6.0, 48.0, 0.0, 0.0, 0.0, 1.7307464844615364E9, 0.0, 2024-11-04 15:54:44.461
9.0, -8268.044384484814, -8307.897544848627, 0.0, -8884.840772729012, -23972.69296320593, -7473.7751452654775, -7186.085842381221, -7194.937133185522, 0.026000000000000002, 0.9500000000000001, 0.198, 192.0, 0.0, 0.0, 0.0, 0.0, 0.0, 0.0, 0.0, 0.0, 0.0, 1.730746484464825E9, 0.0, 2024-11-04 15:54:44.464
10.0, -8264.043422227314, -8303.360140724199, 0.0, -8851.491970001694, -23993.815361716195, -7454.99967992302, -7166.975100871933, -7182.531915012827, 0.026000000000000002, 0.9500000000000001, 0.198, 192.0, 0.0, 0.0, 0.0, 0.0, 0.0, 0.0, 0.0, 0.0, 0.0, 1.7307464844684782E9, 0.0, 2024-11-04 15:54:44.468
11.0, -8292.318378963279, -8331.322173037788, 0.0, -8848.85446415597, -23969.988402126837, -7474.244531899039, -7182.218990590452, -7164.874036893134, 0.026000000000000002, 0.9500000000000001, 0.198, 192.0, 0.0, 0.0, 0.0, 0.0, 0.0, 0.0, 0.0, 0.0, 0.0, 1.7307464844724565E9, 0.0, 2024-11-04 15:54:44.472
12.0, -8299.359178466699, -8338.184158585567, 0.0, -8866.42293529784, -23958.857233388095, -7490.069566973397, -7197.194659375508, -7160.515446724349, 0.026000000000000002, 0.9500000000000001, 0.198, 192.0, 0.0, 0.0, 0.0, 0.0, 0.0, 0.0, 0.0, 0.0, 0.0, 1.7307464844764757E9, 0.0, 2024-11-04 15:54:44.476
13.0, -8247.81605575276, -8286.931608549548, 0.0, -8860.812647439558, -24009.17101015699, -7454.887921200743, -7165.879865393623, -7169.590254973204, 0.026000000000000002, 0.9500000000000001, 0.198, 192.0, 0.0, 0.0, 0.0, 0.0, 0.0, 0.0, 0.0, 0.0, 0.0, 1.7307464844804888E9, 0.0, 2024-11-04 15:54:44.480
14.0, -8236.975459691937, -8276.336881677733, 0.0, -8827.754417390159, -24037.200097703946, -7426.858833653789, -7140.912966837045, -7158.973176356933, 0.026000000000000002, 0.9500000000000001, 0.198, 192.0, 0.0, 0.0, 0.0, 0.0, 0.0, 0.0, 0.0, 0.0, 0.0, 1.73074648448555E9, 0.0, 2024-11-04 15:54:44.485
15.0, -8265.943320506016, -8304.656541902606, 0.0, -8822.099426042965, -24014.13309742607, -7445.097857129319, -7153.541702454294, -7139.41539995854, 0.026000000000000002, 0.9500000000000001, 0.198, 192.0, 0.0, 0.0, 0.0, 0.0, 0.0, 0.0, 0.0, 0.0, 0.0, 1.7307464844885228E9, 0.0, 2024-11-04 15:54:44.488
16.0, -8283.712957347985, -8322.761454911406, 0.0, -8840.472559985228, -23991.55783552621, -7467.449601584626, -7173.859438164168, -7131.547585910272, 0.026000000000000002, 0.9500000000000001, 0.198, 192.0, 0.0, 0.0, 0.0, 0.0, 0.0, 0.0, 0.0, 0.0, 0.0, 1.7307464844925084E9, 0.0, 2024-11-04 15:54:44.492
17.0, -8237.176625392036, -8277.432117156044, 0.0, -8843.445341997784, -24029.220524933404, -7441.7227437165675, -7151.597100686682, -7140.644745903582, 0.026000000000000002, 0.9500000000000001, 0.198, 192.0, 0.0, 0.0, 0.0, 0.0, 0.0, 0.0, 0.0, 0.0, 0.0, 1.7307464844964533E9, 0.0, 2024-11-04 15:54:44.496
18.0, -8215.808357692762, -8255.3485936342, 0.0, -8812.599934649461, -24065.29624048427, -7409.737397401023, -7123.188033483986, -7136.062638290244, 0.018000000000000002, 0.972, 0.20400000000000001, 192.0, 0.0, 144.0, 30.0, 96.0, 6.0, 96.0, 0.0, 0.0, 0.0, 1.7307464845006251E9, 0.0, 2024-11-04 15:54:44.500
19.0, -8243.211596394967, -8282.505963147398, 0.0, -8804.396844434363, -24047.303086197746, -7426.121226086763, -7134.833292345202, -7119.723513093414, 0.018000000000000002, 0.972, 0.20400000000000001, 192.0, 0.0, 0.0, 0.0, 0.0, 0.0, 0.0, 0.0, 0.0, 0.0, 1.7307464845046897E9, 0.0, 2024-11-04 15:54:44.504
20.0, -8266.368003650667, -8306.243515758933, 0.0, -8819.104292285954, -24016.70354803843, -7450.66344149869, -7156.268615277841, -7109.531117621794, 0.018000000000000002, 0.972, 0.20400000000000001, 192.0, 0.0, 0.0, 0.0, 0.0, 0.0, 0.0, 0.0, 0.0, 0.0, 1.730746484508494E9, 0.0, 2024-11-04 15:54:44.508
21.0, -8231.38752357811, -8272.514733375876, 0.0, -8830.771902891625, -24042.788033817775, -7434.838406424333, -7142.678754649014, -7118.717684592925, 0.018000000000000002, 0.972, 0.20400000000000001, 192.0, 0.0, 0.0, 0.0, 0.0, 0.0, 0.0, 0.0, 0.0, 0.0, 1.730746484513564E9, 0.0, 2024-11-04 15:54:44.513
22.0, -8201.123261585624, -8241.378753349632, 0.0, -8804.665065367826, -24086.217473294437, -7400.059092051875, -7110.358132166641, -7120.394065427073, 0.018000000000000002, 0.972, 0.20400000000000001, 192.0, 0.0, 0.0, 0.0, 0.0, 0.0, 0.0, 0.0, 0.0, 0.0, 1.7307464845165024E9, 0.0, 2024-11-04 15:54:44.516
23.0, -8227.364209576155, -8266.54681760631, 0.0, -8792.103384983944, -24074.393400477577, -7410.698522412601, -7118.561222381738, -7106.915963520523, 0.018000000000000002, 0.972, 0.20400000000000001, 192.0, 0.0, 0.0, 0.0, 0.0, 0.0, 0.0, 0.0, 0.0, 0.0, 1.7307464845204802E9, 0.0, 2024-11-04 15:54:44.520
24.0, -8255.683869801029, -8295.089995275735, 0.0, -8804.21803047872, -24038.049463993248, -7437.230043081051, -7142.879920349112, -7095.047187214755, 0.018000000000000002, 0.972, 0.20400000000000001, 192.0, 0.0, 0.0, 0.0, 0.0, 0.0, 0.0, 0.0, 0.0, 0.0, 1.730746484524758E9, 0.0, 2024-11-04 15:54:44.524
25.0, -8234.203843379479, -8274.660500843585, 0.0, -8821.518280687127, -24047.66071410903, -7432.491473256526, -7140.085952292198, -7101.931524506989, 0.018000000000000002, 0.972, 0.20400000000000001, 192.0, 0.0, 0.0, 0.0, 0.0, 0.0, 0.0, 0.0, 0.0, 0.0, 1.7307464845296447E9, 0.0, 2024-11-04 15:54:44.529
26.0, -8200.3856540186, -8240.864663227161, 0.0, -8805.335617701485, -24095.582854221208, -7398.136842028719, -7110.268725188819, -7111.140443222576, 0.018000000000000002, 0.972, 0.20400000000000001, 192.0, 0.0, 0.0, 0.0, 0.0, 0.0, 0.0, 0.0, 0.0, 0.0, 1.7307464845325973E9, 0.0, 2024-11-04 15:54:44.532
27.0, -8221.083369384214, -8260.981233236937, 0.0, -8788.392995404363, -24087.24565353938, -7403.367150231261, -7112.570954867716, -7098.154079694043, 0.018000000000000002, 0.972, 0.20400000000000001, 192.0, 0.0, 0.0, 0.0, 0.0, 0.0, 0.0, 0.0, 0.0, 0.0, 1.7307464845366492E9, 0.0, 2024-11-04 15:54:44.536
28.0, -8251.906424988083, -8291.804288840805, 0.0, -8797.288989697576, -24045.89492629706, -7429.362229032783, -7136.397914457073, -7084.139535920565, 0.046, 1.002, 0.212, 192.0, 1.0, 112.0, 31.0, 80.0, 6.0, 160.0, 0.0, 0.0, 0.0, 1.7307464845407593E9, 0.0, 2024-11-04 15:54:44.540
29.0, -8244.82092199575, -8285.702262604507, 0.0, -8820.154824275354, -24041.357522172635, -7439.353458804305, -7144.6457081610815, -7090.621541812604, 0.046, 1.002, 0.212, 192.0, 0.0, 0.0, 0.0, 0.0, 0.0, 0.0, 0.0, 0.0, 0.0, 1.73074648454464E9, 0.0, 2024-11-04 15:54:44.544
30.0, -8202.330255786212, -8243.3457068617, 0.0, -8809.023655536612, -24085.166941305037, -7404.104757798285, -7112.839175801179, -7102.289152418274, 0.046, 1.002, 0.212, 192.0, 0.0, 0.0, 0.0, 0.0, 0.0, 0.0, 0.0, 0.0, 0.0, 1.730746484548595E9, 0.0, 2024-11-04 15:54:44.548
31.0, -8216.568317004243, -8256.332070390234, 0.0, -8788.907085526835, -24085.077534327214, -7400.908458341177, -7109.21819319942, -7094.153117436543, 0.046, 1.002, 0.212, 192.0, 0.0, 0.0, 0.0, 0.0, 0.0, 0.0, 0.0, 0.0, 0.0, 1.7307464845526896E9, 0.0, 2024-11-04 15:54:44.552
32.0, -8250.028878453837, -8289.613817884185, 0.0, -8796.149050730355, -24045.76081583033, -7428.42345576566, -7133.782760355803, -7082.776079508792, 0.046, 1.002, 0.212, 192.0, 0.0, 0.0, 0.0, 0.0, 0.0, 0.0, 0.0, 0.0, 0.0, 1.7307464845568285E9, 0.0, 2024-11-04 15:54:44.556
33.0, -8253.761619777873, -8294.59825689772, 0.0, -8818.679609141303, -24026.13598419857, -7443.823807695367, -7148.356097740662, -7084.2512946428415, 0.046, 1.002, 0.212, 192.0, 0.0, 0.0, 0.0, 0.0, 0.0, 0.0, 0.0, 0.0, 0.0, 1.7307464845596104E9, 0.0, 2024-11-04 15:54:44.559
34.0, -8208.208764577957, -8250.319451131756, 0.0, -8814.052798039056, -24063.508100927844, -7410.519708456959, -7119.2317747153975, -7096.50005060435, 0.046, 1.002, 0.212, 192.0, 0.0, 0.0, 0.0, 0.0, 0.0, 0.0, 0.0, 0.0, 0.0, 1.7307464845647435E9, 0.0, 2024-11-04 15:54:44.564
35.0, -8213.170851847035, -8254.856855256183, 0.0, -8791.321073928008, -24070.794769620272, -7399.187374018118, -7108.905268777045, -7090.867411001613, 0.046, 1.002, 0.212, 192.0, 0.0, 0.0, 0.0, 0.0, 0.0, 0.0, 0.0, 0.0, 0.0, 1.730746484568698E9, 0.0, 2024-11-04 15:54:44.568
36.0, -8248.35249761969, -8290.150259751113, 0.0, -8796.663140852826, -24033.84733603565, -7427.842310409822, -7132.575766155215, -7081.524381819294, 0.046, 1.002, 0.212, 192.0, 0.0, 0.0, 0.0, 0.0, 0.0, 0.0, 0.0, 0.0, 0.0, 1.7307464845726736E9, 0.0, 2024-11-04 15:54:44.572
37.0, -8265.16100945008, -8308.277524504367, 0.0, -8820.691266142281, -24004.343033354646, -7450.730496732056, -7154.927510610522, -7082.3737481085955, 0.046, 1.002, 0.212, 192.0, 0.0, 0.0, 0.0, 0.0, 0.0, 0.0, 0.0, 0.0, 0.0, 1.7307464845765617E9, 0.0, 2024-11-04 15:54:44.576
38.0, -8225.643125253097, -8269.519599618865, 0.0, -8827.285030756597, -24036.015455247816, -7427.931717387643, -7134.721533622925, -7098.936390749978, 0.016, 1.026, 0.212, 192.0, 0.0, 128.0, 32.0, 16.0, 6.0, 160.0, 0.0, 0.0, 0.0, 1.730746484580582E9, 0.0, 2024-11-04 15:54:44.580
39.0, -8221.709218228963, -8264.69162281652, 0.0, -8805.827356079502, -24053.248650222857, -7411.860813124277, -7119.455292159951, -7099.942219250467, 0.016, 1.026, 0.212, 192.0, 0.0, 0.0, 0.0, 0.0, 0.0, 0.0, 0.0, 0.0, 0.0, 1.7307464845849771E9, 0.0, 2024-11-04 15:54:44.584
40.0, -8256.287366901322, -8299.046254044326, 0.0, -8806.520260157617, -24018.89401899505, -7436.358325047294, -7140.287117992297, -7090.554486579238, 0.016, 1.026, 0.212, 192.0, 0.0, 0.0, 0.0, 0.0, 0.0, 0.0, 0.0, 0.0, 0.0, 1.7307464845877104E9, 0.0, 2024-11-04 15:54:44.587
41.0, -8284.361157937188, -8327.45532124702, 0.0, -8831.084827314, -23983.17593135547, -7464.879150972266, -7169.612606717659, -7090.778004023791, 0.016, 1.026, 0.212, 192.0, 0.0, 0.0, 0.0, 0.0, 0.0, 0.0, 0.0, 0.0, 0.0, 1.7307464845917337E9, 0.0, 2024-11-04 15:54:44.591
42.0, -8254.476875600443, -8298.532163921853, 0.0, -8848.765057178147, -24007.874608978585, -7452.898615944221, -7160.291929279796, -7110.559297866738, 0.016, 1.026, 0.212, 192.0, 0.0, 0.0, 0.0, 0.0, 0.0, 0.0, 0.0, 0.0, 0.0, 1.7307464845966096E9, 0.0, 2024-11-04 15:54:44.596
43.0, -8237.53425330332, -8280.82958231325, 0.0, -8827.0838650565, -24032.349769157147, -7428.535214487936, -7137.046115046277, -7114.73907407988, 0.016, 1.026, 0.212, 192.0, 0.0, 0.0, 0.0, 0.0, 0.0, 0.0, 0.0, 0.0, 0.0, 1.7307464846008098E9, 0.0, 2024-11-04 15:54:44.600
44.0, -8270.078393230247, -8312.859632117705, 0.0, -8823.217013265732, -24003.85129497663, -7448.920005431177, -7154.703993165969, -7106.31246642023, 0.016, 1.026, 0.212, 192.0, 0.0, 0.0, 0.0, 0.0, 0.0, 0.0, 0.0, 0.0, 0.0, 1.7307464846049902E9, 0.0, 2024-11-04 15:54:44.604
45.0, -8303.650713402118, -8346.610766245218, 0.0, -8844.965260620746, -23962.4558642454, -7481.821773269388, -7186.510525525871, -7105.127823964099, 0.016, 1.026, 0.212, 192.0, 0.0, 0.0, 0.0, 0.0, 0.0, 0.0, 0.0, 0.0, 0.0, 1.730746484608787E9, 0.0, 2024-11-04 15:54:44.608
46.0, -8278.415593912077, -8322.604992700219, 0.0, -8864.076002130032, -23970.12251259357, -7475.630340055269, -7181.280217323329, -7118.941202037478, 0.016, 1.026, 0.212, 192.0, 0.0, 0.0, 0.0, 0.0, 0.0, 0.0, 0.0, 0.0, 0.0, 1.73074648461273E9, 0.0, 2024-11-04 15:54:44.612
47.0, -8252.644032555108, -8296.721672620974, 0.0, -8847.80393216657, -24003.493667065344, -7447.33303157485, -7154.972214099434, -7129.781798098302, 0.016, 1.026, 0.212, 192.0, 0.0, 0.0, 0.0, 0.0, 0.0, 0.0, 0.0, 0.0, 0.0, 1.7307464846156552E9, 0.0, 2024-11-04 15:54:44.615
48.0, -8278.616759612174, -8321.465053732998, 0.0, -8836.628059938916, -23979.73376270935, -7459.425325325171, -7164.1364293261095, -7120.1705479825205, 0.044, 1.036, 0.20800000000000002, 192.0, 1.0, 96.0, 32.0, 96.0, 6.0, 128.0, 0.0, 0.0, 0.0, 1.7307464846198876E9, 0.0, 2024-11-04 15:54:44.619
49.0, -8312.747873395429, -8355.216187860511, 0.0, -8853.302461302574, -23935.20908775438, -7491.00834024052, -7194.065415151766, -7116.460158402939, 0.044, 1.036, 0.20800000000000002, 192.0, 0.0, 0.0, 0.0, 0.0, 0.0, 0.0, 0.0, 0.0, 0.0, 1.7307464846246097E9, 0.0, 2024-11-04 15:54:44.624
50.0, -8299.180364511058, -8342.319231309799, 0.0, -8877.755269736681, -23934.516183676267, -7497.289180432461, -7199.072205909754, -7131.860510332645, 0.044, 1.036, 0.20800000000000002, 192.0, 0.0, 0.0, 0.0, 0.0, 0.0, 0.0, 0.0, 0.0, 0.0, 1.7307464846287427E9, 0.0, 2024-11-04 15:54:44.628
51.0, -8265.988023994925, -8309.305704749311, 0.0, -8867.652281242881, -23975.911614407494, -7464.8120957389, -7171.914836396556, -7148.177283785019, 0.044, 1.036, 0.20800000000000002, 192.0, 0.0, 0.0, 0.0, 0.0, 0.0, 0.0, 0.0, 0.0, 0.0, 1.7307464846328416E9, 0.0, 2024-11-04 15:54:44.632
52.0, -8289.077376017258, -8331.970373626993, 0.0, -8854.017717125143, -23968.02144861477, -7469.170685907685, -7178.799173688791, -7142.656402904559, 0.044, 1.036, 0.20800000000000002, 192.0, 0.0, 0.0, 0.0, 0.0, 0.0, 0.0, 0.0, 0.0, 0.0, 1.7307464846368556E9, 0.0, 2024-11-04 15:54:44.636
53.0, -8322.157957811112, -8364.492161809465, 0.0, -8864.634795741415, -23926.849535328096, -7498.138546721762, -7205.2859908683295, -7135.4367894454945, 0.044, 1.036, 0.20800000000000002, 192.0, 0.0, 0.0, 0.0, 0.0, 0.0, 0.0, 0.0, 0.0, 0.0, 1.7307464846407852E9, 0.0, 2024-11-04 15:54:44.640
54.0, -8317.464091475498, -8360.580606529786, 0.0, -8887.545333808104, -23916.724195089842, -7507.772148582, -7214.338447372729, -7143.483417449405, 0.044, 1.036, 0.20800000000000002, 192.0, 0.0, 0.0, 0.0, 0.0, 0.0, 0.0, 0.0, 0.0, 0.0, 1.73074648464399E9, 0.0, 2024-11-04 15:54:44.643
55.0, -8273.766431065373, -8317.777015897873, 0.0, -8881.040976171611, -23962.232346800847, -7473.216351654095, -7183.269522579852, -7160.113115324154, 0.044, 1.036, 0.20800000000000002, 192.0, 0.0, 0.0, 0.0, 0.0, 0.0, 0.0, 0.0, 0.0, 0.0, 1.730746484647778E9, 0.0, 2024-11-04 15:54:44.647
56.0, -8281.857762558195, -8325.466015990498, 0.0, -8858.063382871554, -23967.03797185874, -7466.24260738404, -7176.139316098609, -7154.055792576765, 0.044, 1.036, 0.20800000000000002, 192.0, 0.0, 0.0, 0.0, 0.0, 0.0, 0.0, 0.0, 0.0, 0.0, 1.7307464846527991E9, 0.0, 2024-11-04 15:54:44.652
57.0, -8313.485480962454, -8356.780809972382, 0.0, -8862.220807340242, -23932.68334063093, -7491.880058274277, -7199.049854165299, -7144.377487227618, 0.044, 1.036, 0.20800000000000002, 192.0, 0.0, 0.0, 0.0, 0.0, 0.0, 0.0, 0.0, 0.0, 0.0, 1.7307464846567676E9, 0.0, 2024-11-04 15:54:44.656
58.0, -8318.246402531435, -8361.765248985917, 0.0, -8883.387909339417, -23917.26063695677, -7507.705093348634, -7213.846708994712, -7147.730248895914, 0.032, 1.042, 0.20600000000000002, 192.0, 1.0, 0.0, 32.0, 144.0, 6.0, 112.0, 0.0, 0.0, 0.0, 1.7307464846607823E9, 0.0, 2024-11-04 15:54:44.660
59.0, -8268.960806007482, -8313.530184451363, 0.0, -8879.789278482112, -23963.998134612815, -7473.1269446762735, -7182.218990590452, -7163.085897336709, 0.032, 1.042, 0.20600000000000002, 192.0, 0.0, 0.0, 0.0, 0.0, 0.0, 0.0, 0.0, 0.0, 0.0, 1.7307464846638305E9, 0.0, 2024-11-04 15:54:44.663
60.0, -8265.272768172355, -8309.797443127329, 0.0, -8851.983708379712, -23985.589919756643, -7454.016203166986, -7164.985795615411, -7158.839065890202, 0.032, 1.042, 0.20600000000000002, 192.0, 0.0, 0.0, 0.0, 0.0, 0.0, 0.0, 0.0, 0.0, 0.0, 1.7307464846677475E9, 0.0, 2024-11-04 15:54:44.667
61.0, -8295.78289935385, -8339.88289116417, 0.0, -8848.65329845587, -23956.30913452019, -7473.8869039877545, -7182.688377224014, -7144.668059905536, 0.032, 1.042, 0.20600000000000002, 192.0, 0.0, 0.0, 0.0, 0.0, 0.0, 0.0, 0.0, 0.0, 0.0, 1.730746484671948E9, 0.0, 2024-11-04 15:54:44.671
62.0, -8307.83048961526, -8352.265757592411, 0.0, -8865.215941097253, -23929.755262107286, -7493.914067019709, -7200.145089643609, -7139.348344725174, 0.032, 1.042, 0.20600000000000002, 192.0, 0.0, 0.0, 0.0, 0.0, 0.0, 0.0, 0.0, 0.0, 0.0, 1.7307464846757772E9, 0.0, 2024-11-04 15:54:44.675
63.0, -8250.811189509772, -8297.280466232356, 0.0, -8868.814571954557, -23977.967974897383, -7460.945243948132, -7169.590254973204, -7155.106324566165, 0.032, 1.042, 0.20600000000000002, 192.0, 0.0, 0.0, 0.0, 0.0, 0.0, 0.0, 0.0, 0.0, 0.0, 1.7307464846808908E9, 0.0, 2024-11-04 15:54:44.680
64.0, -8212.813223935751, -8259.01427972487, 0.0, -8829.073170313022, -24036.52954537029, -7414.900650370199, -7126.7419608523805, -7156.670946678037, 0.032, 1.042, 0.20600000000000002, 192.0, 0.0, 0.0, 0.0, 0.0, 0.0, 0.0, 0.0, 0.0, 0.0, 1.7307464846848621E9, 0.0, 2024-11-04 15:54:44.684
65.0, -8248.888939486616, -8293.480669674953, 0.0, -8805.916763057323, -24015.541257326753, -7429.1610633326845, -7136.397914457073, -7131.972269054922, 0.032, 1.042, 0.20600000000000002, 192.0, 0.0, 0.0, 0.0, 0.0, 0.0, 0.0, 0.0, 0.0, 0.0, 1.7307464846888769E9, 0.0, 2024-11-04 15:54:44.688
66.0, -8304.589486669242, -8348.533016268375, 0.0, -8833.163539548343, -23956.577355453654, -7480.167744179696, -7182.710728968469, -7113.93441127949, 0.032, 1.042, 0.20600000000000002, 192.0, 0.0, 0.0, 0.0, 0.0, 0.0, 0.0, 0.0, 0.0, 0.0, 1.7307464846917453E9, 0.0, 2024-11-04 15:54:44.691
67.0, -8269.92193101906, -8315.3630274967, 0.0, -8863.271339329642, -23970.70365794941, -7472.255226642517, -7176.943978899, -7126.6302021301035, 0.032, 1.042, 0.20600000000000002, 192.0, 0.0, 0.0, 0.0, 0.0, 0.0, 0.0, 0.0, 0.0, 0.0, 1.7307464846958532E9, 0.0, 2024-11-04 15:54:44.695
68.0, -8237.4448463255, -8281.902466047104, 0.0, -8839.824359396025, -24014.200152659436, -7433.050266867908, -7143.304603493763, -7135.123865023121, 0.042, 1.018, 0.188, 192.0, 1.0, 80.0, 31.0, 208.0, 5.0, 224.0, 0.0, 0.0, 0.0, 1.7307464846999297E9, 0.0, 2024-11-04 15:54:44.699
69.0, -8265.026898983348, -8308.07635880427, 0.0, -8825.40748422235, -23994.642376261043, -7446.416610052182, -7153.765219898846, -7122.5174811503275, 0.042, 1.018, 0.188, 192.0, 0.0, 0.0, 0.0, 0.0, 0.0, 0.0, 0.0, 0.0, 0.0, 1.7307464847038193E9, 0.0, 2024-11-04 15:54:44.703
70.0, -8294.128870264158, -8336.060742862313, 0.0, -8840.9866501077, -23959.25956478829, -7475.831505755366, -7180.98964464541, -7116.258992702841, 0.042, 1.018, 0.188, 192.0, 0.0, 0.0, 0.0, 0.0, 0.0, 0.0, 0.0, 0.0, 0.0, 1.7307464847089348E9, 0.0, 2024-11-04 15:54:44.708
71.0, -8262.344689648711, -8305.349445980723, 0.0, -8856.856388670969, -23975.5092830073, -7466.28731087295, -7171.423098018539, -7128.150120753065, 0.042, 1.018, 0.188, 192.0, 0.0, 0.0, 0.0, 0.0, 0.0, 0.0, 0.0, 0.0, 0.0, 1.7307464847128513E9, 0.0, 2024-11-04 15:54:44.712
72.0, -8222.491529284898, -8265.83156178374, 0.0, -8832.805911637059, -24024.481955108877, -7424.221327808062, -7134.1403882670875, -7136.532024923805, 0.042, 1.018, 0.188, 192.0, 0.0, 0.0, 0.0, 0.0, 0.0, 0.0, 0.0, 0.0, 0.0, 1.7307464847169008E9, 0.0, 2024-11-04 15:54:44.716
73.0, -8249.2465673979, -8291.06668127378, 0.0, -8814.768053861626, -24019.385757373067, -7428.021124365464, -7139.1918825139865, -7122.651591617059, 0.042, 1.018, 0.188, 192.0, 0.0, 0.0, 0.0, 0.0, 0.0, 0.0, 0.0, 0.0, 0.0, 1.730746484719948E9, 0.0, 2024-11-04 15:54:44.719
74.0, -8300.297951733823, -8341.693382465051, 0.0, -8830.41427498034, -23971.418913771977, -7469.707127774612, -7177.3463102991955, -7108.413530399029, 0.042, 1.018, 0.188, 192.0, 0.0, 0.0, 0.0, 0.0, 0.0, 0.0, 0.0, 0.0, 0.0, 1.7307464847238684E9, 0.0, 2024-11-04 15:54:44.723
75.0, -8292.474841174466, -8335.613707973207, 0.0, -8863.248987585186, -23959.661896188485, -7483.9228372481875, -7190.399729061095, -7114.269687446319, 0.042, 1.018, 0.188, 192.0, 0.0, 0.0, 0.0, 0.0, 0.0, 0.0, 0.0, 0.0, 0.0, 1.730746484728002E9, 0.0, 2024-11-04 15:54:44.728
76.0, -8216.009523392859, -8260.243625669913, 0.0, -8847.066324599544, -24033.199135446448, -7426.523557486958, -7138.789551113791, -7135.213272000942, 0.042, 1.018, 0.188, 192.0, 0.0, 0.0, 0.0, 0.0, 0.0, 0.0, 0.0, 0.0, 0.0, 1.7307464847319436E9, 0.0, 2024-11-04 15:54:44.731
77.0, -8205.347741287678, -8249.06775344226, 0.0, -8802.541649644572, -24072.314688243234, -7395.834612349822, -7111.296905433764, -7130.072370776221, 0.042, 1.018, 0.188, 192.0, 0.0, 0.0, 0.0, 0.0, 0.0, 0.0, 0.0, 0.0, 0.0, 1.7307464847368524E9, 0.0, 2024-11-04 15:54:44.736
78.0, -8252.509922088377, -8296.140527265135, 0.0, -8793.35508267344, -24035.23314419188, -7425.093045841819, -7135.392085956584, -7105.306637919741, 0.044, 1.032, 0.18, 192.0, 1.0, 96.0, 32.0, 64.0, 5.0, 160.0, 0.0, 0.0, 0.0, 1.730746484740892E9, 0.0, 2024-11-04 15:54:44.740
79.0, -8265.138657705624, -8309.640980916141, 0.0, -8823.105254543454, -24006.64526303354, -7453.099781644319, -7159.174342057031, -7096.790623282269, 0.044, 1.032, 0.18, 192.0, 0.0, 0.0, 0.0, 0.0, 0.0, 0.0, 0.0, 0.0, 0.0, 1.7307464847448032E9, 0.0, 2024-11-04 15:54:44.744
80.0, -8191.444956236477, -8237.310735858768, 0.0, -8819.707789386248, -24072.314688243234, -7403.925943842643, -7114.716722335425, -7113.956763023944, 0.044, 1.032, 0.18, 192.0, 0.0, 0.0, 0.0, 0.0, 0.0, 0.0, 0.0, 0.0, 0.0, 1.730746484747868E9, 0.0, 2024-11-04 15:54:44.747
81.0, -8165.293415223768, -8210.734511701407, 0.0, -8774.154934186332, -24124.3942528241, -7363.603396845269, -7076.361128850118, -7109.799338555257, 0.044, 1.032, 0.18, 192.0, 0.0, 0.0, 0.0, 0.0, 0.0, 0.0, 0.0, 0.0, 0.0, 1.730746484752005E9, 0.0, 2024-11-04 15:54:44.752
82.0, -8210.041607623292, -8254.409820367076, 0.0, -8760.006279946123, -24100.25436881237, -7387.7209291125455, -7096.544754093261, -7086.173544665998, 0.044, 1.032, 0.18, 192.0, 0.0, 0.0, 0.0, 0.0, 0.0, 0.0, 0.0, 0.0, 0.0, 1.730746484755792E9, 0.0, 2024-11-04 15:54:44.755
83.0, -8241.110532416169, -8286.216352726979, 0.0, -8787.633036092882, -24059.48478692589, -7424.958935375087, -7129.312411464741, -7070.706137502925, 0.044, 1.032, 0.18, 192.0, 0.0, 0.0, 0.0, 0.0, 0.0, 0.0, 0.0, 0.0, 0.0, 1.7307464847597988E9, 0.0, 2024-11-04 15:54:44.759
84.0, -8174.032947305793, -8221.373942062133, 0.0, -8795.657312352338, -24109.507991016864, -7386.960969801065, -7094.30957964773, -7083.826611498191, 0.044, 1.032, 0.18, 192.0, 0.0, 0.0, 0.0, 0.0, 0.0, 0.0, 0.0, 0.0, 0.0, 1.730746484763851E9, 0.0, 2024-11-04 15:54:44.763
85.0, -8135.722057309396, -8182.19133403198, 0.0, -8753.814846732002, -24174.059829003792, -7338.50238782196, -7051.058954126711, -7086.508820832828, 0.044, 1.032, 0.18, 192.0, 0.0, 0.0, 0.0, 0.0, 0.0, 0.0, 0.0, 0.0, 0.0, 1.7307464847688384E9, 0.0, 2024-11-04 15:54:44.768
86.0, -8169.517894925821, -8214.824880936729, 0.0, -8729.384390042353, -24160.78289279734, -7350.5052745944595, -7060.737259475859, -7062.570102521194, 0.044, 1.032, 0.18, 192.0, 0.0, 0.0, 0.0, 0.0, 0.0, 0.0, 0.0, 0.0, 0.0, 1.7307464847729108E9, 0.0, 2024-11-04 15:54:44.772
87.0, -8210.689808212497, -8255.907387245583, 0.0, -8749.769180985591, -24112.190200351502, -7391.878353581233, -7096.321236648708, -7040.620689466083, 0.044, 1.032, 0.18, 192.0, 0.0, 0.0, 0.0, 0.0, 0.0, 0.0, 0.0, 0.0, 0.0, 1.7307464847759955E9, 0.0, 2024-11-04 15:54:44.775
88.0, -8158.118505253614, -8204.833651165205, 0.0, -8769.014032961612, -24147.64006705762, -7370.063050992853, -7076.137611405566, -7051.573044249183, 0.024, 0.98, 0.16, 192.0, 0.0, 192.0, 30.0, 160.0, 5.0, 0.0, 0.0, 0.0, 0.0, 1.7307464847798312E9, 0.0, 2024-11-04 15:54:44.779
89.0, -8104.161394138503, -8150.250691205346, 0.0, -8730.501977265118, -24219.120945825693, -7312.283791575885, -7024.281564269253, -7057.16098036301, 0.024, 0.98, 0.16, 192.0, 0.0, 0.0, 0.0, 0.0, 0.0, 0.0, 0.0, 0.0, 0.0, 1.7307464847839425E9, 0.0, 2024-11-04 15:54:44.783
90.0, -8127.407208372022, -8171.931883326994, 0.0, -8698.807203627492, -24221.289065037858, -7313.960172410032, -7023.253384024309, -7036.48561674185, 0.024, 0.98, 0.16, 192.0, 0.0, 0.0, 0.0, 0.0, 0.0, 0.0, 0.0, 0.0, 0.0, 1.7307464847881787E9, 0.0, 2024-11-04 15:54:44.788
91.0, -8176.8045636182505, -8220.032837394814, 0.0, -8711.905325878302, -24173.54573888132, -7352.606338573259, -7059.910244931012, -7011.898697841013, 0.024, 0.98, 0.16, 192.0, 0.0, 0.0, 0.0, 0.0, 0.0, 0.0, 0.0, 0.0, 0.0, 1.730746484792069E9, 0.0, 2024-11-04 15:54:44.792
92.0, -8140.862958534117, -8185.342930000178, 0.0, -8737.29690757953, -24190.756582111906, -7346.079629192309, -7052.891797172046, -7017.419578721474, 0.024, 0.98, 0.16, 192.0, 0.0, 0.0, 0.0, 0.0, 0.0, 0.0, 0.0, 0.0, 0.0, 1.7307464847968788E9, 0.0, 2024-11-04 15:54:44.796
93.0, -8077.674576958964, -8122.109844936114, 0.0, -8707.479680476152, -24265.769036503916, -7286.44517498555, -7001.549840158205, -7028.796616649225, 0.024, 0.98, 0.16, 192.0, 0.0, 0.0, 0.0, 0.0, 0.0, 0.0, 0.0, 0.0, 0.0, 1.7307464847998984E9, 0.0, 2024-11-04 15:54:44.799
94.0, -8089.409242798, -8132.346943896645, 0.0, -8670.845171313902, -24280.05180121086, -7277.6609394146135, -6991.491555153318, -7012.368084474574, 0.024, 0.98, 0.16, 192.0, 0.0, 0.0, 0.0, 0.0, 0.0, 0.0, 0.0, 0.0, 0.0, 1.7307464848040235E9, 0.0, 2024-11-04 15:54:44.804
95.0, -8142.740505068363, -8184.985302088893, 0.0, -8677.52834290604, -24236.28708556737, -7314.966000910521, -7026.24851778132, -6986.2835986952305, 0.024, 0.98, 0.16, 192.0, 0.0, 0.0, 0.0, 0.0, 0.0, 0.0, 0.0, 0.0, 0.0, 1.7307464848078177E9, 0.0, 2024-11-04 15:54:44.807
96.0, -8126.870766505095, -8170.255502492846, 0.0, -8707.77025315407, -24234.923629155594, -7323.772588225912, -7033.624593451571, -6986.060081250678, 0.024, 0.98, 0.16, 192.0, 0.0, 0.0, 0.0, 0.0, 0.0, 0.0, 0.0, 0.0, 0.0, 1.730746484811931E9, 0.0, 2024-11-04 15:54:44.811
97.0, -8058.943815105416, -8103.155565638014, 0.0, -8688.301883733498, -24307.298577701877, -7268.586131165759, -6983.936665527423, -6999.806404090692, 0.024, 0.98, 0.16, 192.0, 0.0, 0.0, 0.0, 0.0, 0.0, 0.0, 0.0, 0.0, 0.0, 1.7307464848168373E9, 0.0, 2024-11-04 15:54:44.816
98.0, -8056.775695893252, -8099.512231291799, 0.0, -8646.794694279992, -24333.316008247853, -7246.502607643915, -6961.361403627563, -6985.52363938375, 0.006, 0.974, 0.13, 192.0, 0.0, 48.0, 30.0, 112.0, 4.0, 16.0, 0.0, 0.0, 0.0, 1.73074648481993E9, 0.0, 2024-11-04 15:54:44.819
99.0, -8109.503461063321, -8151.144760983559, 0.0, -8647.040563469001, -24295.76507756294, -7283.226523783985, -6992.09505225361, -6961.696679794393, 0.006, 0.974, 0.13, 192.0, 0.0, 0.0, 0.0, 0.0, 0.0, 0.0, 0.0, 0.0, 0.0, 1.730746484824908E9, 0.0, 2024-11-04 15:54:44.824
100.0, -8116.0525221887265, -8159.481961665388, 0.0, -8680.344662707408, -24276.52022558692, -7307.455814773538, -7013.686837397438, -6957.248682647787, 0.006, 0.974, 0.13, 192.0, 0.0, 0.0, 0.0, 0.0, 0.0, 0.0, 0.0, 0.0, 0.0, 1.7307464848279004E9, 0.0, 2024-11-04 15:54:44.827
101.0, -8049.556082434187, -8094.416033555989, 0.0, -8674.823781826948, -24340.28975251791, -7258.617253138692, -6971.173819443443, -6972.827848533136, 0.006, 0.974, 0.13, 192.0, 0.0, 0.0, 0.0, 0.0, 0.0, 0.0, 0.0, 0.0, 0.0, 1.730746484831944E9, 0.0, 2024-11-04 15:54:44.831
102.0, -8036.234442738824, -8080.759117693797, 0.0, -8633.629516795816, -24374.510273278986, -7230.05172372481, -6942.988269685301, -6964.401240873485, 0.006, 0.974, 0.13, 192.0, 0.0, 0.0, 0.0, 0.0, 0.0, 0.0, 0.0, 0.0, 0.0, 1.7307464848359888E9, 0.0, 2024-11-04 15:54:44.835
103.0, -8083.374271795067, -8126.624897316086, 0.0, -8624.845281224882, -24336.735825149517, -7259.891302572644, -6967.128153697033, -6939.546101039184, 0.006, 0.974, 0.13, 192.0, 0.0, 0.0, 0.0, 0.0, 0.0, 0.0, 0.0, 0.0, 0.0, 1.7307464848398912E9, 0.0, 2024-11-04 15:54:44.839
104.0, -8109.861088974606, -8154.005784273838, 0.0, -8657.545883362995, -24294.647490340172, -7295.743500678957, -6999.538183157228, -6928.3478770670745, 0.006, 0.974, 0.13, 192.0, 0.0, 0.0, 0.0, 0.0, 0.0, 0.0, 0.0, 0.0, 0.0, 1.7307464848438957E9, 0.0, 2024-11-04 15:54:44.843
105.0, -8050.964242334872, -8096.785318468252, 0.0, -8667.872389301347, -24342.77079615245, -7262.729974118469, -6969.028051975733, -6946.721011009337, 0.006, 0.974, 0.13, 192.0, 0.0, 0.0, 0.0, 0.0, 0.0, 0.0, 0.0, 0.0, 0.0, 1.730746484848036E9, 0.0, 2024-11-04 15:54:44.848
106.0, -8030.1771199914365, -8074.83590541314, 0.0, -8633.070723184434, -24383.719191994573, -7226.989534734433, -6938.763789983248, -6947.548025554183, 0.006, 0.974, 0.13, 192.0, 0.0, 0.0, 0.0, 0.0, 0.0, 0.0, 0.0, 0.0, 0.0, 1.730746484853116E9, 0.0, 2024-11-04 15:54:44.853
107.0, -8075.618216469075, -8118.578269312176, 0.0, -8621.51487130104, -24350.1468718227, -7250.391811179139, -6960.936720482912, -6927.722028222326, 0.006, 0.974, 0.13, 192.0, 0.0, 0.0, 0.0, 0.0, 0.0, 0.0, 0.0, 0.0, 0.0, 1.7307464848560083E9, 0.0, 2024-11-04 15:54:44.856
108.0, -8120.209946657414, -8163.348813456156, 0.0, -8653.723735061138, -24293.41814439513, -7297.352826279739, -7002.265095980775, -6915.875603661014, 0.008, 0.968, 0.11, 192.0, 0.0, 64.0, 30.0, 64.0, 3.0, 112.0, 0.0, 0.0, 0.0, 1.7307464848600392E9, 0.0, 2024-11-04 15:54:44.860
109.0, -8071.1478675780145, -8115.918411721995, 0.0, -8674.779078338037, -24318.04976678488, -7276.63275916967, -6984.160182971977, -6932.661763746949, 0.008, 0.968, 0.11, 192.0, 0.0, 0.0, 0.0, 0.0, 0.0, 0.0, 0.0, 0.0, 0.0, 1.7307464848640137E9, 0.0, 2024-11-04 15:54:44.864
110.0, -8038.0449340397045, -8081.876704916562, 0.0, -8644.51481634555, -24361.412151028177, -7235.9078807721, -6948.352688354575, -6940.75309523977, 0.008, 0.968, 0.11, 192.0, 0.0, 0.0, 0.0, 0.0, 0.0, 0.0, 0.0, 0.0, 0.0, 1.7307464848680818E9, 0.0, 2024-11-04 15:54:44.868
111.0, -8078.8368676706405, -8121.193423413447, 0.0, -8629.695609771683, -24335.10414780428, -7255.376250192672, -6964.334185640119, -6927.073827633122, 0.008, 0.968, 0.11, 192.0, 0.0, 0.0, 0.0, 0.0, 0.0, 0.0, 0.0, 0.0, 0.0, 1.7307464848740196E9, 0.0, 2024-11-04 15:54:44.874
112.0, -8132.771627041296, -8174.837610106184, 0.0, -8655.645985084295, -24265.70198127055, -7304.550087994348, -7007.607162905594, -6911.069978603123, 0.008, 0.968, 0.11, 192.0, 0.0, 0.0, 0.0, 0.0, 0.0, 0.0, 0.0, 0.0, 0.0, 1.730746484878029E9, 0.0, 2024-11-04 15:54:44.878
113.0, -8100.629818514564, -8144.1710167135025, 0.0, -8688.994787811613, -24271.42402785111, -7300.325608292295, -7004.902601826501, -6927.833786944603, 0.008, 0.968, 0.11, 192.0, 0.0, 0.0, 0.0, 0.0, 0.0, 0.0, 0.0, 0.0, 0.0, 1.730746484881075E9, 0.0, 2024-11-04 15:54:44.881
114.0, -8060.374326750556, -8103.088510404648, 0.0, -8668.989976524112, -24321.357824964267, -7258.326680460773, -6969.966825242856, -6946.51984530924, 0.008, 0.968, 0.11, 192.0, 0.0, 0.0, 0.0, 0.0, 0.0, 0.0, 0.0, 0.0, 0.0, 1.7307464848861127E9, 0.0, 2024-11-04 15:54:44.886
115.0, -8091.912638176995, -8134.850339275639, 0.0, -8649.85688327037, -24306.3374526903, -7267.960282321011, -6976.717052068359, -6938.719086494338, 0.008, 0.968, 0.11, 192.0, 0.0, 0.0, 0.0, 0.0, 0.0, 0.0, 0.0, 0.0, 0.0, 1.7307464848900251E9, 0.0, 2024-11-04 15:54:44.890
116.0, -8155.525702896799, -8197.85990689515, 0.0, -8672.834476570426, -24237.047044878847, -7321.6268207582025, -7024.192157291432, -6925.218632843332, 0.008, 0.968, 0.11, 192.0, 0.0, 0.0, 0.0, 0.0, 0.0, 0.0, 0.0, 0.0, 0.0, 1.7307464848930614E9, 0.0, 2024-11-04 15:54:44.893
117.0, -8143.0534294907375, -8186.907552112049, 0.0, -8714.609886957394, -24223.054852849826, -7335.954288954054, -7038.161997575999, -6940.417819072941, 0.008, 0.968, 0.11, 192.0, 0.0, 0.0, 0.0, 0.0, 0.0, 0.0, 0.0, 0.0, 0.0, 1.7307464848961487E9, 0.0, 2024-11-04 15:54:44.896
118.0, -8086.0564811297045, -8130.916432251505, 0.0, -8702.450537973707, -24277.19077792058, -7287.719224419502, -6998.0182645342675, -6964.870627507046, -0.002, 0.988, 0.11, 192.0, 255.0, 240.0, 30.0, 224.0, 3.0, 112.0, 0.0, 0.0, 0.0, 1.730746484900237E9, 0.0, 2024-11-04 15:54:44.900
119.0, -8089.36453930909, -8134.224490430891, 0.0, -8670.576950380439, -24286.66791756963, -7274.688157402058, -6984.76368007227, -6962.836618761614, -0.002, 0.988, 0.11, 192.0, 0.0, 0.0, 0.0, 0.0, 0.0, 0.0, 0.0, 0.0, 0.0, 1.7307464849040453E9, 0.0, 2024-11-04 15:54:44.904
120.0, -8122.89215599205, -8167.305072224745, 0.0, -8672.633310870327, -24255.643696265663, -7301.174974581597, -7007.5848111611385, -6954.253548890776, -0.002, 0.988, 0.11, 192.0, 0.0, 0.0, 0.0, 0.0, 0.0, 0.0, 0.0, 0.0, 0.0, 1.7307464849080262E9, 0.0, 2024-11-04 15:54:44.908
121.0, -8113.862051232106, -8158.699650609452, 0.0, -8690.76057562358, -24251.553327030342, -7305.868840917211, -7012.278677496753, -6957.494551836795, -0.002, 0.988, 0.11, 192.0, 0.0, 0.0, 0.0, 0.0, 0.0, 0.0, 0.0, 0.0, 0.0, 1.730746484911104E9, 0.0, 2024-11-04 15:54:44.911
122.0, -8085.497687518322, -8130.849377018139, 0.0, -8682.177505752743, -24281.795237278373, -7279.8290586267785, -6988.965808029868, -6964.2671304067535, -0.002, 0.988, 0.11, 192.0, 0.0, 0.0, 0.0, 0.0, 0.0, 0.0, 0.0, 0.0, 0.0, 1.730746484915126E9, 0.0, 2024-11-04 15:54:44.915
123.0, -8110.486937819355, -8155.302185452246, 0.0, -8673.236807970621, -24268.31713537182, -7290.49084073196, -6997.347712200608, -6956.913406480958, -0.002, 0.988, 0.11, 192.0, 0.0, 0.0, 0.0, 0.0, 0.0, 0.0, 0.0, 0.0, 0.0, 1.7307464849201493E9, 0.0, 2024-11-04 15:54:44.920
124.0, -8144.953327769438, -8189.723871913418, 0.0, -8686.938427321724, -24229.55921048632, -7321.02332365791, -7025.421503236474, -6952.554816312172, -0.002, 0.988, 0.11, 192.0, 0.0, 0.0, 0.0, 0.0, 0.0, 0.0, 0.0, 0.0, 0.0, 1.730746484924058E9, 0.0, 2024-11-04 15:54:44.924
125.0, -8143.947499268949, -8190.237962035891, 0.0, -8708.999599099112, -24210.850800377226, -7334.0096871864425, -7036.932651630957, -6957.360441370063, -0.002, 0.988, 0.11, 192.0, 0.0, 0.0, 0.0, 0.0, 0.0, 0.0, 0.0, 0.0, 0.0, 1.7307464849281983E9, 0.0, 2024-11-04 15:54:44.928
126.0, -8110.375179097078, -8156.911511053027, 0.0, -8708.396101998818, -24240.04217863586, -7308.4169397851165, -7014.737369386837, -6971.106764210077, -0.002, 0.988, 0.11, 192.0, 0.0, 0.0, 0.0, 0.0, 0.0, 0.0, 0.0, 0.0, 0.0, 1.73074648493232E9, 0.0, 2024-11-04 15:54:44.932
127.0, -8124.233260659369, -8169.942578070471, 0.0, -8693.286322747032, -24231.459108765022, -7308.573401996304, -7014.066817053177, -6965.943511240901, -0.002, 0.988, 0.11, 192.0, 0.0, 0.0, 0.0, 0.0, 0.0, 0.0, 0.0, 0.0, 0.0, 1.7307464849362302E9, 0.0, 2024-11-04 15:54:44.936
128.0, -8157.537359897776, -8203.134918586602, 0.0, -8702.808165884991, -24192.74588736843, -7336.311916865339, -7039.592509221138, -6961.987252472312, -0.016, 0.972, 0.122, 192.0, 255.0, 128.0, 30.0, 96.0, 3.0, 208.0, 0.0, 0.0, 0.0, 1.7307464849391854E9, 0.0, 2024-11-04 15:54:44.939
129.0, -8172.557732171743, -8218.334104816211, 0.0, -8728.289154564041, -24167.734285322942, -7358.820123531834, -7061.676032742982, -6969.765659542759, -0.016, 0.972, 0.122, 192.0, 0.0, 0.0, 0.0, 0.0, 0.0, 0.0, 0.0, 0.0, 0.0, 1.730746484943169E9, 0.0, 2024-11-04 15:54:44.943
130.0, -8139.320688166701, -8185.387633489089, 0.0, -8734.592346500438, -24192.947053068525, -7337.742428510479, -7043.526416245272, -6986.976502773346, -0.016, 0.972, 0.122, 192.0, 0.0, 0.0, 0.0, 0.0, 0.0, 0.0, 0.0, 0.0, 0.0, 1.7307464849481692E9, 0.0, 2024-11-04 15:54:44.948
131.0, -8147.412019659522, -8192.629598692609, 0.0, -8720.689561449237, -24194.869303091684, -7332.959155197043, -7039.212529565398, -6988.652883607493, -0.016, 0.972, 0.122, 192.0, 0.0, 0.0, 0.0, 0.0, 0.0, 0.0, 0.0, 0.0, 0.0, 1.7307464849521208E9, 0.0, 2024-11-04 15:54:44.952
132.0, -8183.152459043558, -8227.453616553978, 0.0, -8729.160872597799, -24159.26297417438, -7361.055297977365, -7065.140553133554, -6986.95415102889, -0.016, 0.972, 0.122, 192.0, 0.0, 0.0, 0.0, 0.0, 0.0, 0.0, 0.0, 0.0, 0.0, 1.7307464849560199E9, 0.0, 2024-11-04 15:54:44.956
133.0, -8204.788947676296, -8249.514788331364, 0.0, -8752.496093809139, -24125.131860391124, -7388.302074468384, -7090.330969134685, -6991.938590042423, -0.016, 0.972, 0.122, 192.0, 0.0, 0.0, 0.0, 0.0, 0.0, 0.0, 0.0, 0.0, 0.0, 1.7307464849599984E9, 0.0, 2024-11-04 15:54:44.959
134.0, -8175.083479295192, -8220.77044496184, 0.0, -8766.39887886034, -24144.35436062269, -7373.035833005409, -7078.059861428722, -7010.758758873792, -0.016, 0.972, 0.122, 192.0, 0.0, 0.0, 0.0, 0.0, 0.0, 0.0, 0.0, 0.0, 0.0, 1.7307464849642696E9, 0.0, 2024-11-04 15:54:44.964
135.0, -8170.479019937399, -8215.204860592468, 0.0, -8749.053925163022, -24152.602154326698, -7356.227321175018, -7064.425297310984, -7013.15039553051, -0.016, 0.972, 0.122, 192.0, 0.0, 0.0, 0.0, 0.0, 0.0, 0.0, 0.0, 0.0, 0.0, 1.730746484967162E9, 0.0, 2024-11-04 15:54:44.967
136.0, -8202.464366252943, -8246.430247596532, 0.0, -8751.356154841918, -24119.655682999575, -7381.238923220507, -7086.039434199266, -7010.088206540133, -0.016, 0.972, 0.122, 192.0, 0.0, 0.0, 0.0, 0.0, 0.0, 0.0, 0.0, 0.0, 0.0, 1.7307464849711907E9, 0.0, 2024-11-04 15:54:44.971
137.0, -8231.745151489396, -8275.889846788627, 0.0, -8774.266692908608, -24083.982298848903, -7411.950220102099, -7115.968420024922, -7015.4526252094065, -0.016, 0.972, 0.122, 192.0, 0.0, 0.0, 0.0, 0.0, 0.0, 0.0, 0.0, 0.0, 0.0, 1.730746484976107E9, 0.0, 2024-11-04 15:54:44.976
138.0, -8208.119357600137, -8253.135770933124, 0.0, -8793.668007095815, -24096.119296088138, -7405.691731654612, -7110.201669955453, -7034.339849274141, -0.028, 0.994, 0.13, 192.0, 255.0, 32.0, 31.0, 16.0, 4.0, 16.0, 0.0, 0.0, 0.0, 1.7307464849801095E9, 0.0, 2024-11-04 15:54:44.980
139.0, -8193.2330957929, -8237.53425330332, 0.0, -8778.580579588483, -24115.38649980861, -7383.4964494104925, -7090.666245301515, -7041.246538310831, -0.028, 0.994, 0.13, 192.0, 0.0, 0.0, 0.0, 0.0, 0.0, 0.0, 0.0, 0.0, 0.0, 1.7307464849840329E9, 0.0, 2024-11-04 15:54:44.984
140.0, -8220.837500195206, -8264.423401883054, 0.0, -8774.177285930788, -24087.983261106405, -7400.483775196526, -7105.485451875384, -7035.256270796808, -0.028, 0.994, 0.13, 192.0, 0.0, 0.0, 0.0, 0.0, 0.0, 0.0, 0.0, 0.0, 0.0, 1.730746484988255E9, 0.0, 2024-11-04 15:54:44.988
141.0, -8249.648898798097, -8293.234800485945, 0.0, -8790.203486705243, -24049.493557154365, -7428.08817959883, -7132.307545221752, -7036.105637086111, -0.028, 0.994, 0.13, 192.0, 0.0, 0.0, 0.0, 0.0, 0.0, 0.0, 0.0, 0.0, 0.0, 1.7307464849911892E9, 0.0, 2024-11-04 15:54:44.991
142.0, -8231.409875322566, -8276.515695633376, 0.0, -8810.342408459474, -24052.488690911377, -7427.015295864975, -7131.882862077101, -7050.6119192376045, -0.028, 0.994, 0.13, 192.0, 0.0, 0.0, 0.0, 0.0, 0.0, 0.0, 0.0, 0.0, 0.0, 1.7307464849952033E9, 0.0, 2024-11-04 15:54:44.995
143.0, -8206.10770059916, -8251.30292788779, 0.0, -8798.764204831625, -24083.5352639598, -7401.266086252462, -7108.055902487744, -7062.860675199113, -0.028, 0.994, 0.13, 192.0, 0.0, 0.0, 0.0, 0.0, 0.0, 0.0, 0.0, 0.0, 0.0, 1.730746484999436E9, 0.0, 2024-11-04 15:54:44.999
144.0, -8230.381695077622, -8275.06283224378, 0.0, -8790.829335549992, -24069.18544401949, -7414.386560247727, -7118.181242725997, -7059.865541442102, -0.028, 0.994, 0.13, 192.0, 0.0, 0.0, 0.0, 0.0, 0.0, 0.0, 0.0, 0.0, 0.0, 1.7307464850032856E9, 0.0, 2024-11-04 15:54:45.003
145.0, -8261.025936725848, -8305.483556447454, 0.0, -8803.659236867337, -24033.60146684664, -7440.582804749347, -7144.17632152752, -7059.038526897255, -0.028, 0.994, 0.13, 192.0, 0.0, 0.0, 0.0, 0.0, 0.0, 0.0, 0.0, 0.0, 0.0, 1.7307464850081413E9, 0.0, 2024-11-04 15:54:45.008
146.0, -8254.499227344899, -8299.627399400164, 0.0, -8825.787463878092, -24028.28175166628, -7449.657612998201, -7152.066487320243, -7070.907303203024, -0.028, 0.994, 0.13, 192.0, 0.0, 0.0, 0.0, 0.0, 0.0, 0.0, 0.0, 0.0, 0.0, 1.730746485012338E9, 0.0, 2024-11-04 15:54:45.012
147.0, -8221.552756017776, -8267.150314706601, 0.0, -8819.014885308134, -24062.904603827552, -7421.539118473425, -7126.876071319112, -7084.743033020858, -0.028, 0.994, 0.13, 192.0, 0.0, 0.0, 0.0, 0.0, 0.0, 0.0, 0.0, 0.0, 0.0, 1.7307464850163343E9, 0.0, 2024-11-04 15:54:45.016
148.0, -8237.310735858768, -8282.662425358585, 0.0, -8804.150975245355, -24053.650981623054, -7424.176624319151, -7127.8595480751455, -7078.7304137623805, -0.032, 0.964, 0.136, 192.0, 255.0, 0.0, 30.0, 32.0, 4.0, 64.0, 0.0, 0.0, 0.0, 1.730746485019395E9, 0.0, 2024-11-04 15:54:45.019
149.0, -8269.184323452035, -8314.73717865195, 0.0, -8815.192737006277, -24020.503344595832, -7451.088124643341, -7153.4522954764725, -7077.031681183777, -0.032, 0.964, 0.136, 192.0, 0.0, 0.0, 0.0, 0.0, 0.0, 0.0, 0.0, 0.0, 0.0, 1.7307464850231657E9, 0.0, 2024-11-04 15:54:45.023
150.0, -8271.06186998628, -8317.50879496441, 0.0, -8835.733990160703, -24004.588902543655, -7464.923854461176, -7165.7234031824355, -7083.714852775915, -0.032, 0.964, 0.136, 192.0, 0.0, 0.0, 0.0, 0.0, 0.0, 0.0, 0.0, 0.0, 0.0, 1.7307464850273843E9, 0.0, 2024-11-04 15:54:45.027
151.0, -8233.19801487899, -8279.734346834939, 0.0, -8833.498815715173, -24039.010589004825, -7436.179511091651, -7139.84008310319, -7098.087024460677, -0.032, 0.964, 0.136, 192.0, 0.0, 0.0, 0.0, 0.0, 0.0, 0.0, 0.0, 0.0, 0.0, 1.7307464850314074E9, 0.0, 2024-11-04 15:54:45.031
152.0, -8239.545910304298, -8285.366986437677, 0.0, -8813.561059661039, -24038.451795393445, -7429.071656354864, -7131.771103354825, -7091.73912903537, -0.032, 0.964, 0.136, 192.0, 0.0, 0.0, 0.0, 0.0, 0.0, 0.0, 0.0, 0.0, 0.0, 1.7307464850363083E9, 0.0, 2024-11-04 15:54:45.036
153.0, -8269.631358341141, -8314.915992607594, 0.0, -8818.74666437467, -24004.387736843557, -7452.42922931066, -7154.033440832311, -7085.748861521347, -0.032, 0.964, 0.136, 192.0, 0.0, 0.0, 0.0, 0.0, 0.0, 0.0, 0.0, 0.0, 0.0, 1.7307464850403855E9, 0.0, 2024-11-04 15:54:45.040
154.0, -8284.003530025904, -8329.355219525722, 0.0, -8839.98082160721, -23978.862044675596, -7473.059889442908, -7174.708804453469, -7089.839230756668, -0.032, 0.964, 0.136, 192.0, 0.0, 0.0, 0.0, 0.0, 0.0, 0.0, 0.0, 0.0, 0.0, 1.7307464850432715E9, 0.0, 2024-11-04 15:54:45.043
155.0, -8247.145503419102, -8293.324207463767, 0.0, -8844.205301309265, -24004.41008858801, -7449.232929853551, -7153.65346117657, -7103.920829763512, -0.032, 0.964, 0.136, 192.0, 0.0, 0.0, 0.0, 0.0, 0.0, 0.0, 0.0, 0.0, 0.0, 1.7307464850473812E9, 0.0, 2024-11-04 15:54:45.047
156.0, -8250.811189509772, -8296.2075824985, 0.0, -8827.55325169006, -24012.32260612519, -7439.599327993314, -7142.075257548721, -7104.077291974699, -0.032, 0.964, 0.136, 192.0, 0.0, 0.0, 0.0, 0.0, 0.0, 0.0, 0.0, 0.0, 0.0, 1.7307464850511584E9, 0.0, 2024-11-04 15:54:45.051
157.0, -8288.138602750136, -8332.328001538277, 0.0, -8835.689286671792, -23980.73959120984, -7467.673119029179, -7166.6621764495585, -7101.216268684419, -0.032, 0.964, 0.136, 192.0, 0.0, 0.0, 0.0, 0.0, 0.0, 0.0, 0.0, 0.0, 0.0, 1.7307464850551572E9, 0.0, 2024-11-04 15:54:45.055
158.0, -8311.987914083948, -8356.534940783375, 0.0, -8857.75045844918, -23943.92626809195, -7495.746910065045, -7192.500793039893, -7103.227925685397, -0.036000000000000004, 0.976, 0.156, 192.0, 254.0, 224.0, 30.0, 128.0, 4.0, 224.0, 0.0, 0.0, 0.0, 1.7307464850591435E9, 0.0, 2024-11-04 15:54:45.059
159.0, -8283.020053269871, -8328.818777658795, 0.0, -8872.860237700968, -23959.661896188485, -7483.520505847991, -7182.151935357087, -7120.483472404894, -0.036000000000000004, 0.976, 0.156, 192.0, 0.0, 0.0, 0.0, 0.0, 0.0, 0.0, 0.0, 0.0, 0.0, 1.730746485065263E9, 0.0, 2024-11-04 15:54:45.065
160.0, -8277.454468900498, -8323.02967584487, 0.0, -8858.42101078284, -23972.17887308346, -7467.986043451553, -7168.56207472826, -7125.914946307534, -0.036000000000000004, 0.976, 0.156, 192.0, 0.0, 0.0, 0.0, 0.0, 0.0, 0.0, 0.0, 0.0, 0.0, 1.7307464850682623E9, 0.0, 2024-11-04 15:54:45.068
161.0, -8308.299876248822, -8353.36099307072, 0.0, -8857.571644493539, -23933.48800343132, -7488.9743314950865, -7186.488173781416, -7118.158890981543, -0.036000000000000004, 0.976, 0.156, 192.0, 0.0, 0.0, 0.0, 0.0, 0.0, 0.0, 0.0, 0.0, 0.0, 1.7307464850722723E9, 0.0, 2024-11-04 15:54:45.072
162.0, -8342.185120843067, -8386.955664987048, 0.0, -8881.040976171611, -23889.745639532288, -7521.9655063111195, -7218.629982308148, -7121.891632305579, -0.036000000000000004, 0.976, 0.156, 192.0, 0.0, 0.0, 0.0, 0.0, 0.0, 0.0, 0.0, 0.0, 0.0, 1.730746485075338E9, 0.0, 2024-11-04 15:54:45.075
163.0, -8326.069513090792, -8371.823533990804, 0.0, -8905.806709028091, -23893.05369771167, -7522.971334811608, -7220.798101520312, -7141.5388156817935, -0.036000000000000004, 0.976, 0.156, 192.0, 0.0, 0.0, 0.0, 0.0, 0.0, 0.0, 0.0, 0.0, 0.0, 1.7307464850793335E9, 0.0, 2024-11-04 15:54:45.079
164.0, -8313.239611773446, -8358.79246697336, 0.0, -8896.910714734879, -23910.622168853544, -7504.464090402615, -7205.7553775018905, -7153.832275132213, -0.036000000000000004, 0.976, 0.156, 192.0, 0.0, 0.0, 0.0, 0.0, 0.0, 0.0, 0.0, 0.0, 0.0, 1.7307464850832708E9, 0.0, 2024-11-04 15:54:45.083
165.0, -8345.56023425582, -8390.621351077718, 0.0, -8896.307217634585, -23878.100380671072, -7525.25121274605, -7223.972049232966, -7151.306528008763, -0.036000000000000004, 0.976, 0.156, 192.0, 0.0, 0.0, 0.0, 0.0, 0.0, 0.0, 0.0, 0.0, 0.0, 1.7307464850871754E9, 0.0, 2024-11-04 15:54:45.087
166.0, -8379.84781025026, -8425.400665450175, 0.0, -8916.356732410995, -23828.7253771693, -7558.085925350896, -7255.443305426038, -7152.982908842911, -0.036000000000000004, 0.976, 0.156, 192.0, 0.0, 0.0, 0.0, 0.0, 0.0, 0.0, 0.0, 0.0, 0.0, 1.7307464850922277E9, 0.0, 2024-11-04 15:54:45.092
167.0, -8371.488257823976, -8418.248107224477, 0.0, -8943.648212390926, -23819.6729206649, -7566.199608588173, -7264.071078785787, -7170.573731729238, -0.036000000000000004, 0.976, 0.156, 192.0, 0.0, 0.0, 0.0, 0.0, 0.0, 0.0, 0.0, 0.0, 0.0, 1.7307464850964613E9, 0.0, 2024-11-04 15:54:45.096
168.0, -8347.147208112146, -8393.392967390177, 0.0, -8936.853282076512, -23843.186955831883, -7541.7468001540665, -7242.903976786612, -7186.219952847952, -0.054, 0.976, 0.17400000000000002, 192.0, 254.0, 80.0, 30.0, 128.0, 5.0, 112.0, 0.0, 0.0, 0.0, 1.7307464850991883E9, 0.0, 2024-11-04 15:54:45.099
169.0, -8371.890589224171, -8417.085816512801, 0.0, -8928.67254360587, -23820.634045676477, -7553.414410759737, -7252.336412946751, -7184.051833635787, -0.054, 0.976, 0.17400000000000002, 192.0, 0.0, 0.0, 0.0, 0.0, 0.0, 0.0, 0.0, 0.0, 0.0, 1.7307464851032636E9, 0.0, 2024-11-04 15:54:45.103
170.0, -8406.42403440762, -8451.731020418527, 0.0, -8944.542282169137, -23776.64581258843, -7583.477507052125, -7281.639549927659, -7185.348234814195, -0.054, 0.976, 0.17400000000000002, 192.0, 0.0, 0.0, 0.0, 0.0, 0.0, 0.0, 0.0, 0.0, 0.0, 1.730746485107351E9, 0.0, 2024-11-04 15:54:45.107
171.0, -8407.42986290811, -8453.854436141783, 0.0, -8971.476134237782, -23761.156053680905, -7599.280190382027, -7295.922314634599, -7200.4133105770725, -0.054, 0.976, 0.17400000000000002, 192.0, 0.0, 0.0, 0.0, 0.0, 0.0, 0.0, 0.0, 0.0, 0.0, 1.7307464851112916E9, 0.0, 2024-11-04 15:54:45.111
172.0, -8374.170467158612, -8420.505633414465, 0.0, -8967.653985935925, -23787.933443538364, -7572.0334138910075, -7272.207113767518, -7217.244174151919, -0.054, 0.976, 0.17400000000000002, 192.0, 0.0, 0.0, 0.0, 0.0, 0.0, 0.0, 0.0, 0.0, 0.0, 1.7307464851154203E9, 0.0, 2024-11-04 15:54:45.115
173.0, -8393.32591215681, -8438.610546423262, 0.0, -8955.338174741051, -23775.751742810222, -7576.056727892963, -7276.029262069376, -7215.724255528958, -0.054, 0.976, 0.17400000000000002, 192.0, 0.0, 0.0, 0.0, 0.0, 0.0, 0.0, 0.0, 0.0, 0.0, 1.7307464851203473E9, 0.0, 2024-11-04 15:54:45.120
174.0, -8426.115921272745, -8471.221741583555, 0.0, -8965.575273701581, -23731.22706785525, -7604.644609051301, -7302.180803082086, -7212.930287472044, -0.054, 0.976, 0.17400000000000002, 192.0, 0.0, 0.0, 0.0, 0.0, 0.0, 0.0, 0.0, 0.0, 0.0, 1.7307464851244116E9, 0.0, 2024-11-04 15:54:45.124
175.0, -8438.275270256432, -8483.96223592308, 0.0, -8991.905628669934, -23704.4943814867, -7625.901118028298, -7322.3867800696835, -7222.876813754656, -0.054, 0.976, 0.17400000000000002, 192.0, 0.0, 0.0, 0.0, 0.0, 0.0, 0.0, 0.0, 0.0, 0.0, 1.7307464851273108E9, 0.0, 2024-11-04 15:54:45.127
176.0, -8407.51926988593, -8453.653270441684, 0.0, -8999.549925273648, -23734.11044288998, -7605.896306740798, -7306.047654872854, -7245.630889610159, -0.054, 0.976, 0.17400000000000002, 192.0, 0.0, 0.0, 0.0, 0.0, 0.0, 0.0, 0.0, 0.0, 0.0, 1.7307464851313677E9, 0.0, 2024-11-04 15:54:45.131
177.0, -8419.835081080804, -8465.47734325854, 0.0, -8987.34587280105, -23734.468070801267, -7604.532850329024, -7304.4830327609825, -7249.274223956374, -0.054, 0.976, 0.17400000000000002, 192.0, 0.0, 0.0, 0.0, 0.0, 0.0, 0.0, 0.0, 0.0, 0.0, 1.7307464851363933E9, 0.0, 2024-11-04 15:54:45.136
178.0, -8453.116828574757, -8498.58027679685, 0.0, -8995.034872893677, -23693.63143368142, -7631.623164608856, -7328.600565028259, -7246.279090199362, -0.052000000000000005, 0.966, 0.188, 192.0, 254.0, 96.0, 30.0, 48.0, 5.0, 224.0, 0.0, 0.0, 0.0, 1.7307464851403458E9, 0.0, 2024-11-04 15:54:45.140
179.0, -8470.618244483263, -8516.394617127731, 0.0, -9017.520727815716, -23657.332200686003, -7655.5618829204905, -7351.175826928119, -7251.151770490619, -0.052000000000000005, 0.966, 0.188, 192.0, 0.0, 0.0, 0.0, 0.0, 0.0, 0.0, 0.0, 0.0, 0.0, 1.7307464851433516E9, 0.0, 2024-11-04 15:54:45.143
180.0, -8434.85545335477, -8481.235323099532, 0.0, -9025.276783141708, -23675.995907306184, -7634.551243132501, -7333.40619008615, -7268.139096276653, -0.052000000000000005, 0.966, 0.188, 192.0, 0.0, 0.0, 0.0, 0.0, 0.0, 0.0, 0.0, 0.0, 0.0, 1.7307464851486132E9, 0.0, 2024-11-04 15:54:45.148
181.0, -8434.229604510023, -8480.005977154491, 0.0, -9009.138823644975, -23684.936605088307, -7621.944859259708, -7322.8561667032445, -7272.452982956527, -0.052000000000000005, 0.966, 0.188, 192.0, 0.0, 0.0, 0.0, 0.0, 0.0, 0.0, 0.0, 0.0, 0.0, 1.730746485151316E9, 0.0, 2024-11-04 15:54:45.151
182.0, -8469.210084582577, -8514.382960126753, 0.0, -9015.039684181176, -23652.34776167247, -7648.074048527962, -7346.906643737155, -7271.402450967128, -0.052000000000000005, 0.966, 0.188, 192.0, 0.0, 0.0, 0.0, 0.0, 0.0, 0.0, 0.0, 0.0, 0.0, 1.7307464851564217E9, 0.0, 2024-11-04 15:54:45.156
183.0, -8493.640541272229, -8538.992230772046, 0.0, -9035.402123379961, -23613.366319342414, -7674.203237796216, -7372.6335016052135, -7274.732860890968, -0.052000000000000005, 0.966, 0.188, 192.0, 0.0, 0.0, 0.0, 0.0, 0.0, 0.0, 0.0, 0.0, 0.0, 1.7307464851594853E9, 0.0, 2024-11-04 15:54:45.159
184.0, -8462.571616479352, -8509.197355413122, 0.0, -9049.014335753243, -23626.084461937484, -7661.328632989959, -7360.69767006608, -7291.519020976904, -0.052000000000000005, 0.966, 0.188, 192.0, 0.0, 0.0, 0.0, 0.0, 0.0, 0.0, 0.0, 0.0, 0.0, 1.7307464851634512E9, 0.0, 2024-11-04 15:54:45.163
185.0, -8450.38991575121, -8496.076881417857, 0.0, -9032.78696927869, -23646.581011603, -7640.116827501873, -7343.419771602127, -7299.275076302895, -0.052000000000000005, 0.966, 0.188, 192.0, 0.0, 0.0, 0.0, 0.0, 0.0, 0.0, 0.0, 0.0, 0.0, 1.7307464851673791E9, 0.0, 2024-11-04 15:54:45.167
186.0, -8479.402480054197, -8524.374189898275, 0.0, -9030.440036110884, -23618.931903711786, -7659.473438200169, -7360.004765987965, -7294.827079156289, -0.052000000000000005, 0.966, 0.188, 192.0, 0.0, 0.0, 0.0, 0.0, 0.0, 0.0, 0.0, 0.0, 0.0, 1.7307464851713605E9, 0.0, 2024-11-04 15:54:45.171
187.0, -8509.39852111322, -8554.459637935119, 0.0, -9049.193149708886, -23581.24686256014, -7688.731871692165, -7386.8939145676995, -7296.972846623999, -0.052000000000000005, 0.966, 0.188, 192.0, 0.0, 0.0, 0.0, 0.0, 0.0, 0.0, 0.0, 0.0, 0.0, 1.7307464851755009E9, 0.0, 2024-11-04 15:54:45.175
188.0, -8487.449108058108, -8533.605460358318, 0.0, -9067.208655739863, -23585.918377151298, -7684.775612923577, -7382.8482488212885, -7311.233259586485, -0.062, 0.978, 0.202, 192.0, 254.0, 16.0, 30.0, 144.0, 6.0, 80.0, 0.0, 0.0, 0.0, 1.730746485179551E9, 0.0, 2024-11-04 15:54:45.179
189.0, -8460.939939134114, -8506.91747747868, 0.0, -9050.35544042056, -23611.086441407973, -7656.053621298507, -7356.987280486498, -7318.832852701289, -0.062, 0.978, 0.202, 192.0, 0.0, 0.0, 0.0, 0.0, 0.0, 0.0, 0.0, 0.0, 0.0, 1.7307464851824353E9, 0.0, 2024-11-04 15:54:45.182
190.0, -8485.280988845943, -8530.409160901208, 0.0, -9041.302983916163, -23588.712345208212, -7667.698880159722, -7366.5314753689145, -7310.987390397477, -0.062, 0.978, 0.202, 192.0, 0.0, 0.0, 0.0, 0.0, 0.0, 0.0, 0.0, 0.0, 0.0, 1.7307464851874092E9, 0.0, 2024-11-04 15:54:45.187
191.0, -8516.819300272382, -8561.388678716265, 0.0, -9056.345707934584, -23549.32857147796, -7695.727967706677, -7394.113528026764, -7308.998085140955, -0.062, 0.978, 0.202, 192.0, 0.0, 0.0, 0.0, 0.0, 0.0, 0.0, 0.0, 0.0, 0.0, 1.7307464851916008E9, 0.0, 2024-11-04 15:54:45.191
192.0, -8506.515146078485, -8552.090353022857, 0.0, -9076.931664577922, -23542.84656558592, -7699.974799153185, -7398.494469940004, -7319.615163757225, -0.062, 0.978, 0.202, 192.0, 0.0, 0.0, 0.0, 0.0, 0.0, 0.0, 0.0, 0.0, 0.0, 1.7307464851953883E9, 0.0, 2024-11-04 15:54:45.195
193.0, -8474.418041040664, -8520.484986363052, 0.0, -9067.298062717684, -23573.468455489692, -7671.096345316929, -7372.6335016052135, -7331.9533266965545, -0.062, 0.978, 0.202, 192.0, 0.0, 0.0, 0.0, 0.0, 0.0, 0.0, 0.0, 0.0, 0.0, 1.7307464851993942E9, 0.0, 2024-11-04 15:54:45.199
194.0, -8497.462689574086, -8542.613213373807, 0.0, -9057.619757368537, -23560.90677510581, -7679.791173910043, -7380.903647053677, -7328.578213283803, -0.062, 0.978, 0.202, 192.0, 0.0, 0.0, 0.0, 0.0, 0.0, 0.0, 0.0, 0.0, 0.0, 1.73074648520345E9, 0.0, 2024-11-04 15:54:45.203
195.0, -8533.493701636042, -8578.286597524477, 0.0, -9072.595426153592, -23523.04291999852, -7711.932982436774, -7411.816109635367, -7328.913489450632, -0.062, 0.978, 0.202, 192.0, 0.0, 0.0, 0.0, 0.0, 0.0, 0.0, 0.0, 0.0, 0.0, 1.7307464852075365E9, 0.0, 2024-11-04 15:54:45.207
196.0, -8536.73470458206, -8582.22050454861, 0.0, -9096.42238574295, -23504.468620356158, -7727.467444833213, -7424.064865596875, -7338.345925610773, -0.062, 0.978, 0.202, 192.0, 0.0, 0.0, 0.0, 0.0, 0.0, 0.0, 0.0, 0.0, 0.0, 1.7307464852105093E9, 0.0, 2024-11-04 15:54:45.210
197.0, -8503.654122788206, -8549.274033221487, 0.0, -9094.500135719793, -23533.36942593687, -7699.1701363527945, -7399.902629840688, -7352.539283339893, -0.062, 0.978, 0.202, 192.0, 0.0, 0.0, 0.0, 0.0, 0.0, 0.0, 0.0, 0.0, 0.0, 1.7307464852155805E9, 0.0, 2024-11-04 15:54:45.215
198.0, -8518.473329362074, -8563.64620490625, 0.0, -9080.50794369077, -23526.41803341127, -7699.974799153185, -7400.640237407713, -7349.521797838426, -0.054, 0.974, 0.212, 192.0, 254.0, 80.0, 30.0, 112.0, 6.0, 160.0, 0.0, 0.0, 0.0, 1.7307464852194357E9, 0.0, 2024-11-04 15:54:45.219
199.0, -8552.470332678597, -8597.732615200594, 0.0, -9090.834449629123, -23487.03425968102, -7728.8756047338975, -7426.56826097587, -7346.727829781513, -0.054, 0.974, 0.212, 192.0, 0.0, 0.0, 0.0, 0.0, 0.0, 0.0, 0.0, 0.0, 0.0, 1.7307464852235336E9, 0.0, 2024-11-04 15:54:45.223
200.0, -8566.082545051879, -8612.194193863177, 0.0, -9116.293086563717, -23460.100407612375, -7752.501398623157, -7448.9423571756315, -7355.64617581918, -0.054, 0.974, 0.212, 192.0, 0.0, 0.0, 0.0, 0.0, 0.0, 0.0, 0.0, 0.0, 0.0, 1.7307464852274528E9, 0.0, 2024-11-04 15:54:45.227
201.0, -8529.671553334183, -8576.677271923694, 0.0, -9120.428159287949, -23484.061477668463, -7729.613212300923, -7427.976420876554, -7372.477039394026, -0.054, 0.974, 0.212, 192.0, 0.0, 0.0, 0.0, 0.0, 0.0, 0.0, 0.0, 0.0, 0.0, 1.7307464852314851E9, 0.0, 2024-11-04 15:54:45.231
202.0, -8536.578242370873, -8582.98046386009, 0.0, -9104.46901374686, -23485.46963756915, -7722.818281986509, -7420.8015109064, -7372.700556838579, -0.054, 0.974, 0.212, 192.0, 0.0, 0.0, 0.0, 0.0, 0.0, 0.0, 0.0, 0.0, 0.0, 1.7307464852354736E9, 0.0, 2024-11-04 15:54:45.235
203.0, -8572.631606177283, -8618.810310221948, 0.0, -9113.94615339591, -23449.796253418477, -7752.680212578799, -7447.623604252769, -7371.806487060367, -0.054, 0.974, 0.212, 192.0, 0.0, 0.0, 0.0, 0.0, 0.0, 0.0, 0.0, 0.0, 0.0, 1.7307464852385468E9, 0.0, 2024-11-04 15:54:45.238
204.0, -8594.670426210216, -8641.318516888443, 0.0, -9137.214319373885, -23413.228799489596, -7777.937683813297, -7473.015185953997, -7376.276835951428, -0.054, 0.974, 0.212, 192.0, 0.0, 0.0, 0.0, 0.0, 0.0, 0.0, 0.0, 0.0, 0.0, 1.7307464852436397E9, 0.0, 2024-11-04 15:54:45.243
205.0, -8562.193341516655, -8609.623743250817, 0.0, -9149.485427079848, -23431.378415987303, -7762.112648738939, -7460.162932892196, -7394.985246060521, -0.054, 0.974, 0.212, 192.0, 0.0, 0.0, 0.0, 0.0, 0.0, 0.0, 0.0, 0.0, 0.0, 1.7307464852474327E9, 0.0, 2024-11-04 15:54:45.247
206.0, -8558.92998682618, -8605.89100192678, 0.0, -9134.845034461623, -23445.10238708286, -7748.969822999218, -7448.6517844977125, -7402.137804286219, -0.054, 0.974, 0.212, 192.0, 0.0, 0.0, 0.0, 0.0, 0.0, 0.0, 0.0, 0.0, 0.0, 1.7307464852524645E9, 0.0, 2024-11-04 15:54:45.252
207.0, -8590.110670341333, -8636.982278464113, 0.0, -9135.225014117363, -23411.61947388881, -7769.935759298296, -7466.913159717698, -7397.376882717238, -0.054, 0.974, 0.212, 192.0, 0.0, 0.0, 0.0, 0.0, 0.0, 0.0, 0.0, 0.0, 0.0, 1.730746485256647E9, 0.0, 2024-11-04 15:54:45.256
208.0, -8617.066874154434, -8664.161999721766, 0.0, -9155.47569459387, -23374.537929837457, -7798.098957311983, -7493.735253064067, -7400.595533918802, -0.052000000000000005, 0.964, 0.218, 192.0, 254.0, 96.0, 30.0, 32.0, 6.0, 208.0, 0.0, 0.0, 0.0, 1.7307464852594905E9, 0.0, 2024-11-04 15:54:45.259
209.0, -8589.306007540943, -8637.362258119852, 0.0, -9172.23950293535, -23387.52429336599, -7789.270018252137, -7486.828564027377, -7417.940487616121, -0.052000000000000005, 0.964, 0.218, 192.0, 0.0, 0.0, 0.0, 0.0, 0.0, 0.0, 0.0, 0.0, 0.0, 1.73074648526377E9, 0.0, 2024-11-04 15:54:45.263
210.0, -8570.977577087591, -8618.51973754403, 0.0, -9154.827494004667, -23411.463011677624, -7764.347823184469, -7465.080316672364, -7425.383618519738, -0.052000000000000005, 0.964, 0.218, 192.0, 0.0, 0.0, 0.0, 0.0, 0.0, 0.0, 0.0, 0.0, 0.0, 1.7307464852666357E9, 0.0, 2024-11-04 15:54:45.266
211.0, -8597.218525078122, -8643.687801800705, 0.0, -9149.507778824303, -23389.223025944597, -7779.658768136355, -7477.440831356148, -7420.019199850464, -0.052000000000000005, 0.964, 0.218, 192.0, 0.0, 0.0, 0.0, 0.0, 0.0, 0.0, 0.0, 0.0, 0.0, 1.7307464852714283E9, 0.0, 2024-11-04 15:54:45.271
212.0, -8621.380760834309, -8667.581816623428, 0.0, -9161.018927218787, -23352.18618538215, -7802.412843991858, -7499.099671733341, -7416.8005486489, -0.052000000000000005, 0.964, 0.218, 192.0, 0.0, 0.0, 0.0, 0.0, 0.0, 0.0, 0.0, 0.0, 0.0, 1.730746485275553E9, 0.0, 2024-11-04 15:54:45.275
213.0, -8599.297237312465, -8646.526473346528, 0.0, -9177.112183226607, -23358.779949996468, -7797.786032889609, -7494.986950753564, -7428.870490654766, -0.052000000000000005, 0.964, 0.218, 192.0, 0.0, 0.0, 0.0, 0.0, 0.0, 0.0, 0.0, 0.0, 0.0, 1.7307464852794056E9, 0.0, 2024-11-04 15:54:45.279
214.0, -8569.815286375915, -8616.955115432158, 0.0, -9161.935348741454, -23395.928549281187, -7766.5606458855455, -7468.366023107294, -7439.889900671233, -0.052000000000000005, 0.964, 0.218, 192.0, 0.0, 0.0, 0.0, 0.0, 0.0, 0.0, 0.0, 0.0, 0.0, 1.7307464852835767E9, 0.0, 2024-11-04 15:54:45.283
215.0, -8590.043615107968, -8636.42348485273, 0.0, -9149.86540673559, -23385.892616020756, -7775.143715756383, -7474.468049343593, -7433.877281412755, -0.052000000000000005, 0.964, 0.218, 192.0, 0.0, 0.0, 0.0, 0.0, 0.0, 0.0, 0.0, 0.0, 0.0, 1.7307464852865152E9, 0.0, 2024-11-04 15:54:45.286
216.0, -8614.898754942269, -8660.85394154238, 0.0, -9157.085020194652, -23353.259069116008, -7796.914314855852, -7493.802308297433, -7427.462330754081, -0.052000000000000005, 0.964, 0.218, 192.0, 0.0, 0.0, 0.0, 0.0, 0.0, 0.0, 0.0, 0.0, 0.0, 1.7307464852907615E9, 0.0, 2024-11-04 15:54:45.290
217.0, -8602.158260602744, -8648.471075114141, 0.0, -9172.306558168717, -23351.090949903843, -7797.607218933967, -7495.210468198117, -7433.005563378998, -0.052000000000000005, 0.964, 0.218, 192.0, 0.0, 0.0, 0.0, 0.0, 0.0, 0.0, 0.0, 0.0, 0.0, 1.7307464852946274E9, 0.0, 2024-11-04 15:54:45.294
218.0, -8563.199170017144, -8609.46728103963, 0.0, -9158.917863239987, -23392.218159701606, -7761.6879655942885, -7465.370889350283, -7442.885034428244, -0.036000000000000004, 0.978, 0.226, 192.0, 254.0, 224.0, 30.0, 144.0, 7.0, 16.0, 0.0, 0.0, 0.0, 1.73074648529846E9, 0.0, 2024-11-04 15:54:45.298
219.0, -8574.330338755886, -8619.771435233526, 0.0, -9137.974278685366, -23389.468895133603, -7757.664651592333, -7460.8558369703105, -7431.7538656895, -0.036000000000000004, 0.978, 0.226, 192.0, 0.0, 0.0, 0.0, 0.0, 0.0, 0.0, 0.0, 0.0, 0.0, 1.730746485303568E9, 0.0, 2024-11-04 15:54:45.303
220.0, -8600.817155935425, -8646.213548924154, 0.0, -9143.673973521469, -23361.462159331102, -7780.619893147933, -7480.726537791078, -7424.2883830414285, -0.036000000000000004, 0.978, 0.226, 192.0, 0.0, 0.0, 0.0, 0.0, 0.0, 0.0, 0.0, 0.0, 0.0, 1.730746485307659E9, 0.0, 2024-11-04 15:54:45.307
221.0, -8600.548935001962, -8646.638232068806, 0.0, -9161.689479552446, -23351.917964448687, -7791.549896186579, -7490.203677440129, -7427.551737731903, -0.036000000000000004, 0.978, 0.226, 192.0, 0.0, 0.0, 0.0, 0.0, 0.0, 0.0, 0.0, 0.0, 0.0, 1.7307464853116744E9, 0.0, 2024-11-04 15:54:45.311
222.0, -8559.55583567093, -8605.958057160147, 0.0, -9155.609805060603, -23392.329918423882, -7758.514017881635, -7460.766429992489, -7437.855891925799, -0.036000000000000004, 0.978, 0.226, 192.0, 0.0, 0.0, 0.0, 0.0, 0.0, 0.0, 0.0, 0.0, 0.0, 1.7307464853147194E9, 0.0, 2024-11-04 15:54:45.314
223.0, -8567.356594485831, -8612.618877007828, 0.0, -9136.387304829039, -23402.14233423976, -7751.339107911481, -7453.837389211344, -7431.239775567028, -0.036000000000000004, 0.978, 0.226, 192.0, 0.0, 0.0, 0.0, 0.0, 0.0, 0.0, 0.0, 0.0, 0.0, 1.7307464853183851E9, 0.0, 2024-11-04 15:54:45.318
224.0, -8595.385682032786, -8640.42444711023, 0.0, -9140.678839764458, -23377.890691505756, -7774.294349467082, -7474.199828410128, -7423.483720241037, -0.036000000000000004, 0.978, 0.226, 192.0, 0.0, 0.0, 0.0, 0.0, 0.0, 0.0, 0.0, 0.0, 0.0, 1.7307464853225715E9, 0.0, 2024-11-04 15:54:45.322
225.0, -8602.337074558387, -8648.180502436222, 0.0, -9156.23565390535, -23359.942240708144, -7789.292369996592, -7488.48259311707, -7422.65670569619, -0.036000000000000004, 0.978, 0.226, 192.0, 0.0, 0.0, 0.0, 0.0, 0.0, 0.0, 0.0, 0.0, 0.0, 1.7307464853294322E9, 0.0, 2024-11-04 15:54:45.329
226.0, -8558.795876359449, -8605.46631878213, 0.0, -9155.587453316148, -23396.599101614847, -7760.480971393701, -7462.778086993467, -7433.8549296682995, -0.036000000000000004, 0.978, 0.226, 192.0, 0.0, 0.0, 0.0, 0.0, 0.0, 0.0, 0.0, 0.0, 0.0, 1.730746485333612E9, 0.0, 2024-11-04 15:54:45.333
227.0, -8553.476161179085, -8599.341940801376, 0.0, -9131.559328026691, -23415.933360568688, -7742.800741529553, -7445.790761207433, -7429.049304610408, -0.036000000000000004, 0.978, 0.226, 192.0, 0.0, 0.0, 0.0, 0.0, 0.0, 0.0, 0.0, 0.0, 0.0, 1.7307464853364592E9, 0.0, 2024-11-04 15:54:45.336
228.0, -8576.341995756864, -8621.984257934602, 0.0, -9127.200737857907, -23392.799305057444, -7758.558721370545, -7458.643014269235, -7416.621734693258, -0.042, 0.968, 0.226, 192.0, 254.0, 176.0, 30.0, 64.0, 7.0, 16.0, 0.0, 0.0, 0.0, 1.730746485339455E9, 0.0, 2024-11-04 15:54:45.339
229.0, -8591.60823721984, -8637.541072075495, 0.0, -9140.745894997823, -23370.402857113226, -7777.2447797351815, -7476.636168555757, -7412.978400347042, -0.042, 0.968, 0.226, 192.0, 0.0, 0.0, 0.0, 0.0, 0.0, 0.0, 0.0, 0.0, 0.0, 1.730746485342455E9, 0.0, 2024-11-04 15:54:45.342
230.0, -8552.425629189685, -8599.408996034741, 0.0, -9145.752685755811, -23399.460124905127, -7755.854160291453, -7457.19015087964, -7422.8802231407435, -0.042, 0.968, 0.226, 192.0, 0.0, 0.0, 0.0, 0.0, 0.0, 0.0, 0.0, 0.0, 0.0, 1.7307464853465316E9, 0.0, 2024-11-04 15:54:45.346
231.0, -8536.73470458206, -8583.114574326823, 0.0, -9121.679856977446, -23428.405633974748, -7730.887261734875, -7434.23490932404, -7421.51676672897, -0.042, 0.968, 0.226, 192.0, 0.0, 0.0, 0.0, 0.0, 0.0, 0.0, 0.0, 0.0, 0.0, 1.7307464853505204E9, 0.0, 2024-11-04 15:54:45.350
232.0, -8559.55583567093, -8605.1310426153, 0.0, -9113.320304551162, -23410.032500032485, -7743.7842182855875, -7444.8072844514, -7408.6198101782575, -0.042, 0.968, 0.226, 192.0, 0.0, 0.0, 0.0, 0.0, 0.0, 0.0, 0.0, 0.0, 0.0, 1.730746485354545E9, 0.0, 2024-11-04 15:54:45.354
233.0, -8579.873571380804, -8625.292316113988, 0.0, -9123.467996533871, -23381.176397940686, -7762.939663283785, -7462.465162571092, -7400.595533918802, -0.042, 0.968, 0.226, 192.0, 0.0, 0.0, 0.0, 0.0, 0.0, 0.0, 0.0, 0.0, 0.0, 1.7307464853597329E9, 0.0, 2024-11-04 15:54:45.359
234.0, -8550.212806488611, -8596.547972744462, 0.0, -9134.576813528158, -23399.080145249387, -7751.450866633758, -7450.194054865129, -7408.530403200437, -0.042, 0.968, 0.226, 192.0, 0.0, 0.0, 0.0, 0.0, 0.0, 0.0, 0.0, 0.0, 0.0, 1.7307464853636286E9, 0.0, 2024-11-04 15:54:45.363
235.0, -8526.385846899253, -8572.430440477186, 0.0, -9115.577830741147, -23434.999398589065, -7720.940735452264, -7424.243679552517, -7411.413778235171, -0.042, 0.968, 0.226, 192.0, 0.0, 0.0, 0.0, 0.0, 0.0, 0.0, 0.0, 0.0, 0.0, 1.73074648536766E9, 0.0, 2024-11-04 15:54:45.367
236.0, -8547.888225065259, -8593.374025031808, 0.0, -9105.608952714081, -23424.516430439526, -7731.915441979819, -7432.267955811973, -7400.908458341177, -0.042, 0.968, 0.226, 192.0, 0.0, 0.0, 0.0, 0.0, 0.0, 0.0, 0.0, 0.0, 0.0, 1.730746485370729E9, 0.0, 2024-11-04 15:54:45.370
237.0, -8572.139867799267, -8617.022170665523, 0.0, -9115.577830741147, -23399.638938860768, -7754.4683521352235, -7453.502113044515, -7395.946371072098, -0.042, 0.968, 0.226, 192.0, 0.0, 0.0, 0.0, 0.0, 0.0, 0.0, 0.0, 0.0, 0.0, 1.7307464853747296E9, 0.0, 2024-11-04 15:54:45.374
238.0, -8548.849350076836, -8594.60337097685, 0.0, -9127.04427564672, -23409.071375020907, -7747.338145653981, -7447.5341972749475, -7400.796699618901, -0.046, 0.976, 0.23600000000000002, 192.0, 254.0, 144.0, 30.0, 128.0, 7.0, 96.0, 0.0, 0.0, 0.0, 1.730746485378674E9, 0.0, 2024-11-04 15:54:45.378
239.0, -8512.460710103596, -8558.393544959254, 0.0, -9109.431101015938, -23455.294782554483, -7710.9718574251965, -7416.442920737615, -7406.630504921735, -0.046, 0.976, 0.23600000000000002, 192.0, 0.0, 0.0, 0.0, 0.0, 0.0, 0.0, 0.0, 0.0, 0.0, 1.7307464853826768E9, 0.0, 2024-11-04 15:54:45.382
240.0, -8523.033085230958, -8568.116553797312, 0.0, -9088.42046122795, -23455.20537557666, -7708.826089957487, -7412.263144524472, -7392.303036725883, -0.046, 0.976, 0.23600000000000002, 192.0, 0.0, 0.0, 0.0, 0.0, 0.0, 0.0, 0.0, 0.0, 0.0, 1.7307464853876145E9, 0.0, 2024-11-04 15:54:45.387
241.0, -8544.222538974589, -8588.858972651837, 0.0, -9091.773222896245, -23437.905125368256, -7726.126340165894, -7427.194109820618, -7383.205876732573, -0.046, 0.976, 0.23600000000000002, 192.0, 0.0, 0.0, 0.0, 0.0, 0.0, 0.0, 0.0, 0.0, 0.0, 1.7307464853915339E9, 0.0, 2024-11-04 15:54:45.391
242.0, -8528.464559133598, -8574.151524800245, 0.0, -9101.719749178857, -23446.063512094443, -7724.0029244426405, -7424.780121419445, -7383.988187788509, -0.046, 0.976, 0.23600000000000002, 192.0, 0.0, 0.0, 0.0, 0.0, 0.0, 0.0, 0.0, 0.0, 0.0, 1.7307464853956184E9, 0.0, 2024-11-04 15:54:45.395
243.0, -8479.558942265385, -8525.759998054506, 0.0, -9083.726594892334, -23500.46765809866, -7682.361624522403, -7386.98332154552, -7388.994978546498, -0.046, 0.976, 0.23600000000000002, 192.0, 0.0, 0.0, 0.0, 0.0, 0.0, 0.0, 0.0, 0.0, 0.0, 1.7307464853996196E9, 0.0, 2024-11-04 15:54:45.399
244.0, -8481.794116710917, -8527.391675399742, 0.0, -9057.642109112992, -23519.019605996564, -7670.872827872376, -7374.891027795199, -7376.165077229152, -0.046, 0.976, 0.23600000000000002, 192.0, 0.0, 0.0, 0.0, 0.0, 0.0, 0.0, 0.0, 0.0, 0.0, 1.7307464854037306E9, 0.0, 2024-11-04 15:54:45.403
245.0, -8498.513221563486, -8543.887262807759, 0.0, -9054.065830000143, -23510.481239614637, -7683.412156511803, -7385.485754667015, -7362.93284451161, -0.046, 0.976, 0.23600000000000002, 192.0, 0.0, 0.0, 0.0, 0.0, 0.0, 0.0, 0.0, 0.0, 0.0, 1.7307464854086359E9, 0.0, 2024-11-04 15:54:45.408
246.0, -8489.259599358988, -8535.483006892564, 0.0, -9059.162027735953, -23514.59396059441, -7683.658025700811, -7384.837554077811, -7355.780286285912, -0.046, 0.976, 0.23600000000000002, 192.0, 0.0, 0.0, 0.0, 0.0, 0.0, 0.0, 0.0, 0.0, 0.0, 1.7307464854117026E9, 0.0, 2024-11-04 15:54:45.411
247.0, -8434.296659743388, -8481.235323099532, 0.0, -9042.97936475031, -23570.27215603258, -7640.027420524052, -7344.73852452499, -7357.166094442141, -0.046, 0.976, 0.23600000000000002, 192.0, 0.0, 0.0, 0.0, 0.0, 0.0, 0.0, 0.0, 0.0, 0.0, 1.7307464854157379E9, 0.0, 2024-11-04 15:54:45.415
248.0, -8425.802996850372, -8471.981700895036, 0.0, -9010.323466101107, -23601.028156403085, -7617.742731302111, -7322.476187047504, -7341.966908212532, -0.058, 0.966, 0.23, 192.0, 254.0, 48.0, 30.0, 48.0, 7.0, 48.0, 0.0, 0.0, 0.0, 1.7307464854207983E9, 0.0, 2024-11-04 15:54:45.420
249.0, -8441.136293546711, -8486.555038279896, 0.0, -9000.242829351762, -23595.86490343391, -7626.839891295421, -7328.958192939544, -7322.945573681066, -0.058, 0.966, 0.23, 192.0, 0.0, 0.0, 0.0, 0.0, 0.0, 0.0, 0.0, 0.0, 0.0, 1.7307464854235716E9, 0.0, 2024-11-04 15:54:45.423
250.0, -8444.421999981643, -8489.907799948192, 0.0, -9007.618905022015, -23598.122429623894, -7635.869996055365, -7337.295393621373, -7314.49661427696, -0.058, 0.966, 0.23, 192.0, 0.0, 0.0, 0.0, 0.0, 0.0, 0.0, 0.0, 0.0, 0.0, 1.7307464854278944E9, 0.0, 2024-11-04 15:54:45.427
251.0, -8391.80599353385, -8438.163511534156, 0.0, -8998.54409677316, -23650.29140118258, -7598.7437485150995, -7302.985465882477, -7315.189518355074, -0.058, 0.966, 0.23, 192.0, 0.0, 0.0, 0.0, 0.0, 0.0, 0.0, 0.0, 0.0, 0.0, 1.730746485430926E9, 0.0, 2024-11-04 15:54:45.430
252.0, -8374.237522391979, -8420.103302014268, 0.0, -8965.932901612867, -23692.40208773638, -7569.395908045281, -7274.576398679781, -7303.074872860298, -0.058, 0.966, 0.23, 192.0, 0.0, 0.0, 0.0, 0.0, 0.0, 0.0, 0.0, 0.0, 0.0, 1.730746485434723E9, 0.0, 2024-11-04 15:54:45.434
253.0, -8387.357996387243, -8432.95555507607, 0.0, -8951.068991550088, -23691.575073191532, -7574.35799531436, -7276.923331847589, -7281.997177838944, -0.058, 0.966, 0.23, 192.0, 0.0, 0.0, 0.0, 0.0, 0.0, 0.0, 0.0, 0.0, 0.0, 1.7307464854387937E9, 0.0, 2024-11-04 15:54:45.438
254.0, -8392.94593250107, -8438.722305145538, 0.0, -8952.857131106512, -23688.199959778784, -7582.605789018368, -7285.305236018328, -7268.608482910215, -0.058, 0.966, 0.23, 192.0, 0.0, 0.0, 0.0, 0.0, 0.0, 0.0, 0.0, 0.0, 0.0, 1.7307464854437182E9, 0.0, 2024-11-04 15:54:45.443
255.0, -8346.99074590096, -8393.840002279283, 0.0, -8950.0631630496, -23734.73629173473, -7553.63792820429, -7257.745535104935, -7268.653186399125, -0.058, 0.966, 0.23, 192.0, 0.0, 0.0, 0.0, 0.0, 0.0, 0.0, 0.0, 0.0, 0.0, 1.7307464854476595E9, 0.0, 2024-11-04 15:54:45.447
0.0, -8316.413559486098, -8362.726373997495, 0.0, -8915.373255654962, -23783.977184769774, -7514.276506218494, -7219.054665452799, -7255.711526359502, -0.058, 0.966, 0.23, 192.0, 0.0, 0.0, 0.0, 0.0, 0.0, 0.0, 0.0, 0.0, 0.0, 1.73074648545089E9, 0.0, 2024-11-04 15:54:45.450
1.0, -8328.461149747509, -8374.125763669701, 0.0, -8895.971941467755, -23789.743934839244, -7514.432968429682, -7217.244174151919, -7232.2868981703405, -0.058, 0.966, 0.23, 192.0, 0.0, 0.0, 0.0, 0.0, 0.0, 0.0, 0.0, 0.0, 0.0, 1.7307464854546921E9, 0.0, 2024-11-04 15:54:45.454
2.0, -8336.820702173794, -8382.887647496182, 0.0, -8893.625008299949, -23784.737144081253, -7521.943154566665, -7224.933174244545, -7213.690246783525, -0.05, 0.966, 0.23800000000000002, 192.0, 254.0, 112.0, 30.0, 48.0, 7.0, 112.0, 0.0, 0.0, 0.0, 1.7307464854588065E9, 0.0, 2024-11-04 15:54:45.458
3.0, -8300.655579645107, -8347.616594745707, 0.0, -8896.083700190033, -23824.880877122985, -7502.519488635003, -7207.074130424754, -7212.885583983134, -0.05, 0.966, 0.23800000000000002, 192.0, 0.0, 0.0, 0.0, 0.0, 0.0, 0.0, 0.0, 0.0, 0.0, 1.7307464854627104E9, 0.0, 2024-11-04 15:54:45.462
4.0, -8261.227102425946, -8308.188117526546, 0.0, -8866.132362619921, -23885.3870493635, -7461.101706159318, -7168.137391583609, -7206.358874602184, -0.05, 0.966, 0.23800000000000002, 192.0, 0.0, 0.0, 0.0, 0.0, 0.0, 0.0, 0.0, 0.0, 0.0, 1.730746485466868E9, 0.0, 2024-11-04 15:54:45.466
5.0, -8266.099782717203, -8312.88198386216, 0.0, -8840.070228585033, -23897.434639624913, -7454.99967992302, -7159.777839157324, -7182.04017663481, -0.05, 0.966, 0.23800000000000002, 192.0, 0.0, 0.0, 0.0, 0.0, 0.0, 0.0, 0.0, 0.0, 0.0, 1.730746485471969E9, 0.0, 2024-11-04 15:54:45.471
6.0, -8275.263997943879, -8321.710922922006, 0.0, -8834.303478515563, -23895.02065122374, -7461.90636895971, -7165.790458415802, -7162.70591768097, -0.05, 0.966, 0.23800000000000002, 192.0, 0.0, 0.0, 0.0, 0.0, 0.0, 0.0, 0.0, 0.0, 0.0, 1.7307464854756656E9, 0.0, 2024-11-04 15:54:45.475
7.0, -8245.938509218515, -8293.324207463767, 0.0, -8836.113969816442, -23927.140108006017, -7448.160046119696, -7151.84296987569, -7157.5650164562485, -0.05, 0.966, 0.23800000000000002, 192.0, 0.0, 0.0, 0.0, 0.0, 0.0, 0.0, 0.0, 0.0, 0.0, 1.730746485478832E9, 0.0, 2024-11-04 15:54:45.478
8.0, -8197.994017361882, -8245.625584796142, 0.0, -8809.895373570369, -23997.592806529145, -7402.473080453048, -7109.441710643972, -7154.838103632701, -0.05, 0.966, 0.23800000000000002, 192.0, 0.0, 0.0, 0.0, 0.0, 0.0, 0.0, 0.0, 0.0, 0.0, 1.7307464854827728E9, 0.0, 2024-11-04 15:54:45.482
9.0, -8197.926962128517, -8244.709163273474, 0.0, -8778.64763482185, -24022.403242874534, -7389.419661691149, -7094.622504070104, -7131.212309743441, -0.05, 0.966, 0.23800000000000002, 192.0, 0.0, 0.0, 0.0, 0.0, 0.0, 0.0, 0.0, 0.0, 0.0, 1.7307464854876084E9, 0.0, 2024-11-04 15:54:45.487
10.0, -8209.058130867259, -8255.773276778851, 0.0, -8770.623358562394, -24024.213734175413, -7396.929847828133, -7100.12103320611, -7110.447539144461, -0.05, 0.966, 0.23800000000000002, 192.0, 0.0, 0.0, 0.0, 0.0, 0.0, 0.0, 0.0, 0.0, 0.0, 1.7307464854917817E9, 0.0, 2024-11-04 15:54:45.491
11.0, -8188.785098646295, -8236.126093402636, 0.0, -8770.39984111784, -24043.10095824015, -7387.8326878348225, -7090.554486579238, -7097.125899449098, -0.05, 0.966, 0.23800000000000002, 192.0, 0.0, 0.0, 0.0, 0.0, 0.0, 0.0, 0.0, 0.0, 0.0, 1.7307464854958098E9, 0.0, 2024-11-04 15:54:45.495
12.0, -8134.269193919801, -8181.789002631785, 0.0, -8747.958689684712, -24109.038604383302, -7341.11754192323, -7047.303861058219, -7091.694425546459, -0.046, 0.968, 0.234, 192.0, 254.0, 144.0, 30.0, 64.0, 7.0, 80.0, 0.0, 0.0, 0.0, 1.73074648549865E9, 0.0, 2024-11-04 15:54:45.498
13.0, -8130.871728762595, -8177.609226418642, 0.0, -8716.06275034699, -24141.403930354587, -7323.280849847895, -7029.087189327144, -7070.30380610273, -0.046, 0.968, 0.234, 192.0, 0.0, 0.0, 0.0, 0.0, 0.0, 0.0, 0.0, 0.0, 0.0, 1.7307464855027063E9, 0.0, 2024-11-04 15:54:45.502
14.0, -8144.1710167135025, -8190.4838312248985, 0.0, -8706.943238609223, -24144.846099000704, -7331.26042261844, -7035.2339190523535, -7049.360221548107, -0.046, 0.968, 0.234, 192.0, 0.0, 0.0, 0.0, 0.0, 0.0, 0.0, 0.0, 0.0, 0.0, 1.73074648550571E9, 0.0, 2024-11-04 15:54:45.505
15.0, -8133.4868828638655, -8180.224380519913, 0.0, -8707.658494431793, -24158.234793929434, -7328.399399328161, -7032.4175992509845, -7035.144512074532, -0.046, 0.968, 0.234, 192.0, 0.0, 0.0, 0.0, 0.0, 0.0, 0.0, 0.0, 0.0, 0.0, 1.7307464855106285E9, 0.0, 2024-11-04 15:54:45.510
16.0, -8073.919483890472, -8121.37223736909, 0.0, -8689.553581422995, -24224.35125402823, -7281.840715627756, -6989.993988274812, -7031.188253305942, -0.046, 0.968, 0.234, 192.0, 0.0, 0.0, 0.0, 0.0, 0.0, 0.0, 0.0, 0.0, 0.0, 1.7307464855147908E9, 0.0, 2024-11-04 15:54:45.514
17.0, -8055.747515648308, -8102.149737137525, 0.0, -8650.23686292611, -24268.920632472116, -7251.442343168538, -6959.819133260147, -7010.088206540133, -0.046, 0.968, 0.234, 192.0, 0.0, 0.0, 0.0, 0.0, 0.0, 0.0, 0.0, 0.0, 0.0, 1.7307464855187569E9, 0.0, 2024-11-04 15:54:45.518
18.0, -8063.637681441031, -8109.615219785598, 0.0, -8631.506101072562, -24274.776789519405, -7252.135247246653, -6956.153447169477, -6982.483802137828, -0.046, 0.968, 0.234, 192.0, 0.0, 0.0, 0.0, 0.0, 0.0, 0.0, 0.0, 0.0, 0.0, 1.7307464855226479E9, 0.0, 2024-11-04 15:54:45.522
19.0, -8063.570626207666, -8109.928144207972, 0.0, -8631.215528394643, -24283.695135557075, -7254.862160070201, -6957.025165203234, -6964.75886878477, -0.046, 0.968, 0.234, 192.0, 0.0, 0.0, 0.0, 0.0, 0.0, 0.0, 0.0, 0.0, 0.0, 1.7307464855266232E9, 0.0, 2024-11-04 15:54:45.526
20.0, -8013.010980249761, -8060.2849197727355, 0.0, -8622.096016656878, -24341.47439497404, -7219.412293364084, -6923.139920608988, -6960.310871638164, -0.046, 0.968, 0.234, 192.0, 0.0, 0.0, 0.0, 0.0, 0.0, 0.0, 0.0, 0.0, 0.0, 1.730746485530769E9, 0.0, 2024-11-04 15:54:45.530
21.0, -7993.319093384635, -8040.011887551772, 0.0, -8588.926027885202, -24390.670584520172, -7188.768051715858, -6893.613266183528, -6944.597595286084, -0.046, 0.968, 0.234, 192.0, 0.0, 0.0, 0.0, 0.0, 0.0, 0.0, 0.0, 0.0, 0.0, 1.7307464855337455E9, 0.0, 2024-11-04 15:54:45.533
22.0, -8008.853555781074, -8054.965204592372, 0.0, -8574.084469566878, -24392.88340722125, -7195.115947141165, -6897.502469718751, -6920.4800630188065, -0.046, 0.982, 0.23800000000000002, 192.0, 254.0, 144.0, 30.0, 176.0, 7.0, 112.0, 0.0, 0.0, 0.0, 1.730746485538751E9, 0.0, 2024-11-04 15:54:45.538
23.0, -8018.710675085864, -8064.8670273860735, 0.0, -8575.64909167875, -24384.50150305051, -7204.9507147015, -6907.471347745818, -6901.771652909715, -0.046, 0.982, 0.23800000000000002, 192.0, 0.0, 0.0, 0.0, 0.0, 0.0, 0.0, 0.0, 0.0, 0.0, 1.7307464855427885E9, 0.0, 2024-11-04 15:54:45.542
24.0, -7977.449354821367, -8024.745646088797, 0.0, -8575.045594578456, -24419.437279634152, -7181.414327790061, -6885.209010268332, -6897.167193551922, -0.046, 0.982, 0.23800000000000002, 192.0, 0.0, 0.0, 0.0, 0.0, 0.0, 0.0, 0.0, 0.0, 0.0, 1.7307464855468197E9, 0.0, 2024-11-04 15:54:45.546
25.0, -7952.728325453798, -7999.264657409747, 0.0, -8549.408143688219, -24467.35941974633, -7148.847836118679, -6855.816466309603, -6889.79111788167, -0.046, 0.982, 0.23800000000000002, 192.0, 0.0, 0.0, 0.0, 0.0, 0.0, 0.0, 0.0, 0.0, 0.0, 1.7307464855508816E9, 0.0, 2024-11-04 15:54:45.550
26.0, -7971.749659985264, -8017.660143096465, 0.0, -8535.326544681377, -24465.571280189906, -7155.933339111011, -6859.996242522746, -6869.249864727243, -0.046, 0.982, 0.23800000000000002, 192.0, 0.0, 0.0, 0.0, 0.0, 0.0, 0.0, 0.0, 0.0, 0.0, 1.730746485556792E9, 0.0, 2024-11-04 15:54:45.556
27.0, -7990.636884049998, -8036.390904950012, 0.0, -8540.758018584016, -24448.718064870605, -7173.837086419712, -6875.731870619282, -6854.251844197732, -0.046, 0.982, 0.23800000000000002, 192.0, 0.0, 0.0, 0.0, 0.0, 0.0, 0.0, 0.0, 0.0, 0.0, 1.7307464855598876E9, 0.0, 2024-11-04 15:54:45.559
28.0, -7963.457162792345, -8010.284067426213, 0.0, -8548.469370421097, -24466.778274390494, -7163.130600825621, -6864.824219325093, -6851.882559285469, -0.046, 0.982, 0.23800000000000002, 192.0, 0.0, 0.0, 0.0, 0.0, 0.0, 0.0, 0.0, 0.0, 0.0, 1.7307464855628648E9, 0.0, 2024-11-04 15:54:45.562
29.0, -7931.650630432443, -7978.321072855124, 0.0, -8528.375152155775, -24511.727632490118, -7128.88772832009, -6833.911756743402, -6850.183826706866, -0.046, 0.982, 0.23800000000000002, 192.0, 0.0, 0.0, 0.0, 0.0, 0.0, 0.0, 0.0, 0.0, 0.0, 1.7307464855668523E9, 0.0, 2024-11-04 15:54:45.566
30.0, -7949.912005652429, -7995.9565992303615, 0.0, -8512.795986270427, -24507.41374581024, -7134.498016178372, -6836.63866956695, -6833.1965009208325, -0.046, 0.982, 0.23800000000000002, 192.0, 0.0, 0.0, 0.0, 0.0, 0.0, 0.0, 0.0, 0.0, 0.0, 1.7307464855709004E9, 0.0, 2024-11-04 15:54:45.570
31.0, -7975.10242165356, -8021.147015231492, 0.0, -8519.54621309593, -24481.530425730994, -7155.933339111011, -6856.2635011987095, -6820.746579259227, -0.046, 0.982, 0.23800000000000002, 192.0, 0.0, 0.0, 0.0, 0.0, 0.0, 0.0, 0.0, 0.0, 0.0, 1.7307464855748396E9, 0.0, 2024-11-04 15:54:45.574
32.0, -7964.91002618194, -8011.8039860491745, 0.0, -8535.415951659197, -24483.251510054055, -7158.7943624012905, -6858.163399477411, -6821.551242059618, -0.036000000000000004, 0.986, 0.248, 192.0, 254.0, 224.0, 30.0, 208.0, 7.0, 192.0, 0.0, 0.0, 0.0, 1.7307464855787418E9, 0.0, 2024-11-04 15:54:45.578
33.0, -7928.18611004187, -7975.303587353657, 0.0, -8523.815396286893, -24525.1386791633, -7126.272574218819, -6829.441407852341, -6827.027419451168, -0.036000000000000004, 0.986, 0.248, 192.0, 0.0, 0.0, 0.0, 0.0, 0.0, 0.0, 0.0, 0.0, 0.0, 1.7307464855829544E9, 0.0, 2024-11-04 15:54:45.582
34.0, -7942.468874748812, -7989.3181311271355, 0.0, -8507.386864112243, -24525.71982451914, -7127.591327141682, -6829.441407852341, -6816.2091751348, -0.036000000000000004, 0.986, 0.248, 192.0, 0.0, 0.0, 0.0, 0.0, 0.0, 0.0, 0.0, 0.0, 0.0, 1.730746485586868E9, 0.0, 2024-11-04 15:54:45.586
35.0, -7968.7768779727085, -8015.626134351031, 0.0, -8513.01950371498, -24498.651861983763, -7149.339574496696, -6849.669736584394, -6806.240297107733, -0.036000000000000004, 0.986, 0.248, 192.0, 0.0, 0.0, 0.0, 0.0, 0.0, 0.0, 0.0, 0.0, 0.0, 1.730746485589896E9, 0.0, 2024-11-04 15:54:45.589
36.0, -7967.726345983308, -8015.313209928658, 0.0, -8529.179814956167, -24487.65480371175, -7158.235568789908, -6858.632786110972, -6805.860317451992, -0.036000000000000004, 0.986, 0.248, 192.0, 0.0, 0.0, 0.0, 0.0, 0.0, 0.0, 0.0, 0.0, 0.0, 1.7307464855949533E9, 0.0, 2024-11-04 15:54:45.594
37.0, -7924.743941395753, -7972.889598952484, 0.0, -8522.630753830761, -24527.105632675368, -7125.378504440607, -6831.564823575595, -6815.180994889855, -0.036000000000000004, 0.986, 0.248, 192.0, 0.0, 0.0, 0.0, 0.0, 0.0, 0.0, 0.0, 0.0, 0.0, 1.730746485598923E9, 0.0, 2024-11-04 15:54:45.598
38.0, -7928.633144930976, -7976.130601898504, 0.0, -8501.44130008713, -24537.163917680256, -7117.577745625705, -6825.753370017215, -6808.743692486727, -0.036000000000000004, 0.986, 0.248, 192.0, 0.0, 0.0, 0.0, 0.0, 0.0, 0.0, 0.0, 0.0, 0.0, 1.7307464856028712E9, 0.0, 2024-11-04 15:54:45.602
39.0, -7956.014031888728, -8003.377378389523, 0.0, -8503.408253599198, -24513.80634472446, -7136.241452245886, -6843.254785925721, -6799.0877388820345, -0.036000000000000004, 0.986, 0.248, 192.0, 0.0, 0.0, 0.0, 0.0, 0.0, 0.0, 0.0, 0.0, 0.0, 1.7307464856068125E9, 0.0, 2024-11-04 15:54:45.606
40.0, -7965.759392471242, -8013.636829094509, 0.0, -8518.74155029554, -24496.52844626051, -7150.479513463916, -6852.195483707844, -6795.645570235917, -0.036000000000000004, 0.986, 0.248, 192.0, 0.0, 0.0, 0.0, 0.0, 0.0, 0.0, 0.0, 0.0, 0.0, 1.730746485610082E9, 0.0, 2024-11-04 15:54:45.610
41.0, -7926.800301885642, -7975.415346075934, 0.0, -8521.535518352452, -24534.77228102354, -7125.9820015409, -6827.854433996014, -6807.357884330498, -0.036000000000000004, 0.986, 0.248, 192.0, 0.0, 0.0, 0.0, 0.0, 0.0, 0.0, 0.0, 0.0, 0.0, 1.7307464856139944E9, 0.0, 2024-11-04 15:54:45.613
42.0, -7922.844043117052, -7971.369680329523, 0.0, -8499.519050063975, -24554.754740566583, -7109.464062388428, -6812.565840788584, -6802.306390083599, -0.018000000000000002, 0.966, 0.262, 192.0, 255.0, 112.0, 30.0, 48.0, 8.0, 48.0, 0.0, 0.0, 0.0, 1.7307464856178143E9, 0.0, 2024-11-04 15:54:45.617
43.0, -7945.709877694831, -7994.1908114183925, 0.0, -8495.987474440035, -24532.04536819999, -7125.691428862981, -6827.027419451168, -6789.655302721894, -0.018000000000000002, 0.966, 0.262, 192.0, 0.0, 0.0, 0.0, 0.0, 0.0, 0.0, 0.0, 0.0, 0.0, 1.7307464856219103E9, 0.0, 2024-11-04 15:54:45.621
44.0, -7960.372622057513, -8008.942962758895, 0.0, -8507.990361212536, -24506.787896965492, -7143.371658727129, -6842.695992314339, -6784.045014863613, -0.018000000000000002, 0.966, 0.262, 192.0, 0.0, 0.0, 0.0, 0.0, 0.0, 0.0, 0.0, 0.0, 0.0, 1.7307464856269228E9, 0.0, 2024-11-04 15:54:45.626
45.0, -7925.638011173965, -7974.498924553267, 0.0, -8514.852346760315, -24533.09590018939, -7123.411550928539, -6824.076989183068, -6793.499802768208, -0.018000000000000002, 0.966, 0.262, 192.0, 0.0, 0.0, 0.0, 0.0, 0.0, 0.0, 0.0, 0.0, 0.0, 1.730746485630883E9, 0.0, 2024-11-04 15:54:45.630
46.0, -7915.445615702345, -7963.501866281255, 0.0, -8496.836840729338, -24561.124987736344, -7102.803242540746, -6809.615410520484, -6795.287942324632, -0.018000000000000002, 0.966, 0.262, 192.0, 0.0, 0.0, 0.0, 0.0, 0.0, 0.0, 0.0, 0.0, 0.0, 1.7307464856349883E9, 0.0, 2024-11-04 15:54:45.634
47.0, -7942.044191604161, -7989.429889849412, 0.0, -8493.595837783318, -24541.008417726567, -7121.042266016277, -6826.736846773249, -6786.123727097956, -0.018000000000000002, 0.966, 0.262, 192.0, 0.0, 0.0, 0.0, 0.0, 0.0, 0.0, 0.0, 0.0, 0.0, 1.7307464856382349E9, 0.0, 2024-11-04 15:54:45.638
48.0, -7967.748697727764, -8015.15674771747, 0.0, -8509.44322460213, -24510.85591445636, -7147.439676217995, -6849.893254028947, -6783.642683463417, -0.018000000000000002, 0.966, 0.262, 192.0, 0.0, 0.0, 0.0, 0.0, 0.0, 0.0, 0.0, 0.0, 0.0, 1.7307464856421237E9, 0.0, 2024-11-04 15:54:45.642
49.0, -7944.5252352387, -7992.425023606423, 0.0, -8524.664762576194, -24522.098841917377, -7139.750676125369, -6843.92533825938, -6793.902134168403, -0.018000000000000002, 0.966, 0.262, 192.0, 0.0, 0.0, 0.0, 0.0, 0.0, 0.0, 0.0, 0.0, 0.0, 1.7307464856459656E9, 0.0, 2024-11-04 15:54:45.645
50.0, -7926.040342574161, -7972.733136741297, 0.0, -8509.175003668666, -24548.51860386355, -7115.096701991165, -6824.725189772272, -6798.998331904213, -0.018000000000000002, 0.966, 0.262, 192.0, 0.0, 0.0, 0.0, 0.0, 0.0, 0.0, 0.0, 0.0, 0.0, 1.7307464856500688E9, 0.0, 2024-11-04 15:54:45.650
51.0, -7952.415401031423, -7997.923552742429, 0.0, -8502.089500676335, -24523.909333218257, -7129.804149842757, -6835.766951533193, -6789.431785277341, -0.018000000000000002, 0.966, 0.262, 192.0, 0.0, 0.0, 0.0, 0.0, 0.0, 0.0, 0.0, 0.0, 0.0, 1.7307464856548831E9, 0.0, 2024-11-04 15:54:45.654
52.0, -7985.473631080822, -8030.691210113909, 0.0, -8519.479157862563, -24485.017297866023, -7161.230702546919, -6863.572521635595, -6789.252971321699, 0.062, 0.9580000000000001, 0.302, 192.0, 1.0, 240.0, 29.0, 240.0, 9.0, 112.0, 0.0, 0.0, 0.0, 1.7307464856587665E9, 0.0, 2024-11-04 15:54:45.658
53.0, -7977.270540865725, -8023.404541421479, 0.0, -8540.936832539659, -24475.070771583414, -7165.522237482338, -6864.779515836181, -6797.366654558976, 0.062, 0.9580000000000001, 0.302, 192.0, 0.0, 0.0, 0.0, 0.0, 0.0, 0.0, 0.0, 0.0, 0.0, 1.7307464856628642E9, 0.0, 2024-11-04 15:54:45.662
54.0, -7952.616566731521, -7998.817622520641, 0.0, -8532.219652202088, -24493.645071225772, -7139.281289491808, -6842.606585336517, -6803.736901728738, 0.062, 0.9580000000000001, 0.302, 192.0, 0.0, 0.0, 0.0, 0.0, 0.0, 0.0, 0.0, 0.0, 0.0, 1.7307464856660419E9, 0.0, 2024-11-04 15:54:45.666
55.0, -7981.003282189761, -8026.5337856452215, 0.0, -8528.218689944588, -24470.063980825424, -7155.419248988539, -6856.755239576726, -6799.445366793319, 0.062, 0.9580000000000001, 0.302, 192.0, 0.0, 0.0, 0.0, 0.0, 0.0, 0.0, 0.0, 0.0, 0.0, 1.730746485670031E9, 0.0, 2024-11-04 15:54:45.670
56.0, -8018.0848262411155, -8063.2800535297465, 0.0, -8545.585995386362, -24422.097137224333, -7188.477479037939, -6887.734757391782, -6798.372483059465, 0.062, 0.9580000000000001, 0.302, 192.0, 0.0, 0.0, 0.0, 0.0, 0.0, 0.0, 0.0, 0.0, 0.0, 1.7307464856740816E9, 0.0, 2024-11-04 15:54:45.674
57.0, -8022.845747810095, -8068.890341388028, 0.0, -8573.145696299756, -24395.2079886446, -7206.336522857729, -6905.683208189394, -6809.995390176224, 0.062, 0.9580000000000001, 0.302, 192.0, 0.0, 0.0, 0.0, 0.0, 0.0, 0.0, 0.0, 0.0, 0.0, 1.730746485677952E9, 0.0, 2024-11-04 15:54:45.677
58.0, -7998.77291903173, -8045.018678309761, 0.0, -8577.057251579434, -24411.16713418569, -7188.008092404377, -6891.489850460273, -6829.486111341252, 0.062, 0.9580000000000001, 0.302, 192.0, 0.0, 0.0, 0.0, 0.0, 0.0, 0.0, 0.0, 0.0, 0.0, 1.730746485683064E9, 0.0, 2024-11-04 15:54:45.683
59.0, -8023.8962797994955, -8069.627948955053, 0.0, -8572.206923032632, -24388.793037985928, -7199.005150676388, -6902.531612221195, -6831.833044509059, 0.062, 0.9580000000000001, 0.302, 192.0, 0.0, 0.0, 0.0, 0.0, 0.0, 0.0, 0.0, 0.0, 0.0, 1.7307464856870468E9, 0.0, 2024-11-04 15:54:45.687
60.0, -8060.083754072637, -8106.061292417204, 0.0, -8587.98725461808, -24338.23339202802, -7230.901090014111, -6934.18168236991, -6834.045867210134, 0.062, 0.9580000000000001, 0.302, 192.0, 0.0, 0.0, 0.0, 0.0, 0.0, 0.0, 0.0, 0.0, 0.0, 1.7307464856911223E9, 0.0, 2024-11-04 15:54:45.691
61.0, -8071.863123400584, -8119.114711179103, 0.0, -8615.077568897912, -24302.649414855172, -7253.275186213874, -6955.125266924533, -6845.69112607135, 0.062, 0.9580000000000001, 0.302, 192.0, 0.0, 0.0, 0.0, 0.0, 0.0, 0.0, 0.0, 0.0, 0.0, 1.7307464856940882E9, 0.0, 2024-11-04 15:54:45.694
62.0, -8041.397695708, -8088.850449186618, 0.0, -8623.928859702213, -24321.82721159783, -7235.349087160717, -6938.808493472158, -6869.227512982788, 0.062, 0.9580000000000001, 0.302, 192.0, 0.0, 0.0, 0.0, 0.0, 0.0, 0.0, 0.0, 0.0, 0.0, 1.7307464856980371E9, 0.0, 2024-11-04 15:54:45.698
63.0, -8050.114876045571, -8096.360635323601, 0.0, -8610.338999073387, -24317.62508364023, -7230.05172372481, -6935.053400403667, -6873.317882218109, 0.136, 0.916, 0.308, 192.0, 4.0, 64.0, 28.0, 160.0, 9.0, 160.0, 0.0, 0.0, 0.0, 1.730746485701994E9, 0.0, 2024-11-04 15:54:45.701
64.0, -8073.807725168196, -8120.031132701771, 0.0, -8613.334132830398, -24284.835074524293, -7248.447209411527, -6954.387659357508, -6871.93207406188, 0.136, 0.916, 0.308, 192.0, 0.0, 0.0, 0.0, 0.0, 0.0, 0.0, 0.0, 0.0, 0.0, 1.7307464857060382E9, 0.0, 2024-11-04 15:54:45.706
65.0, -8081.764946194286, -8127.787188027763, 0.0, -8629.1368161603, -24264.47263532551, -7263.646395641136, -6976.985273001823, -6880.671606143905, 0.136, 0.916, 0.308, 192.0, 0.0, 0.0, 0.0, 0.0, 0.0, 0.0, 0.0, 0.0, 0.0, 1.7307464857111936E9, 0.0, 2024-11-04 15:54:45.711
66.0, -8042.738800375319, -8089.185725353447, 0.0, -8631.014362694546, -24296.636795596696, -7236.8019505503125, -6952.957147712368, -6898.329484263598, 0.136, 0.916, 0.308, 192.0, 0.0, 0.0, 0.0, 0.0, 0.0, 0.0, 0.0, 0.0, 0.0, 1.730746485715042E9, 0.0, 2024-11-04 15:54:45.715
67.0, -8032.680515370431, -8078.211018825891, 0.0, -8605.242801337577, -24316.261627228454, -7211.656238038092, -6928.861967189547, -6895.490812717773, 0.136, 0.916, 0.308, 192.0, 0.0, 0.0, 0.0, 0.0, 0.0, 0.0, 0.0, 0.0, 0.0, 1.730746485719E9, 0.0, 2024-11-04 15:54:45.719
68.0, -8053.869969114062, -8098.685216746952, 0.0, -8599.632513479295, -24300.79422006538, -7226.363685889684, -6936.886243449002, -6888.65117891445, 0.136, 0.916, 0.308, 192.0, 0.0, 0.0, 0.0, 0.0, 0.0, 0.0, 0.0, 0.0, 0.0, 1.7307464857219076E9, 0.0, 2024-11-04 15:54:45.721
69.0, -8070.589073966632, -8115.784301255263, 0.0, -8609.713150228637, -24280.90116750016, -7244.8485785542225, -6941.915385951446, -6885.879562601992, 0.136, 0.916, 0.308, 192.0, 0.0, 0.0, 0.0, 0.0, 0.0, 0.0, 0.0, 0.0, 0.0, 1.73074648572607E9, 0.0, 2024-11-04 15:54:45.726
70.0, -8039.251928240291, -8085.207114840403, 0.0, -8618.095054399379, -24307.63385386871, -7228.263584168385, -6928.504339278262, -6897.614228441028, 0.136, 0.916, 0.308, 192.0, 0.0, 0.0, 0.0, 0.0, 0.0, 0.0, 0.0, 0.0, 0.0, 1.7307464857299728E9, 0.0, 2024-11-04 15:54:45.729
71.0, -8026.578489134132, -8071.661957700487, 0.0, -8597.1291181003, -24336.087624560314, -7202.447319322506, -6908.298362290664, -6897.569524952117, 0.136, 0.916, 0.308, 192.0, 0.0, 0.0, 0.0, 0.0, 0.0, 0.0, 0.0, 0.0, 0.0, 1.7307464857341218E9, 0.0, 2024-11-04 15:54:45.734
72.0, -8051.008945823783, -8094.2148678558915, 0.0, -8588.300179040454, -24316.842772584292, -7213.578488061248, -6919.675400218416, -6883.353815478542, 0.136, 0.916, 0.308, 192.0, 0.0, 0.0, 0.0, 0.0, 0.0, 0.0, 0.0, 0.0, 0.0, 1.7307464857390199E9, 0.0, 2024-11-04 15:54:45.739
73.0, -8074.634739713042, -8116.857184989118, 0.0, -8598.403167534252, -24286.176179191614, -7234.678534827058, -6940.864853962047, -6875.754222363737, 0.196, 0.864, 0.268, 192.0, 6.0, 32.0, 27.0, 0.0, 8.0, 96.0, 0.0, 0.0, 0.0, 1.7307464857431607E9, 0.0, 2024-11-04 15:54:45.743
74.0, -8057.334489504635, -8100.2051353699135, 0.0, -8615.792824720482, -24293.149923461668, -7233.180967948552, -6939.635508017005, -6885.566638179617, 0.196, 0.864, 0.268, 192.0, 0.0, 0.0, 0.0, 0.0, 0.0, 0.0, 0.0, 0.0, 0.0, 1.730746485747277E9, 0.0, 2024-11-04 15:54:45.747
75.0, -8040.436570696423, -8082.547257250221, 0.0, -8604.974580404112, -24317.222752240035, -7211.767996760368, -6921.016504885734, -6892.987417338779, 0.196, 0.864, 0.268, 192.0, 0.0, 0.0, 0.0, 0.0, 0.0, 0.0, 0.0, 0.0, 0.0, 1.7307464857510436E9, 0.0, 2024-11-04 15:54:45.751
76.0, -8065.626986697554, -8106.597734284132, 0.0, -8596.972655889113, -24290.37830714921, -7225.179043433553, -6931.410066057452, -6881.923303833402, 0.196, 0.864, 0.268, 192.0, 0.0, 0.0, 0.0, 0.0, 0.0, 0.0, 0.0, 0.0, 0.0, 1.730746485754912E9, 0.0, 2024-11-04 15:54:45.754
77.0, -8097.344112079634, -8137.443141632455, 0.0, -8611.367179318331, -24246.99357116146, -7253.454000169516, -6957.85217974808, -6876.894161330958, 0.196, 0.864, 0.268, 192.0, 0.0, 0.0, 0.0, 0.0, 0.0, 0.0, 0.0, 0.0, 0.0, 1.7307464857589517E9, 0.0, 2024-11-04 15:54:45.758
78.0, -8095.712434734397, -8135.967926498405, 0.0, -8635.99880170808, -24229.402748275133, -7264.674575886081, -6968.603368831083, -6886.706577146838, 0.196, 0.864, 0.268, 192.0, 0.0, 0.0, 0.0, 0.0, 0.0, 0.0, 0.0, 0.0, 0.0, 1.730746485764068E9, 0.0, 2024-11-04 15:54:45.764
79.0, -8077.540466492233, -8117.013647200304, 0.0, -8636.490540086095, -24243.03731239287, -7249.028354767365, -6954.94645296889, -6901.928115120902, 0.196, 0.864, 0.268, 192.0, 0.0, 0.0, 0.0, 0.0, 0.0, 0.0, 0.0, 0.0, 0.0, 1.7307464857669902E9, 0.0, 2024-11-04 15:54:45.766
80.0, -8107.312990106701, -8146.2273772033905, 0.0, -8635.060028440956, -24213.55536145632, -7264.004023552421, -6970.123287454044, -6900.184679053388, 0.196, 0.864, 0.268, 192.0, 0.0, 0.0, 0.0, 0.0, 0.0, 0.0, 0.0, 0.0, 0.0, 1.7307464857713256E9, 0.0, 2024-11-04 15:54:45.771
81.0, -8142.338173668168, -8180.917284598027, 0.0, -8653.075534471935, -24161.900480020104, -7296.458756501527, -7002.1309855140435, -6900.207030797843, 0.196, 0.864, 0.268, 192.0, 0.0, 0.0, 0.0, 0.0, 0.0, 0.0, 0.0, 0.0, 0.0, 1.7307464857739277E9, 0.0, 2024-11-04 15:54:45.773
82.0, -8154.072839507204, -8192.070805081226, 0.0, -8682.445726686206, -24128.372863337143, -7318.16230036763, -7022.426369479463, -6912.634600714994, 0.196, 0.864, 0.268, 192.0, 0.0, 0.0, 0.0, 0.0, 0.0, 0.0, 0.0, 0.0, 0.0, 1.73074648577796E9, 0.0, 2024-11-04 15:54:45.777
83.0, -8131.810502029718, -8169.428487947999, 0.0, -8689.19595351171, -24134.474889573445, -7303.432500771582, -7008.4118257059845, -6932.773522469226, 0.10200000000000001, 0.884, 0.176, 192.0, 3.0, 48.0, 27.0, 160.0, 5.0, 128.0, 0.0, 0.0, 0.0, 1.7307464857820036E9, 0.0, 2024-11-04 15:54:45.782
84.0, -8154.966909285416, -8191.064976580737, 0.0, -8684.300921475999, -24107.272816571334, -7312.976695653999, -7017.821910121669, -6936.349801582075, 0.10200000000000001, 0.884, 0.176, 192.0, 0.0, 0.0, 0.0, 0.0, 0.0, 0.0, 0.0, 0.0, 0.0, 1.730746485786014E9, 0.0, 2024-11-04 15:54:45.786
85.0, -8193.613075448642, -8228.615907265652, 0.0, -8701.623523428862, -24054.76856884582, -7346.973698970521, -7050.008422137311, -6939.926080694924, 0.10200000000000001, 0.884, 0.176, 192.0, 0.0, 0.0, 0.0, 0.0, 0.0, 0.0, 0.0, 0.0, 0.0, 1.7307464857901192E9, 0.0, 2024-11-04 15:54:45.790
86.0, -8218.714084471952, -8253.806323266785, 0.0, -8735.598175000927, -24013.641359048055, -7378.98139703052, -7080.786774252269, -6955.818171002647, 0.10200000000000001, 0.884, 0.176, 192.0, 0.0, 0.0, 0.0, 0.0, 0.0, 0.0, 0.0, 0.0, 0.0, 1.730746485794078E9, 0.0, 2024-11-04 15:54:45.794
87.0, -8197.077595839215, -8232.214538122957, 0.0, -8750.976175186179, -24012.83669624766, -7369.571312614837, -7072.293111359252, -6979.823944547647, 0.10200000000000001, 0.884, 0.176, 192.0, 0.0, 0.0, 0.0, 0.0, 0.0, 0.0, 0.0, 0.0, 0.0, 1.7307464857991643E9, 0.0, 2024-11-04 15:54:45.799
88.0, -8213.707293713964, -8248.01722145286, 0.0, -8747.73517224016, -23992.787181471253, -7374.332234183817, -7078.998634695845, -6989.949284785901, 0.10200000000000001, 0.884, 0.176, 192.0, 0.0, 0.0, 0.0, 0.0, 0.0, 0.0, 0.0, 0.0, 0.0, 1.730746485802153E9, 0.0, 2024-11-04 15:54:45.802
89.0, -8251.548797076797, -8284.942303293026, 0.0, -8763.247282892142, -23942.942791335918, -7407.412815977671, -7111.565126367227, -6995.827793577647, 0.10200000000000001, 0.884, 0.176, 192.0, 0.0, 0.0, 0.0, 0.0, 0.0, 0.0, 0.0, 0.0, 0.0, 1.7307464858061113E9, 0.0, 2024-11-04 15:54:45.806
90.0, -8279.376718923655, -8312.144376295135, 0.0, -8791.946922772757, -23894.908892501462, -7440.493397771525, -7142.656402904559, -7008.747101872815, 0.10200000000000001, 0.884, 0.176, 192.0, 0.0, 0.0, 0.0, 0.0, 0.0, 0.0, 0.0, 0.0, 0.0, 1.7307464858099878E9, 0.0, 2024-11-04 15:54:45.809
91.0, -8260.06481171427, -8293.435966186044, 0.0, -8812.912859071834, -23889.186845920904, -7434.704295957601, -7138.454274946961, -7033.959869618401, 0.10200000000000001, 0.884, 0.176, 192.0, 0.0, 0.0, 0.0, 0.0, 0.0, 0.0, 0.0, 0.0, 0.0, 1.7307464858141177E9, 0.0, 2024-11-04 15:54:45.814
92.0, -8266.144486206113, -8299.40388195561, 0.0, -8809.135414258888, -23878.882691727005, -7431.7538656895, -7137.180225513009, -7048.644965725537, 0.10200000000000001, 0.884, 0.176, 192.0, 0.0, 0.0, 0.0, 0.0, 0.0, 0.0, 0.0, 0.0, 0.0, 1.730746485818038E9, 0.0, 2024-11-04 15:54:45.818
93.0, -8300.342655222734, -8333.266774805401, 0.0, -8818.634905652394, -23833.24042954927, -7460.006470681009, -7163.823504903735, -7052.958852405412, 0.006, 0.982, 0.07, 192.0, 0.0, 48.0, 30.0, 176.0, 2.0, 48.0, 0.0, 0.0, 0.0, 1.7307464858220322E9, 0.0, 2024-11-04 15:54:45.822
94.0, -8330.405751515122, -8363.106353653235, 0.0, -8843.355935019963, -23786.301766193126, -7491.656540829724, -7194.288932596319, -7063.307710088219, 0.006, 0.982, 0.07, 192.0, 0.0, 0.0, 0.0, 0.0, 0.0, 0.0, 0.0, 0.0, 0.0, 1.7307464858271737E9, 0.0, 2024-11-04 15:54:45.827
95.0, -8313.105501306713, -8346.633117989673, 0.0, -8866.84761844249, -23779.350373667523, -7492.327093163382, -7195.13829888562, -7087.179373166487, 0.006, 0.982, 0.07, 192.0, 0.0, 0.0, 0.0, 0.0, 0.0, 0.0, 0.0, 0.0, 0.0, 1.7307464858300676E9, 0.0, 2024-11-04 15:54:45.830
96.0, -8306.064701803292, -8339.391152786155, 0.0, -8861.594958495494, -23783.105466736015, -7478.983101723565, -7185.5046970253825, -7104.993713497367, 0.006, 0.982, 0.07, 192.0, 0.0, 0.0, 0.0, 0.0, 0.0, 0.0, 0.0, 0.0, 0.0, 1.7307464858339865E9, 0.0, 2024-11-04 15:54:45.833
97.0, -8334.384362028166, -8367.017908932914, 0.0, -8863.450153285285, -23749.667257030876, -7498.7196920776005, -7202.827298978245, -7108.190012954476, 0.006, 0.982, 0.07, 192.0, 0.0, 0.0, 0.0, 0.0, 0.0, 0.0, 0.0, 0.0, 0.0, 1.7307464858380432E9, 0.0, 2024-11-04 15:54:45.838
98.0, -8359.12774314019, -8390.330778399799, 0.0, -8878.76109823717, -23709.165896077862, -7523.619535400812, -7227.034238223343, -7112.906231034545, 0.006, 0.982, 0.07, 192.0, 0.0, 0.0, 0.0, 0.0, 0.0, 0.0, 0.0, 0.0, 0.0, 1.730746485842091E9, 0.0, 2024-11-04 15:54:45.842
99.0, -8345.917862167104, -8377.567932315818, 0.0, -8900.196421169809, -23702.438020996815, -7527.620497658312, -7229.358819646695, -7131.681696377003, 0.006, 0.982, 0.07, 192.0, 0.0, 0.0, 0.0, 0.0, 0.0, 0.0, 0.0, 0.0, 0.0, 1.7307464858459265E9, 0.0, 2024-11-04 15:54:45.845
100.0, -8326.404789257622, -8358.345432084256, 0.0, -8894.362615866974, -23719.35829154948, -7508.018017771008, -7211.924458971555, -7149.183112285508, 0.006, 0.982, 0.07, 192.0, 0.0, 0.0, 0.0, 0.0, 0.0, 0.0, 0.0, 0.0, 0.0, 1.7307464858499796E9, 0.0, 2024-11-04 15:54:45.849
101.0, -8347.50483602343, -8379.311368383333, 0.0, -8886.964188452266, -23696.425401738335, -7518.165709753717, -7221.7145230429805, -7146.74677213988, 0.006, 0.982, 0.07, 192.0, 0.0, 0.0, 0.0, 0.0, 0.0, 0.0, 0.0, 0.0, 0.0, 1.7307464858540845E9, 0.0, 2024-11-04 15:54:45.854
102.0, -8371.868237479715, -8404.747653573473, 0.0, -8897.156583923887, -23661.713142599245, -7539.846901875366, -7244.133322731653, -7145.696240150481, 0.006, 0.982, 0.07, 192.0, 0.0, 0.0, 0.0, 0.0, 0.0, 0.0, 0.0, 0.0, 0.0, 1.7307464858570867E9, 0.0, 2024-11-04 15:54:45.857
103.0, -8365.296824609855, -8400.433766893599, 0.0, -8916.490842877727, -23647.720950570223, -7548.20645430165, -7250.436514668049, -7155.665118177548, -0.09, 1.052, -0.01, 192.0, 253.0, 48.0, 32.0, 224.0, 255.0, 176.0, 0.0, 0.0, 0.0, 1.7307464858619905E9, 0.0, 2024-11-04 15:54:45.861
104.0, -8337.804178929828, -8373.94694971406, 0.0, -8913.898040520911, -23667.457540924257, -7525.541785423969, -7230.208185935997, -7171.870132907646, -0.09, 1.052, -0.01, 192.0, 0.0, 0.0, 0.0, 0.0, 0.0, 0.0, 0.0, 0.0, 0.0, 1.7307464858661883E9, 0.0, 2024-11-04 15:54:45.866
105.0, -8356.13260938318, -8391.940104000581, 0.0, -8904.733825294235, -23653.510052384147, -7531.7108668936335, -7236.24315693893, -7170.573731729238, -0.09, 1.052, -0.01, 192.0, 0.0, 0.0, 0.0, 0.0, 0.0, 0.0, 0.0, 0.0, 0.0, 1.7307464858700995E9, 0.0, 2024-11-04 15:54:45.870
106.0, -8383.491144596475, -8419.388046191698, 0.0, -8915.462662632783, -23622.7764037581, -7555.873102649821, -7260.025413039376, -7169.679661951025, -0.09, 1.052, -0.01, 192.0, 0.0, 0.0, 0.0, 0.0, 0.0, 0.0, 0.0, 0.0, 0.0, 1.730746485874082E9, 0.0, 2024-11-04 15:54:45.874
107.0, -8387.492106853975, -8424.953630561069, 0.0, -8935.445122175828, -23602.52572328159, -7570.513495268046, -7272.922369590088, -7176.362833543162, -0.09, 1.052, -0.01, 192.0, 0.0, 0.0, 0.0, 0.0, 0.0, 0.0, 0.0, 0.0, 0.0, 1.730746485878153E9, 0.0, 2024-11-04 15:54:45.878
108.0, -8358.591301273264, -8397.796261047872, 0.0, -8939.356677455507, -23622.083499679986, -7552.497989237069, -7255.040974025843, -7194.244229107408, -0.09, 1.052, -0.01, 192.0, 0.0, 0.0, 0.0, 0.0, 0.0, 0.0, 0.0, 0.0, 0.0, 1.7307464858811278E9, 0.0, 2024-11-04 15:54:45.881
109.0, -8371.309443868333, -8411.09554899878, 0.0, -8926.929107538355, -23611.756993741634, -7552.028602603508, -7255.689174615047, -7193.461918051472, -0.09, 1.052, -0.01, 192.0, 0.0, 0.0, 0.0, 0.0, 0.0, 0.0, 0.0, 0.0, 0.0, 1.7307464858849933E9, 0.0, 2024-11-04 15:54:45.884
110.0, -8399.942028515581, -8439.661078412662, 0.0, -8933.366409941484, -23574.407228756816, -7574.916788925742, -7278.666767915102, -7187.8516301931895, -0.09, 1.052, -0.01, 192.0, 0.0, 0.0, 0.0, 0.0, 0.0, 0.0, 0.0, 0.0, 0.0, 1.7307464858900244E9, 0.0, 2024-11-04 15:54:45.890
111.0, -8419.56686014734, -8459.10709608878, 0.0, -8956.76868638619, -23542.533641163547, -7599.526059571035, -7301.353788537239, -7192.769013973358, -0.09, 1.052, -0.01, 192.0, 0.0, 0.0, 0.0, 0.0, 0.0, 0.0, 0.0, 0.0, 0.0, 1.7307464858943565E9, 0.0, 2024-11-04 15:54:45.894
112.0, -8399.450290137565, -8439.728133646027, 0.0, -8973.465439494305, -23551.966077323686, -7592.418204834248, -7293.9777128669875, -7214.271392139362, -0.09, 1.052, -0.01, 192.0, 0.0, 0.0, 0.0, 0.0, 0.0, 0.0, 0.0, 0.0, 0.0, 1.7307464858981433E9, 0.0, 2024-11-04 15:54:45.898
113.0, -8412.28019145491, -8452.021593096446, 0.0, -8967.63163419147, -23542.71245511919, -7593.759309501566, -7296.078776845787, -7220.775749775858, -0.196, 1.114, -0.044, 192.0, 249.0, 224.0, 34.0, 208.0, 254.0, 160.0, 0.0, 0.0, 0.0, 1.7307464859020875E9, 0.0, 2024-11-04 15:54:45.902
114.0, -8447.126561060735, -8486.44327955762, 0.0, -8977.175829073885, -23499.864160998364, -7621.207251692683, -7322.900870192155, -7218.8534997527, -0.196, 1.114, -0.044, 192.0, 0.0, 0.0, 0.0, 0.0, 0.0, 0.0, 0.0, 0.0, 0.0, 1.7307464859061668E9, 0.0, 2024-11-04 15:54:45.906
115.0, -8472.272273572955, -8511.812509514393, 0.0, -8999.505221784739, -23454.512471498547, -7647.582310149945, -7349.052411204864, -7222.139206187631, -0.196, 1.114, -0.044, 192.0, 0.0, 0.0, 0.0, 0.0, 0.0, 0.0, 0.0, 0.0, 0.0, 1.7307464859101305E9, 0.0, 2024-11-04 15:54:45.910
116.0, -8453.38504950822, -8494.020520927968, 0.0, -9020.560565061638, -23451.763206930544, -7644.967156048675, -7346.213739659041, -7243.954508776011, -0.196, 1.114, -0.044, 192.0, 0.0, 0.0, 0.0, 0.0, 0.0, 0.0, 0.0, 0.0, 0.0, 1.7307464859130456E9, 0.0, 2024-11-04 15:54:45.913
117.0, -8455.039078597913, -8495.272218617465, 0.0, -9015.754940003746, -23451.047951107976, -7638.194577478716, -7342.3468878682725, -7258.773715349879, -0.196, 1.114, -0.044, 192.0, 0.0, 0.0, 0.0, 0.0, 0.0, 0.0, 0.0, 0.0, 0.0, 1.7307464859170308E9, 0.0, 2024-11-04 15:54:45.917
118.0, -8487.49381154702, -8527.101102721823, 0.0, -9022.259297640241, -23417.185058258183, -7661.485095201147, -7365.905626524166, -7261.72414561798, -0.196, 1.114, -0.044, 192.0, 0.0, 0.0, 0.0, 0.0, 0.0, 0.0, 0.0, 0.0, 0.0, 1.730746485922178E9, 0.0, 2024-11-04 15:54:45.922
119.0, -8514.338256637842, -8554.124361768289, 0.0, -9041.638260082991, -23378.561243839413, -7687.413118769303, -7392.213629748062, -7266.82034335379, -0.196, 1.114, -0.044, 192.0, 0.0, 0.0, 0.0, 0.0, 0.0, 0.0, 0.0, 0.0, 0.0, 1.7307464859261572E9, 0.0, 2024-11-04 15:54:45.926
120.0, -8496.926247707159, -8537.874643549281, 0.0, -9061.97834753732, -23375.141426937753, -7686.921380391286, -7390.403138447183, -7286.020491840898, -0.196, 1.114, -0.044, 192.0, 0.0, 0.0, 0.0, 0.0, 0.0, 0.0, 0.0, 0.0, 0.0, 1.730746485930448E9, 0.0, 2024-11-04 15:54:45.930
121.0, -8482.06233764438, -8522.87662301977, 0.0, -9052.612966610548, -23386.697278821146, -7668.1235633043725, -7374.086364994809, -7300.929105392588, -0.196, 1.114, -0.044, 192.0, 0.0, 0.0, 0.0, 0.0, 0.0, 0.0, 0.0, 0.0, 0.0, 1.730746485934179E9, 0.0, 2024-11-04 15:54:45.934
122.0, -8507.386864112243, -8548.067039020902, 0.0, -9050.534254376204, -23365.53017682197, -7683.590970467445, -7389.084385524319, -7302.270210059907, -0.196, 1.114, -0.044, 192.0, 0.0, 0.0, 0.0, 0.0, 0.0, 0.0, 0.0, 0.0, 0.0, 1.7307464859383628E9, 0.0, 2024-11-04 15:54:45.938
123.0, -8531.88437603526, -8572.609254432828, 0.0, -9062.783010337713, -23335.288266573938, -7706.389749811859, -7411.972571846554, -7304.527736249893, -0.252, 1.12, -0.054, 192.0, 248.0, 32.0, 35.0, 0.0, 254.0, 80.0, 0.0, 0.0, 0.0, 1.7307464859412024E9, 0.0, 2024-11-04 15:54:45.941
124.0, -8520.909669507702, -8562.707431639128, 0.0, -9083.123097792042, -23333.611885739792, -7711.083616147473, -7414.8335951368335, -7320.486881790982, -0.252, 1.12, -0.054, 192.0, 0.0, 0.0, 0.0, 0.0, 0.0, 0.0, 0.0, 0.0, 0.0, 1.7307464859452572E9, 0.0, 2024-11-04 15:54:45.945
125.0, -8496.322750606865, -8538.12051273829, 0.0, -9076.015243055253, -23359.226984885572, -7687.055490858018, -7393.018292548453, -7337.205986643552, -0.252, 1.12, -0.054, 192.0, 0.0, 0.0, 0.0, 0.0, 0.0, 0.0, 0.0, 0.0, 0.0, 1.7307464859504485E9, 0.0, 2024-11-04 15:54:45.950
126.0, -8513.354779881809, -8554.660803635217, 0.0, -9063.498266160283, -23347.492319046538, -7690.944694393242, -7397.265123994962, -7333.473245319516, -0.252, 1.12, -0.054, 192.0, 0.0, 0.0, 0.0, 0.0, 0.0, 0.0, 0.0, 0.0, 0.0, 1.7307464859545753E9, 0.0, 2024-11-04 15:54:45.954
127.0, -8536.555890626418, -8577.705452168639, 0.0, -9069.734402863312, -23321.586647222837, -7709.988380669163, -7416.219403293062, -7329.718152251024, -0.252, 1.12, -0.054, 192.0, 0.0, 0.0, 0.0, 0.0, 0.0, 0.0, 0.0, 0.0, 0.0, 1.7307464859582725E9, 0.0, 2024-11-04 15:54:45.958
128.0, -8533.940736525146, -8575.894960867758, 0.0, -9087.70520540538, -23313.450612241104, -7718.996133684652, -7423.081388840841, -7337.317745365828, -0.252, 1.12, -0.054, 192.0, 0.0, 0.0, 0.0, 0.0, 0.0, 0.0, 0.0, 0.0, 0.0, 1.7307464859613245E9, 0.0, 2024-11-04 15:54:45.961
129.0, -8505.084634433346, -8547.284727964965, 0.0, -9085.402975726483, -23342.12790037726, -7695.191525839749, -7400.975513574543, -7353.142780440186, -0.252, 1.12, -0.054, 192.0, 0.0, 0.0, 0.0, 0.0, 0.0, 0.0, 0.0, 0.0, 0.0, 1.7307464859652376E9, 0.0, 2024-11-04 15:54:45.965
130.0, -8519.993247985036, -8560.98634731607, 0.0, -9071.567245908647, -23339.445691042627, -7695.1244706063835, -7401.444900208105, -7350.21470191654, -0.252, 1.12, -0.054, 192.0, 0.0, 0.0, 0.0, 0.0, 0.0, 0.0, 0.0, 0.0, 0.0, 1.7307464859692783E9, 0.0, 2024-11-04 15:54:45.969
131.0, -8542.1661784847, -8582.332263270888, 0.0, -9074.629434899025, -23316.356339020294, -7712.33531383697, -7419.035723094431, -7343.7550477689565, -0.252, 1.12, -0.054, 192.0, 0.0, 0.0, 0.0, 0.0, 0.0, 0.0, 0.0, 0.0, 0.0, 1.7307464859733136E9, 0.0, 2024-11-04 15:54:45.973
132.0, -8546.904748309225, -8588.70251044065, 0.0, -9090.99091184031, -23306.052184826396, -7725.031104687585, -7429.362229032783, -7347.957175726554, -0.252, 1.12, -0.054, 192.0, 0.0, 0.0, 0.0, 0.0, 0.0, 0.0, 0.0, 0.0, 0.0, 1.730746485978463E9, 0.0, 2024-11-04 15:54:45.978
133.0, -8514.53942233794, -8557.745344370049, 0.0, -9091.884981618523, -23337.501089275014, -7700.71240672021, -7405.51291769897, -7363.089306722797, -0.268, 1.106, -0.068, 192.0, 247.0, 160.0, 34.0, 144.0, 253.0, 224.0, 0.0, 0.0, 0.0, 1.7307464859823167E9, 0.0, 2024-11-04 15:54:45.982
134.0, -8520.753207296517, -8563.2215217616, 0.0, -9073.042461042698, -23344.98892366754, -7690.162383337305, -7397.108661783775, -7359.736545054501, -0.268, 1.106, -0.068, 192.0, 0.0, 0.0, 0.0, 0.0, 0.0, 0.0, 0.0, 0.0, 0.0, 1.7307464859864569E9, 0.0, 2024-11-04 15:54:45.986
135.0, -8541.36151568431, -8583.785126660481, 0.0, -9070.919045319444, -23324.09004260183, -7704.0428166440515, -7410.966743346065, -7349.208873416052, -0.268, 1.106, -0.068, 192.0, 0.0, 0.0, 0.0, 0.0, 0.0, 0.0, 0.0, 0.0, 0.0, 1.7307464859893117E9, 0.0, 2024-11-04 15:54:45.989
136.0, -8550.369268699798, -8593.664597709727, 0.0, -9081.983158824822, -23306.253350526495, -7716.917421450308, -7422.343781273817, -7345.587890814292, -0.268, 1.106, -0.068, 192.0, 0.0, 0.0, 0.0, 0.0, 0.0, 0.0, 0.0, 0.0, 0.0, 1.7307464859933288E9, 0.0, 2024-11-04 15:54:45.993
137.0, -8516.104044449812, -8561.321623482898, 0.0, -9086.65467341598, -23332.226077583564, -7696.0632438735065, -7401.489603697015, -7357.45666712006, -0.268, 1.106, -0.068, 192.0, 0.0, 0.0, 0.0, 0.0, 0.0, 0.0, 0.0, 0.0, 0.0, 1.7307464859973717E9, 0.0, 2024-11-04 15:54:45.997
138.0, -8511.2090124141, -8556.337184469365, 0.0, -9067.678042373425, -23348.96753418059, -7680.484077988158, -7386.558638400869, -7357.210797931051, -0.268, 1.106, -0.068, 192.0, 0.0, 0.0, 0.0, 0.0, 0.0, 0.0, 0.0, 0.0, 0.0, 1.7307464860011773E9, 0.0, 2024-11-04 15:54:46.001
139.0, -8532.845501046837, -8577.683100424183, 0.0, -9065.107591761063, -23334.57301075137, -7696.175002595784, -7400.528478685436, -7349.11946643823, -0.268, 1.106, -0.068, 192.0, 0.0, 0.0, 0.0, 0.0, 0.0, 0.0, 0.0, 0.0, 0.0, 1.7307464860063806E9, 0.0, 2024-11-04 15:54:46.006
140.0, -8549.1175710103, -8594.960998888135, 0.0, -9076.551684922182, -23318.47975474355, -7713.05056965954, -7416.442920737615, -7346.437257103594, -0.268, 1.106, -0.068, 192.0, 0.0, 0.0, 0.0, 0.0, 0.0, 0.0, 0.0, 0.0, 0.0, 1.7307464860103536E9, 0.0, 2024-11-04 15:54:46.010
141.0, -8515.388788627242, -8563.467390950607, 0.0, -9081.893751847, -23337.724606719567, -7694.588028739457, -7397.622751906247, -7353.254539162463, -0.268, 1.106, -0.068, 192.0, 0.0, 0.0, 0.0, 0.0, 0.0, 0.0, 0.0, 0.0, 0.0, 1.7307464860141819E9, 0.0, 2024-11-04 15:54:46.014
142.0, -8498.11089016329, -8546.79298958695, 0.0, -9061.330146948118, -23362.95972620961, -7669.151743549317, -7375.31571093985, -7353.3215943958285, -0.268, 1.106, -0.068, 192.0, 0.0, 0.0, 0.0, 0.0, 0.0, 0.0, 0.0, 0.0, 0.0, 1.7307464860173604E9, 0.0, 2024-11-04 15:54:46.017
143.0, -8515.16527118269, -8564.093239795357, 0.0, -9050.713068331846, -23349.727493492068, -7677.42188899778, -7382.915304054654, -7340.625803545214, -0.188, 1.052, -0.074, 192.0, 250.0, 32.0, 32.0, 224.0, 253.0, 176.0, 0.0, 0.0, 0.0, 1.7307464860214083E9, 0.0, 2024-11-04 15:54:46.021
144.0, -8529.760960312005, -8579.65005393625, 0.0, -9055.898673045478, -23328.649798470713, -7693.939828150253, -7397.354530972783, -7332.7803412414005, -0.188, 1.052, -0.074, 192.0, 0.0, 0.0, 0.0, 0.0, 0.0, 0.0, 0.0, 0.0, 0.0, 1.7307464860252829E9, 0.0, 2024-11-04 15:54:46.025
145.0, -8504.570544310875, -8556.44894319164, 0.0, -9065.46521967235, -23339.28922883144, -7686.116717590895, -7386.312769211861, -7338.50238782196, -0.188, 1.052, -0.074, 192.0, 0.0, 0.0, 0.0, 0.0, 0.0, 0.0, 0.0, 0.0, 0.0, 1.7307464860292313E9, 0.0, 2024-11-04 15:54:46.029
146.0, -8482.352910322299, -8534.767751069994, 0.0, -9050.489550887294, -23370.358153624315, -7657.841760854932, -7362.642271833691, -7342.480998335004, -0.188, 1.052, -0.074, 192.0, 0.0, 0.0, 0.0, 0.0, 0.0, 0.0, 0.0, 0.0, 0.0, 1.730746486034516E9, 0.0, 2024-11-04 15:54:46.034
147.0, -8500.34606460882, -8552.515036167508, 0.0, -9039.872472271023, -23361.640973286747, -7665.419002225281, -7370.241864948495, -7331.64040227418, -0.188, 1.052, -0.074, 192.0, 0.0, 0.0, 0.0, 0.0, 0.0, 0.0, 0.0, 0.0, 0.0, 1.7307464860384016E9, 0.0, 2024-11-04 15:54:46.038
148.0, -8521.759035797004, -8573.995062589058, 0.0, -9047.494417130281, -23341.39029281024, -7684.28387454556, -7389.151440757685, -7325.78424522689, -0.188, 1.052, -0.074, 192.0, 0.0, 0.0, 0.0, 0.0, 0.0, 0.0, 0.0, 0.0, 0.0, 1.7307464860425413E9, 0.0, 2024-11-04 15:54:46.042
149.0, -8511.96897172558, -8564.584978173372, 0.0, -9065.241702227797, -23346.754711479512, -7688.910685647808, -7391.788946603411, -7333.7191145085235, -0.188, 1.052, -0.074, 192.0, 0.0, 0.0, 0.0, 0.0, 0.0, 0.0, 0.0, 0.0, 0.0, 1.73074648604521E9, 0.0, 2024-11-04 15:54:46.045
150.0, -8480.832991699337, -8533.806626058415, 0.0, -9054.959899778354, -23378.33772639486, -7661.663909156789, -7365.8385712908, -7341.4081146011495, -0.188, 1.052, -0.074, 192.0, 0.0, 0.0, 0.0, 0.0, 0.0, 0.0, 0.0, 0.0, 0.0, 1.7307464860493214E9, 0.0, 2024-11-04 15:54:46.049
151.0, -8495.562791295384, -8549.45284717713, 0.0, -9039.671306570925, -23369.218214657096, -7664.793153380532, -7367.559655613859, -7330.7239807515125, -0.188, 1.052, -0.074, 192.0, 0.0, 0.0, 0.0, 0.0, 0.0, 0.0, 0.0, 0.0, 0.0, 1.7307464860533729E9, 0.0, 2024-11-04 15:54:46.053
152.0, -8521.40140788572, -8575.246760278555, 0.0, -9047.852045041567, -23342.75374922201, -7687.9048571473195, -7389.978455302532, -7324.577251026303, -0.188, 1.052, -0.074, 192.0, 0.0, 0.0, 0.0, 0.0, 0.0, 0.0, 0.0, 0.0, 0.0, 1.7307464860574064E9, 0.0, 2024-11-04 15:54:46.057
153.0, -8524.418893387186, -8579.314777769421, 0.0, -9068.54976040718, -23331.264952571983, -7702.433491043269, -7402.406025219682, -7329.852262717755, -0.1, 1.02, -0.054, 192.0, 252.0, 224.0, 31.0, 224.0, 254.0, 80.0, 0.0, 0.0, 0.0, 1.7307464860614524E9, 0.0, 2024-11-04 15:54:46.061
154.0, -8494.355797094799, -8549.586957643862, 0.0, -9069.220312740841, -23356.34360985084, -7679.18767680975, -7382.647083121191, -7342.369239612728, -0.1, 1.02, -0.054, 192.0, 0.0, 0.0, 0.0, 0.0, 0.0, 0.0, 0.0, 0.0, 0.0, 1.7307464860663228E9, 0.0, 2024-11-04 15:54:46.066
155.0, -8511.566640325385, -8566.239007263066, 0.0, -9060.41372542545, -23351.85090921532, -7683.210990811705, -7387.922094812643, -7341.184597156596, -0.1, 1.02, -0.054, 192.0, 0.0, 0.0, 0.0, 0.0, 0.0, 0.0, 0.0, 0.0, 0.0, 1.7307464860703413E9, 0.0, 2024-11-04 15:54:46.070
156.0, -8541.249756962032, -8596.190344833178, 0.0, -9071.097859275087, -23322.167792578675, -7709.831918457976, -7413.000752091498, -7338.860015733245, -0.1, 1.02, -0.054, 192.0, 0.0, 0.0, 0.0, 0.0, 0.0, 0.0, 0.0, 0.0, 0.0, 1.7307464860733871E9, 0.0, 2024-11-04 15:54:46.073
157.0, -8549.54225415495, -8605.108690870844, 0.0, -9089.046310072697, -23296.351527732793, -7726.931002966286, -7428.334048787839, -7341.162245412141, -0.1, 1.02, -0.054, 192.0, 0.0, 0.0, 0.0, 0.0, 0.0, 0.0, 0.0, 0.0, 0.0, 1.730746486077534E9, 0.0, 2024-11-04 15:54:46.077
158.0, -8518.473329362074, -8574.88913236727, 0.0, -9097.405862498983, -23319.396176266215, -7709.407235313325, -7411.972571846554, -7358.753068298468, -0.1, 1.02, -0.054, 192.0, 0.0, 0.0, 0.0, 0.0, 0.0, 0.0, 0.0, 0.0, 0.0, 1.7307464860813715E9, 0.0, 2024-11-04 15:54:46.081
159.0, -8525.335314909855, -8581.237027792577, 0.0, -9085.492382704304, -23323.91122864619, -7704.087520132962, -7407.926906100143, -7361.0105944884535, -0.1, 1.02, -0.054, 192.0, 0.0, 0.0, 0.0, 0.0, 0.0, 0.0, 0.0, 0.0, 0.0, 1.7307464860852053E9, 0.0, 2024-11-04 15:54:46.085
160.0, -8551.64331813375, -8607.276810083009, 0.0, -9090.677987417936, -23298.117315544765, -7726.19339539926, -7428.557566232392, -7358.104867709264, -0.1, 1.02, -0.054, 192.0, 0.0, 0.0, 0.0, 0.0, 0.0, 0.0, 0.0, 0.0, 0.0, 1.730746486089232E9, 0.0, 2024-11-04 15:54:46.089
161.0, -8565.300233995942, -8621.51487130104, 0.0, -9106.99476087031, -23274.782094333423, -7745.3711921419135, -7447.0648106413855, -7361.278815421917, -0.1, 1.02, -0.054, 192.0, 0.0, 0.0, 0.0, 0.0, 0.0, 0.0, 0.0, 0.0, 0.0, 1.7307464860943651E9, 0.0, 2024-11-04 15:54:46.094
162.0, -8530.967954512591, -8588.121365084811, 0.0, -9115.354313296595, -23297.826742866844, -7727.914479722319, -7430.189243577629, -7376.634463862713, -0.1, 1.02, -0.054, 192.0, 0.0, 0.0, 0.0, 0.0, 0.0, 0.0, 0.0, 0.0, 0.0, 1.730746486097412E9, 0.0, 2024-11-04 15:54:46.097
163.0, -8521.915498008191, -8578.621873691305, 0.0, -9097.629379943535, -23318.07742334335, -7709.608401013423, -7414.207746292084, -7380.590722631303, 0.002, 0.992, -0.01, 192.0, 0.0, 16.0, 31.0, 0.0, 255.0, 176.0, 0.0, 0.0, 0.0, 1.730746486101354E9, 0.0, 2024-11-04 15:54:46.101
