%OpenBCI Raw EXG Data
%Number of channels = 8
%Sample Rate = 250 Hz
%Board = OpenBCI_GUI$BoardCytonSerial
Sample Index, EXG Channel 0, EXG Channel 1, EXG Channel 2, EXG Channel 3, EXG Channel 4, EXG Channel 5, EXG Channel 6, EXG Channel 7, Accel Channel 0, Accel Channel 1, Accel Channel 2, Not Used, Digital Channel 0 (D11), Digital Channel 1 (D12), Digital Channel 2 (D13), Digital Channel 3 (D17), Not Used, Digital Channel 4 (D18), Analog Channel 0, Analog Channel 1, Analog Channel 2, Timestamp, Marker Channel, Timestamp (Formatted)
0.0, -178936.46555381603, -147285.63544578975, 85449.33324448267, -187500.02235174447, -187500.02235174447, -160186.52590352605, -177546.8128975407, -161175.52354044004, 0.116, 0.352, 0.372, 192.0, 3.0, 160.0, 11.0, 0.0, 11.0, 160.0, 0.0, 0.0, 0.0, 1.730829726321177E9, 0.0, 2024-11-05 15:02:06.321
1.0, -178942.2993591189, -147274.39251832874, 85438.26913097729, -187500.02235174447, -187500.02235174447, -160193.7678687296, -177550.6126940981, -161174.33889798392, 0.116, 0.352, 0.372, 192.0, 0.0, 0.0, 0.0, 0.0, 0.0, 0.0, 0.0, 0.0, 0.0, 1.7308297263213046E9, 0.0, 2024-11-05 15:02:06.321
2.0, -178951.32946387882, -147239.36733476727, 85426.89209304954, -187500.02235174447, -187500.02235174447, -160168.6445079618, -177570.99748504133, -161171.74609562708, 0.116, 0.352, 0.372, 192.0, 0.0, 0.0, 0.0, 0.0, 0.0, 0.0, 0.0, 0.0, 0.0, 1.7308297263213196E9, 0.0, 2024-11-05 15:02:06.321
3.0, -178945.92034172063, -147226.35861949428, 85414.88920627705, -187500.02235174447, -187500.02235174447, -160178.9039586668, -177568.4717379179, -161164.77235135704, 0.116, 0.352, 0.372, 192.0, 0.0, 0.0, 0.0, 0.0, 0.0, 0.0, 0.0, 0.0, 0.0, 1.730829726321332E9, 0.0, 2024-11-05 15:02:06.321
4.0, -178933.67158575912, -147236.8415876438, 85401.4558078594, -187500.02235174447, -187500.02235174447, -160225.73086330068, -177544.7565370508, -161157.21746173114, 0.116, 0.352, 0.372, 192.0, 0.0, 0.0, 0.0, 0.0, 0.0, 0.0, 0.0, 0.0, 0.0, 1.7308297263213444E9, 0.0, 2024-11-05 15:02:06.321
5.0, -178935.41502182663, -147228.41497998417, 85387.84359548612, -187500.02235174447, -187500.02235174447, -160240.34890417443, -177540.82263002667, -161153.1941477292, 0.116, 0.352, 0.372, 192.0, 0.0, 0.0, 0.0, 0.0, 0.0, 0.0, 0.0, 0.0, 0.0, 1.7308297263213568E9, 0.0, 2024-11-05 15:02:06.321
6.0, -178944.9368649646, -147192.87570630023, 85374.76782497976, -187500.02235174447, -187500.02235174447, -160213.19153466125, -177559.88866804703, -161149.50610989405, 0.116, 0.352, 0.372, 192.0, 0.0, 0.0, 0.0, 0.0, 0.0, 0.0, 0.0, 0.0, 0.0, 1.7308297263213685E9, 0.0, 2024-11-05 15:02:06.321
7.0, -178940.31005386234, -147173.85437176877, 85361.40148179549, -187500.02235174447, -187500.02235174447, -160212.07394743848, -177561.5650488812, -161141.6829993347, 0.186, 0.506, 0.556, 192.0, 5.0, 208.0, 15.0, 208.0, 17.0, 96.0, 0.0, 0.0, 0.0, 1.7308297263213804E9, 0.0, 2024-11-05 15:02:06.321
8.0, -178926.2284548555, -147186.0360724969, 85348.21395256686, -187500.02235174447, -187500.02235174447, -160257.06800902702, -177538.2521794143, -161133.4352056307, 0.186, 0.506, 0.556, 192.0, 0.0, 0.0, 0.0, 0.0, 0.0, 0.0, 0.0, 0.0, 0.0, 1.7308297263213935E9, 0.0, 2024-11-05 15:02:06.321
9.0, -178925.75906822196, -147186.81838355283, 85335.87578962753, -187500.02235174447, -187500.02235174447, -160282.57134945053, -177529.84792349912, -161129.9706852401, 0.186, 0.506, 0.556, 192.0, 0.0, 0.0, 0.0, 0.0, 0.0, 0.0, 0.0, 0.0, 0.0, 1.7308297263214052E9, 0.0, 2024-11-05 15:02:06.321
10.0, -178938.05252767238, -147156.21884539354, 85324.49875169978, -187500.02235174447, -187500.02235174447, -160259.5267009171, -177549.29394117522, -161128.4284148727, 0.186, 0.506, 0.556, 192.0, 0.0, 0.0, 0.0, 0.0, 0.0, 0.0, 0.0, 0.0, 0.0, 1.730829726321417E9, 0.0, 2024-11-05 15:02:06.321
11.0, -178937.27021661642, -147132.235423593, 85311.3335742156, -187500.02235174447, -187500.02235174447, -160249.1331397454, -177556.67001684548, -161121.65583630276, 0.186, 0.506, 0.556, 192.0, 0.0, 0.0, 0.0, 0.0, 0.0, 0.0, 0.0, 0.0, 0.0, 1.7308297263214285E9, 0.0, 2024-11-05 15:02:06.321
12.0, -178921.04285014188, -147140.14794113016, 85296.35790543054, -187500.02235174447, -187500.02235174447, -160289.075707087, -177533.98299622335, -161111.70931002015, 0.186, 0.506, 0.556, 192.0, 0.0, 0.0, 0.0, 0.0, 0.0, 0.0, 0.0, 0.0, 0.0, 1.7308297263214407E9, 0.0, 2024-11-05 15:02:06.321
13.0, -178916.41603903964, -147145.69117375507, 85283.10332096856, -187500.02235174447, -187500.02235174447, -160323.18446912582, -177519.87904547204, -161106.7248710066, 0.186, 0.506, 0.556, 192.0, 0.0, 0.0, 0.0, 0.0, 0.0, 0.0, 0.0, 0.0, 0.0, 1.7308297263214521E9, 0.0, 2024-11-05 15:02:06.321
14.0, -178927.10017288927, -147117.59503097477, 85270.0275504622, -187500.02235174447, -187500.02235174447, -160304.45370727227, -177535.07823170166, -161103.9756064386, 0.186, 0.506, 0.556, 192.0, 0.0, 0.0, 0.0, 0.0, 0.0, 0.0, 0.0, 0.0, 0.0, 1.7308297263214638E9, 0.0, 2024-11-05 15:02:06.321
15.0, -178929.2235886125, -147088.60481841624, 85256.41533808892, -187500.02235174447, -187500.02235174447, -160285.54413146307, -177546.58938009615, -161097.4265453132, 0.186, 0.506, 0.556, 192.0, 0.0, 0.0, 0.0, 0.0, 0.0, 0.0, 0.0, 0.0, 0.0, 1.730829726321617E9, 0.0, 2024-11-05 15:02:06.321
16.0, -178915.2313965835, -147093.38809172966, 85243.116050138, -187500.02235174447, -187500.02235174447, -160320.3905010689, -177528.81974325416, -161088.86582718682, 0.186, 0.506, 0.556, 192.0, 0.0, 0.0, 0.0, 0.0, 0.0, 0.0, 0.0, 0.0, 0.0, 1.7308297263216293E9, 0.0, 2024-11-05 15:02:06.321
17.0, -178906.87184415723, -147102.79817614536, 85229.4144307869, -187500.02235174447, -187500.02235174447, -160361.38360039995, -177509.82076046715, -161082.78615269496, 0.224, 0.59, 0.638, 192.0, 7.0, 0.0, 18.0, 112.0, 19.0, 240.0, 0.0, 0.0, 0.0, 1.730829726321642E9, 0.0, 2024-11-05 15:02:06.321
18.0, -178916.2819285729, -147080.02174854538, 85216.33866028055, -187500.02235174447, -187500.02235174447, -160350.83357701704, -177521.26485362826, -161080.34981254934, 0.224, 0.59, 0.638, 192.0, 0.0, 0.0, 0.0, 0.0, 0.0, 0.0, 0.0, 0.0, 0.0, 1.7308297263216553E9, 0.0, 2024-11-05 15:02:06.321
19.0, -178923.54624552088, -147049.42221038608, 85204.40282874141, -187500.02235174447, -187500.02235174447, -160327.81128022805, -177538.54275209224, -161076.59471948084, 0.224, 0.59, 0.638, 192.0, 0.0, 0.0, 0.0, 0.0, 0.0, 0.0, 0.0, 0.0, 0.0, 1.7308297263216667E9, 0.0, 2024-11-05 15:02:06.321
20.0, -178911.05162037036, -147048.48343711896, 85190.36593322348, -187500.02235174447, -187500.02235174447, -160353.67224856286, -177524.68467052994, -161067.43050425418, 0.224, 0.59, 0.638, 192.0, 0.0, 0.0, 0.0, 0.0, 0.0, 0.0, 0.0, 0.0, 0.0, 1.7308297263216789E9, 0.0, 2024-11-05 15:02:06.321
21.0, -178899.80869290934, -147060.8663035472, 85176.44079642782, -187500.02235174447, -187500.02235174447, -160400.119173541, -177502.73525747482, -161060.70262917312, 0.224, 0.59, 0.638, 192.0, 0.0, 0.0, 0.0, 0.0, 0.0, 0.0, 0.0, 0.0, 0.0, 1.730829726321699E9, 0.0, 2024-11-05 15:02:06.321
22.0, -178908.36941103573, -147045.5106551064, 85164.86259279998, -187500.02235174447, -187500.02235174447, -160400.58856017454, -177510.78188547873, -161059.65209718372, 0.224, 0.59, 0.638, 192.0, 0.0, 0.0, 0.0, 0.0, 0.0, 0.0, 0.0, 0.0, 0.0, 1.7308297263217375E9, 0.0, 2024-11-05 15:02:06.321
23.0, -178917.19835009557, -147011.80422446778, 85151.71976706026, -187500.02235174447, -187500.02235174447, -160372.67123134987, -177529.22207465436, -161055.42761748168, 0.224, 0.59, 0.638, 192.0, 0.0, 0.0, 0.0, 0.0, 0.0, 0.0, 0.0, 0.0, 0.0, 1.7308297263217492E9, 0.0, 2024-11-05 15:02:06.321
24.0, -178908.54822499136, -147005.85866044267, 85138.97927272074, -187500.02235174447, -187500.02235174447, -160389.7703158582, -177521.93540596194, -161047.85037611134, 0.224, 0.59, 0.638, 192.0, 0.0, 0.0, 0.0, 0.0, 0.0, 0.0, 0.0, 0.0, 0.0, 1.7308297263217623E9, 0.0, 2024-11-05 15:02:06.321
25.0, -178894.1760533066, -147018.30858210428, 85123.95890044677, -187500.02235174447, -187500.02235174447, -160437.40188329242, -177497.1920248499, -161039.22260275157, 0.224, 0.59, 0.638, 192.0, 0.0, 0.0, 0.0, 0.0, 0.0, 0.0, 0.0, 0.0, 0.0, 1.7308297263217745E9, 0.0, 2024-11-05 15:02:06.321
26.0, -178897.26059404144, -147006.953895921, 85110.1455223734, -187500.02235174447, -187500.02235174447, -160446.3202293301, -177497.48259752782, -161035.57926840536, 0.224, 0.59, 0.638, 192.0, 0.0, 0.0, 0.0, 0.0, 0.0, 0.0, 0.0, 0.0, 0.0, 1.730829726321786E9, 0.0, 2024-11-05 15:02:06.321
27.0, -178908.59292848027, -146973.76155540487, 85097.9861733897, -187500.02235174447, -187500.02235174447, -160418.91699062788, -177518.04620242672, -161033.07587302636, 0.224, 0.636, 0.6900000000000001, 192.0, 7.0, 0.0, 19.0, 224.0, 21.0, 144.0, 0.0, 0.0, 0.0, 1.7308297263217976E9, 0.0, 2024-11-05 15:02:06.321
28.0, -178903.89906214466, -146961.91513084355, 85085.08921683898, -187500.02235174447, -187500.02235174447, -160425.75662443123, -177516.7498012483, -161026.30329445642, 0.224, 0.636, 0.6900000000000001, 192.0, 0.0, 0.0, 0.0, 0.0, 0.0, 0.0, 0.0, 0.0, 0.0, 1.7308297263218095E9, 0.0, 2024-11-05 15:02:06.321
29.0, -178890.73388466047, -146976.06378508377, 85073.10868181095, -187500.02235174447, -187500.02235174447, -160476.1821599224, -177494.8003881932, -161020.1565647312, 0.224, 0.636, 0.6900000000000001, 192.0, 0.0, 0.0, 0.0, 0.0, 0.0, 0.0, 0.0, 0.0, 0.0, 1.7308297263218212E9, 0.0, 2024-11-05 15:02:06.321
30.0, -178891.33738176076, -146968.06186056876, 85059.9211525823, -187500.02235174447, -187500.02235174447, -160497.125744477, -177490.4865015133, -161016.84850655182, 0.224, 0.636, 0.6900000000000001, 192.0, 0.0, 0.0, 0.0, 0.0, 0.0, 0.0, 0.0, 0.0, 0.0, 1.7308297263218577E9, 0.0, 2024-11-05 15:02:06.321
31.0, -178906.51421624594, -146930.15330197255, 85048.90174256584, -187500.02235174447, -187500.02235174447, -160474.70694478834, -177512.03358316823, -161016.46852689606, 0.224, 0.636, 0.6900000000000001, 192.0, 0.0, 0.0, 0.0, 0.0, 0.0, 0.0, 0.0, 0.0, 0.0, 1.7308297263218694E9, 0.0, 2024-11-05 15:02:06.321
32.0, -178905.39662902316, -146905.7675487718, 85035.51304763711, -187500.02235174447, -187500.02235174447, -160472.628232554, -177515.65456577, -161009.91946577068, 0.224, 0.636, 0.6900000000000001, 192.0, 0.0, 0.0, 0.0, 0.0, 0.0, 0.0, 0.0, 0.0, 0.0, 1.7308297263218813E9, 0.0, 2024-11-05 15:02:06.321
33.0, -178891.56089920533, -146914.1271011981, 85023.55486435353, -187500.02235174447, -187500.02235174447, -160521.62325640002, -177495.2474230823, -161003.68332906763, 0.224, 0.636, 0.6900000000000001, 192.0, 0.0, 0.0, 0.0, 0.0, 0.0, 0.0, 0.0, 0.0, 0.0, 1.7308297263218932E9, 0.0, 2024-11-05 15:02:06.321
34.0, -178888.14108230366, -146911.9366302415, 85010.03205895807, -187500.02235174447, -187500.02235174447, -160551.61929745905, -177485.61382122207, -160999.6600150657, 0.224, 0.636, 0.6900000000000001, 192.0, 0.0, 0.0, 0.0, 0.0, 0.0, 0.0, 0.0, 0.0, 0.0, 1.730829726321905E9, 0.0, 2024-11-05 15:02:06.321
35.0, -178899.94280337606, -146879.88422869256, 84996.2633843736, -187500.02235174447, -187500.02235174447, -160528.6864076479, -177502.3105743302, -160996.5531225864, 0.224, 0.636, 0.6900000000000001, 192.0, 0.0, 0.0, 0.0, 0.0, 0.0, 0.0, 0.0, 0.0, 0.0, 1.7308297263219163E9, 0.0, 2024-11-05 15:02:06.321
36.0, -178903.49673074446, -146856.6607662035, 84984.26049760109, -187500.02235174447, -187500.02235174447, -160517.75640460927, -177512.1006384016, -160991.9486632286, 0.224, 0.636, 0.6900000000000001, 192.0, 0.0, 0.0, 0.0, 0.0, 0.0, 0.0, 0.0, 0.0, 0.0, 1.7308297263219278E9, 0.0, 2024-11-05 15:02:06.321
37.0, -178886.8223293808, -146862.09224010614, 84969.46364277169, -187500.02235174447, -187500.02235174447, -160556.73784693933, -177491.4476265249, -160982.6503375352, 0.23600000000000002, 0.666, 0.722, 192.0, 7.0, 96.0, 20.0, 208.0, 22.0, 144.0, 0.0, 0.0, 0.0, 1.7308297263219392E9, 0.0, 2024-11-05 15:02:06.321
38.0, -178881.43555896706, -146869.11068786512, 84958.28777054403, -187500.02235174447, -187500.02235174447, -160595.8533997361, -177479.4447397524, -160980.12459041175, 0.23600000000000002, 0.666, 0.722, 192.0, 0.0, 0.0, 0.0, 0.0, 0.0, 0.0, 0.0, 0.0, 0.0, 1.730829726321952E9, 0.0, 2024-11-05 15:02:06.321
39.0, -178892.90200387264, -146843.33912650813, 84945.14494480431, -187500.02235174447, -187500.02235174447, -160579.0448879057, -177493.3475248036, -160977.62119503276, 0.23600000000000002, 0.666, 0.722, 192.0, 0.0, 0.0, 0.0, 0.0, 0.0, 0.0, 0.0, 0.0, 0.0, 1.7308297263219635E9, 0.0, 2024-11-05 15:02:06.321
40.0, -178898.22171905302, -146815.46650117237, 84931.3986219643, -187500.02235174447, -187500.02235174447, -160558.21306207337, -177505.23865285382, -160971.69798275208, 0.23600000000000002, 0.666, 0.722, 192.0, 0.0, 0.0, 0.0, 0.0, 0.0, 0.0, 0.0, 0.0, 0.0, 1.7308297263219752E9, 0.0, 2024-11-05 15:02:06.321
41.0, -178886.19648053605, -146820.58505065265, 84919.86512182535, -187500.02235174447, -187500.02235174447, -160592.5676933012, -177491.648792225, -160965.70771523807, 0.23600000000000002, 0.666, 0.722, 192.0, 0.0, 0.0, 0.0, 0.0, 0.0, 0.0, 0.0, 0.0, 0.0, 1.730829726321987E9, 0.0, 2024-11-05 15:02:06.321
42.0, -178875.11001528622, -146829.7939693682, 84906.56583387445, -187500.02235174447, -187500.02235174447, -160634.90189729954, -177474.34854201658, -160960.56681401335, 0.23600000000000002, 0.666, 0.722, 192.0, 0.0, 0.0, 0.0, 0.0, 0.0, 0.0, 0.0, 0.0, 0.0, 1.7308297263219984E9, 0.0, 2024-11-05 15:02:06.321
43.0, -178882.48609095646, -146807.77750107975, 84891.32194415593, -187500.02235174447, -187500.02235174447, -160624.24011519435, -177482.26105955377, -160956.05176163337, 0.23600000000000002, 0.666, 0.722, 192.0, 0.0, 0.0, 0.0, 0.0, 0.0, 0.0, 0.0, 0.0, 0.0, 1.7308297263220189E9, 0.0, 2024-11-05 15:02:06.322
44.0, -178890.89034687166, -146777.155611176, 84876.72625502662, -187500.02235174447, -187500.02235174447, -160597.52978057024, -177496.40971379398, -160950.17325284163, 0.23600000000000002, 0.666, 0.722, 192.0, 0.0, 0.0, 0.0, 0.0, 0.0, 0.0, 0.0, 0.0, 0.0, 1.7308297263220305E9, 0.0, 2024-11-05 15:02:06.322
45.0, -178880.6308961667, -146776.57446582013, 84864.52220255401, -187500.02235174447, -187500.02235174447, -160621.71436807088, -177486.61964972256, -160943.5347847384, 0.23600000000000002, 0.666, 0.722, 192.0, 0.0, 0.0, 0.0, 0.0, 0.0, 0.0, 0.0, 0.0, 0.0, 1.7308297263220487E9, 0.0, 2024-11-05 15:02:06.322
46.0, -178865.20819249252, -146786.72215780284, 84850.21708610262, -187500.02235174447, -187500.02235174447, -160666.3284500037, -177466.0336930792, -160936.40457825718, 0.23600000000000002, 0.666, 0.722, 192.0, 0.0, 0.0, 0.0, 0.0, 0.0, 0.0, 0.0, 0.0, 0.0, 1.7308297263220613E9, 0.0, 2024-11-05 15:02:06.322
47.0, -178870.70672162852, -146771.5900268066, 84836.20254232915, -187500.02235174447, -187500.02235174447, -160666.0825808147, -177470.4816902258, -160932.76124391094, 0.27, 0.6940000000000001, 0.734, 192.0, 8.0, 112.0, 21.0, 176.0, 22.0, 240.0, 0.0, 0.0, 0.0, 1.730829726322073E9, 0.0, 2024-11-05 15:02:06.322
48.0, -178882.59784967874, -146740.83402643612, 84822.50092297804, -187500.02235174447, -187500.02235174447, -160637.53940314526, -177487.133739845, -160928.06737757532, 0.27, 0.6940000000000001, 0.734, 192.0, 0.0, 0.0, 0.0, 0.0, 0.0, 0.0, 0.0, 0.0, 0.0, 1.7308297263220851E9, 0.0, 2024-11-05 15:02:06.322
49.0, -178876.33936123125, -146735.11197985554, 84810.76625713901, -187500.02235174447, -187500.02235174447, -160652.17979576348, -177482.81985316516, -160922.14416529468, 0.27, 0.6940000000000001, 0.734, 192.0, 0.0, 0.0, 0.0, 0.0, 0.0, 0.0, 0.0, 0.0, 0.0, 1.7308297263220968E9, 0.0, 2024-11-05 15:02:06.322
50.0, -178864.15766050312, -146751.1828841189, 84802.25024250153, -187500.02235174447, -187500.02235174447, -160703.2758835883, -177466.92776285743, -160920.06545306032, 0.27, 0.6940000000000001, 0.734, 192.0, 0.0, 0.0, 0.0, 0.0, 0.0, 0.0, 0.0, 0.0, 0.0, 1.7308297263221085E9, 0.0, 2024-11-05 15:02:06.322
51.0, -178866.5269454154, -146742.66686948144, 84789.42034118419, -187500.02235174447, -187500.02235174447, -160714.09412790468, -177467.77712914674, -160917.2714850034, 0.27, 0.6940000000000001, 0.734, 192.0, 0.0, 0.0, 0.0, 0.0, 0.0, 0.0, 0.0, 0.0, 0.0, 1.7308297263221204E9, 0.0, 2024-11-05 15:02:06.322
52.0, -178882.46373921202, -146714.3248575121, 84777.26099220049, -187500.02235174447, -187500.02235174447, -160687.36144153614, -177486.53024274472, -160915.19277276908, 0.27, 0.6940000000000001, 0.734, 192.0, 0.0, 0.0, 0.0, 0.0, 0.0, 0.0, 0.0, 0.0, 0.0, 1.7308297263221319E9, 0.0, 2024-11-05 15:02:06.322
53.0, -178881.25674501143, -146703.90894459593, 84765.8616025283, -187500.02235174447, -187500.02235174447, -160692.2788253163, -177487.58077473412, -160910.14127852218, 0.27, 0.6940000000000001, 0.734, 192.0, 0.0, 0.0, 0.0, 0.0, 0.0, 0.0, 0.0, 0.0, 0.0, 1.7308297263221433E9, 0.0, 2024-11-05 15:02:06.322
54.0, -178862.2577622244, -146713.60960168953, 84752.31644538838, -187500.02235174447, -187500.02235174447, -160736.95996248245, -177467.2853907687, -160902.78755459638, 0.27, 0.6940000000000001, 0.734, 192.0, 0.0, 0.0, 0.0, 0.0, 0.0, 0.0, 0.0, 0.0, 0.0, 1.7308297263221548E9, 0.0, 2024-11-05 15:02:06.322
55.0, -178859.93318080108, -146709.89921210997, 84739.44184058212, -187500.02235174447, -187500.02235174447, -160756.89771853658, -177463.19502153338, -160899.50184816145, 0.27, 0.6940000000000001, 0.734, 192.0, 0.0, 0.0, 0.0, 0.0, 0.0, 0.0, 0.0, 0.0, 0.0, 1.7308297263221664E9, 0.0, 2024-11-05 15:02:06.322
56.0, -178875.7805676199, -146682.36186294103, 84726.12020088675, -187500.02235174447, -187500.02235174447, -160731.12615717962, -177479.6459054525, -160896.30554870435, 0.27, 0.6940000000000001, 0.734, 192.0, 0.0, 0.0, 0.0, 0.0, 0.0, 0.0, 0.0, 0.0, 0.0, 1.730829726322178E9, 0.0, 2024-11-05 15:02:06.322
57.0, -178877.14402403164, -146665.06161273262, 84712.48563676902, -187500.02235174447, -187500.02235174447, -160724.6441512876, -177483.02101886526, -160889.53297013437, 0.296, 0.724, 0.736, 192.0, 9.0, 64.0, 22.0, 160.0, 23.0, 0.0, 0.0, 0.0, 0.0, 1.7308297263221896E9, 0.0, 2024-11-05 15:02:06.322
58.0, -178859.75436684542, -146674.31523493712, 84701.0415436079, -187500.02235174447, -187500.02235174447, -160767.6489076196, -177466.6371901795, -160884.25795844293, 0.296, 0.724, 0.736, 192.0, 0.0, 0.0, 0.0, 0.0, 0.0, 0.0, 0.0, 0.0, 0.0, 1.730829726322202E9, 0.0, 2024-11-05 15:02:06.322
59.0, -178850.4113376631, -146672.99648201425, 84686.24468877849, -187500.02235174447, -187500.02235174447, -160793.8451521212, -177456.44479470787, -160878.6700223291, 0.296, 0.724, 0.736, 192.0, 0.0, 0.0, 0.0, 0.0, 0.0, 0.0, 0.0, 0.0, 0.0, 1.7308297263222132E9, 0.0, 2024-11-05 15:02:06.322
60.0, -178864.2694192254, -146646.93434797935, 84671.00079905997, -187500.02235174447, -187500.02235174447, -160771.06872452126, -177469.0288268362, -160874.04321122685, 0.296, 0.724, 0.736, 192.0, 0.0, 0.0, 0.0, 0.0, 0.0, 0.0, 0.0, 0.0, 0.0, 1.730829726322242E9, 0.0, 2024-11-05 15:02:06.322
61.0, -178871.19846000653, -146626.32603959157, 84657.65680762015, -187500.02235174447, -187500.02235174447, -160756.98712551442, -177476.7401786733, -160868.4329233686, 0.296, 0.724, 0.736, 192.0, 0.0, 0.0, 0.0, 0.0, 0.0, 0.0, 0.0, 0.0, 0.0, 1.7308297263222537E9, 0.0, 2024-11-05 15:02:06.322
62.0, -178855.77575633238, -146633.0092111837, 84647.03972900388, -187500.02235174447, -187500.02235174447, -160794.73922189942, -177463.77616688923, -160863.8284640108, 0.296, 0.724, 0.736, 192.0, 0.0, 0.0, 0.0, 0.0, 0.0, 0.0, 0.0, 0.0, 0.0, 1.7308297263222651E9, 0.0, 2024-11-05 15:02:06.322
63.0, -178845.09162248275, -146638.44068508633, 84635.66269107613, -187500.02235174447, -187500.02235174447, -160830.61377175018, -177453.60612316206, -160861.1239029317, 0.296, 0.724, 0.736, 192.0, 0.0, 0.0, 0.0, 0.0, 0.0, 0.0, 0.0, 0.0, 0.0, 1.7308297263222768E9, 0.0, 2024-11-05 15:02:06.322
64.0, -178858.03328252237, -146617.8994319319, 84622.74338278096, -187500.02235174447, -187500.02235174447, -160816.93450414354, -177465.29608551218, -160858.88872848617, 0.296, 0.724, 0.736, 192.0, 0.0, 0.0, 0.0, 0.0, 0.0, 0.0, 0.0, 0.0, 0.0, 1.7308297263222902E9, 0.0, 2024-11-05 15:02:06.322
65.0, -178869.54443091684, -146594.22893455374, 84608.88530121867, -187500.02235174447, -187500.02235174447, -160796.1473818001, -177475.644943195, -160853.3231441168, 0.296, 0.724, 0.736, 192.0, 0.0, 0.0, 0.0, 0.0, 0.0, 0.0, 0.0, 0.0, 0.0, 1.7308297263223016E9, 0.0, 2024-11-05 15:02:06.322
66.0, -178854.5687621318, -146594.34069327603, 84595.45190280103, -187500.02235174447, -187500.02235174447, -160822.90241991312, -177463.2397250223, -160845.94706844655, 0.296, 0.724, 0.736, 192.0, 0.0, 0.0, 0.0, 0.0, 0.0, 0.0, 0.0, 0.0, 0.0, 1.7308297263223133E9, 0.0, 2024-11-05 15:02:06.322
67.0, -178837.46967762348, -146600.66623695687, 84583.22549858398, -187500.02235174447, -187500.02235174447, -160863.6272983107, -177449.89573358247, -160842.10256840024, 0.322, 0.73, 0.71, 192.0, 10.0, 16.0, 22.0, 208.0, 22.0, 48.0, 0.0, 0.0, 0.0, 1.7308297263223248E9, 0.0, 2024-11-05 15:02:06.322
68.0, -178847.43855565056, -146584.08124257103, 84569.68034144407, -187500.02235174447, -187500.02235174447, -160857.10058892972, -177457.74119588628, -160839.39800732114, 0.322, 0.73, 0.71, 192.0, 0.0, 0.0, 0.0, 0.0, 0.0, 0.0, 0.0, 0.0, 0.0, 1.7308297263223372E9, 0.0, 2024-11-05 15:02:06.322
69.0, -178864.2694192254, -146559.62843413692, 84555.9563703485, -187500.02235174447, -187500.02235174447, -160831.84311769524, -177470.30287627017, -160834.57003051878, 0.322, 0.73, 0.71, 192.0, 0.0, 0.0, 0.0, 0.0, 0.0, 0.0, 0.0, 0.0, 0.0, 1.7308297263223495E9, 0.0, 2024-11-05 15:02:06.322
70.0, -178853.42882316458, -146555.8956928129, 84543.43939345353, -187500.02235174447, -187500.02235174447, -160851.3561906047, -177462.52446919974, -160828.22213509347, 0.322, 0.73, 0.71, 192.0, 0.0, 0.0, 0.0, 0.0, 0.0, 0.0, 0.0, 0.0, 0.0, 1.7308297263223617E9, 0.0, 2024-11-05 15:02:06.322
71.0, -178832.41818337658, -146562.71297487177, 84531.45885842548, -187500.02235174447, -187500.02235174447, -160894.89738880366, -177447.72761437032, -160823.97530364696, 0.322, 0.73, 0.71, 192.0, 0.0, 0.0, 0.0, 0.0, 0.0, 0.0, 0.0, 0.0, 0.0, 1.730829726322374E9, 0.0, 2024-11-05 15:02:06.322
72.0, -178837.84965727924, -146550.46421891026, 84518.0031082634, -187500.02235174447, -187500.02235174447, -160896.41730742663, -177451.52741092772, -160821.00252163442, 0.322, 0.73, 0.71, 192.0, 0.0, 0.0, 0.0, 0.0, 0.0, 0.0, 0.0, 0.0, 0.0, 1.7308297263223865E9, 0.0, 2024-11-05 15:02:06.322
73.0, -178858.0556342668, -146526.32433489853, 84504.61441333467, -187500.02235174447, -187500.02235174447, -160869.9304902471, -177465.51960295675, -160817.13566984364, 0.322, 0.73, 0.71, 192.0, 0.0, 0.0, 0.0, 0.0, 0.0, 0.0, 0.0, 0.0, 0.0, 1.7308297263223991E9, 0.0, 2024-11-05 15:02:06.322
74.0, -178852.98178827547, -146519.12707318392, 84492.5444713288, -187500.02235174447, -187500.02235174447, -160880.86049328573, -177462.39035873298, -160811.68184419654, 0.322, 0.73, 0.71, 192.0, 0.0, 0.0, 0.0, 0.0, 0.0, 0.0, 0.0, 0.0, 0.0, 1.730829726322412E9, 0.0, 2024-11-05 15:02:06.322
75.0, -178825.06445945078, -146521.339895885, 84476.04888392078, -187500.02235174447, -187500.02235174447, -160920.0878048048, -177442.56436140114, -160802.4058702476, 0.322, 0.73, 0.71, 192.0, 0.0, 0.0, 0.0, 0.0, 0.0, 0.0, 0.0, 0.0, 0.0, 1.7308297263224301E9, 0.0, 2024-11-05 15:02:06.322
76.0, -178824.50566583942, -146513.1815091588, 84462.52607852532, -187500.02235174447, -187500.02235174447, -160930.77193865442, -177442.47495442332, -160799.3660330017, 0.322, 0.73, 0.71, 192.0, 0.0, 0.0, 0.0, 0.0, 0.0, 0.0, 0.0, 0.0, 0.0, 1.7308297263224432E9, 0.0, 2024-11-05 15:02:06.322
77.0, -178848.84671555125, -146492.19322111527, 84451.05963361975, -187500.02235174447, -187500.02235174447, -160906.6320546427, -177458.59056217558, -160798.0472800788, 0.358, 0.736, 0.6980000000000001, 192.0, 11.0, 48.0, 23.0, 0.0, 21.0, 208.0, 0.0, 0.0, 0.0, 1.7308297263224554E9, 0.0, 2024-11-05 15:02:06.322
78.0, -178849.0702329958, -146479.98916864267, 84437.55917996874, -187500.02235174447, -187500.02235174447, -160907.01203429844, -177458.00941681975, -160791.47586720897, 0.358, 0.736, 0.6980000000000001, 192.0, 0.0, 0.0, 0.0, 0.0, 0.0, 0.0, 0.0, 0.0, 0.0, 1.7308297263224683E9, 0.0, 2024-11-05 15:02:06.322
79.0, -178823.54454082783, -146484.4148140448, 84424.7292786514, -187500.02235174447, -187500.02235174447, -160948.0945406073, -177442.4302509344, -160785.57500667276, 0.358, 0.736, 0.6980000000000001, 192.0, 0.0, 0.0, 0.0, 0.0, 0.0, 0.0, 0.0, 0.0, 0.0, 1.7308297263224804E9, 0.0, 2024-11-05 15:02:06.322
80.0, -178816.99547970243, -146480.19033434277, 84411.94408082296, -187500.02235174447, -187500.02235174447, -160967.80877921687, -177439.12219275502, -160782.53516942682, 0.358, 0.736, 0.6980000000000001, 192.0, 0.0, 0.0, 0.0, 0.0, 0.0, 0.0, 0.0, 0.0, 0.0, 1.7308297263224928E9, 0.0, 2024-11-05 15:02:06.322
81.0, -178842.72233757048, -146462.57715971197, 84401.88579581807, -187500.02235174447, -187500.02235174447, -160947.8933749072, -177455.55072492966, -160783.0045560604, 0.358, 0.736, 0.6980000000000001, 192.0, 0.0, 0.0, 0.0, 0.0, 0.0, 0.0, 0.0, 0.0, 0.0, 1.7308297263225048E9, 0.0, 2024-11-05 15:02:06.322
82.0, -178849.98665451846, -146447.93676709375, 84388.38534216706, -187500.02235174447, -187500.02235174447, -160940.20437481458, -177458.81407962015, -160777.26015773538, 0.358, 0.736, 0.6980000000000001, 192.0, 0.0, 0.0, 0.0, 0.0, 0.0, 0.0, 0.0, 0.0, 0.0, 1.730829726322517E9, 0.0, 2024-11-05 15:02:06.322
83.0, -178822.42695360506, -146447.28856650455, 84372.26973441479, -187500.02235174447, -187500.02235174447, -160974.4472473201, -177441.64793987846, -160768.02888727534, 0.358, 0.736, 0.6980000000000001, 192.0, 0.0, 0.0, 0.0, 0.0, 0.0, 0.0, 0.0, 0.0, 0.0, 1.730829726322529E9, 0.0, 2024-11-05 15:02:06.322
84.0, -178810.17819764354, -146446.90858684882, 84360.02097845328, -187500.02235174447, -187500.02235174447, -161003.0574802229, -177435.9258932979, -160765.63725061863, 0.358, 0.736, 0.6980000000000001, 192.0, 0.0, 0.0, 0.0, 0.0, 0.0, 0.0, 0.0, 0.0, 0.0, 1.7308297263225436E9, 0.0, 2024-11-05 15:02:06.322
85.0, -178833.13343919915, -146430.52475816308, 84348.12985040306, -187500.02235174447, -187500.02235174447, -160986.67365153716, -177449.29223648217, -160764.9443465405, 0.358, 0.736, 0.6980000000000001, 192.0, 0.0, 0.0, 0.0, 0.0, 0.0, 0.0, 0.0, 0.0, 0.0, 1.7308297263225555E9, 0.0, 2024-11-05 15:02:06.322
86.0, -178848.0197010064, -146414.6997230887, 84335.52346653027, -187500.02235174447, -187500.02235174447, -160973.08379090833, -177456.57890517463, -160760.60810811617, 0.358, 0.736, 0.6980000000000001, 192.0, 0.0, 0.0, 0.0, 0.0, 0.0, 0.0, 0.0, 0.0, 0.0, 1.73082972632257E9, 0.0, 2024-11-05 15:02:06.322
87.0, -178826.85259900722, -146415.03499925556, 84322.93943440192, -187500.02235174447, -187500.02235174447, -161005.18089594613, -177444.86659108003, -160754.5954888577, 0.37, 0.732, 0.686, 192.0, 11.0, 144.0, 22.0, 224.0, 21.0, 112.0, 0.0, 0.0, 0.0, 1.7308297263225815E9, 0.0, 2024-11-05 15:02:06.322
88.0, -178806.78073248634, -146414.56561262198, 84309.394277262, -187500.02235174447, -187500.02235174447, -161037.70268412863, -177434.49538165278, -160749.81221554425, 0.37, 0.732, 0.686, 192.0, 0.0, 0.0, 0.0, 0.0, 0.0, 0.0, 0.0, 0.0, 0.0, 1.7308297263225937E9, 0.0, 2024-11-05 15:02:06.322
89.0, -178824.59507281723, -146399.70170255922, 84297.21257653387, -187500.02235174447, -187500.02235174447, -161026.68327411215, -177444.44190793537, -160748.42640738803, 0.37, 0.732, 0.686, 192.0, 0.0, 0.0, 0.0, 0.0, 0.0, 0.0, 0.0, 0.0, 0.0, 1.7308297263226051E9, 0.0, 2024-11-05 15:02:06.322
90.0, -178845.29278818285, -146382.44615583972, 84285.20968976137, -187500.02235174447, -187500.02235174447, -161007.8631052808, -177454.67900689592, -160745.1407009531, 0.37, 0.732, 0.686, 192.0, 0.0, 0.0, 0.0, 0.0, 0.0, 0.0, 0.0, 0.0, 0.0, 1.7308297263226223E9, 0.0, 2024-11-05 15:02:06.322
91.0, -178829.73597404195, -146380.43449883873, 84273.43032043343, -187500.02235174447, -187500.02235174447, -161032.83000383736, -177446.45356493635, -160739.97744798393, 0.37, 0.732, 0.686, 192.0, 0.0, 0.0, 0.0, 0.0, 0.0, 0.0, 0.0, 0.0, 0.0, 1.7308297263226392E9, 0.0, 2024-11-05 15:02:06.322
92.0, -178805.19375863002, -146381.5967895504, 84260.51101213826, -187500.02235174447, -187500.02235174447, -161070.2244723111, -177434.7412508418, -160735.37298862613, 0.37, 0.732, 0.686, 192.0, 0.0, 0.0, 0.0, 0.0, 0.0, 0.0, 0.0, 0.0, 0.0, 1.730829726322651E9, 0.0, 2024-11-05 15:02:06.322
93.0, -178816.6155000467, -146368.58807427742, 84247.61405558755, -187500.02235174447, -187500.02235174447, -161066.15645482022, -177441.133849756, -160733.3389798807, 0.37, 0.732, 0.686, 192.0, 0.0, 0.0, 0.0, 0.0, 0.0, 0.0, 0.0, 0.0, 0.0, 1.7308297263226624E9, 0.0, 2024-11-05 15:02:06.322
94.0, -178838.56491310179, -146346.9292339002, 84231.72196527982, -187500.02235174447, -187500.02235174447, -161039.78139636296, -177449.3369399711, -160726.92402922202, 0.37, 0.732, 0.686, 192.0, 0.0, 0.0, 0.0, 0.0, 0.0, 0.0, 0.0, 0.0, 0.0, 1.730829726322674E9, 0.0, 2024-11-05 15:02:06.322
95.0, -178827.16552342958, -146340.26841405255, 84218.15445639545, -187500.02235174447, -187500.02235174447, -161054.93587910366, -177442.54200965667, -160720.10674716317, 0.37, 0.732, 0.686, 192.0, 0.0, 0.0, 0.0, 0.0, 0.0, 0.0, 0.0, 0.0, 0.0, 1.7308297263226857E9, 0.0, 2024-11-05 15:02:06.322
96.0, -178798.3988283156, -146341.3860012753, 84204.877520189, -187500.02235174447, -187500.02235174447, -161094.56552202292, -177429.1756664724, -160714.71997674942, 0.37, 0.732, 0.686, 192.0, 0.0, 0.0, 0.0, 0.0, 0.0, 0.0, 0.0, 0.0, 0.0, 1.7308297263226972E9, 0.0, 2024-11-05 15:02:06.322
97.0, -178805.79725573031, -146333.5405389715, 84194.10397936153, -187500.02235174447, -187500.02235174447, -161101.00282442605, -177434.40597467494, -160714.60821802716, 0.39, 0.744, 0.672, 192.0, 12.0, 48.0, 23.0, 64.0, 21.0, 0.0, 0.0, 0.0, 0.0, 1.7308297263227088E9, 0.0, 2024-11-05 15:02:06.322
98.0, -178833.40166013263, -146315.16740502923, 84181.3187815331, -187500.02235174447, -187500.02235174447, -161076.8629404143, -177446.632378892, -160711.85895345916, 0.39, 0.744, 0.672, 192.0, 0.0, 0.0, 0.0, 0.0, 0.0, 0.0, 0.0, 0.0, 0.0, 1.7308297263227224E9, 0.0, 2024-11-05 15:02:06.322
99.0, -178830.76415428688, -146307.21018400314, 84168.8688598715, -187500.02235174447, -187500.02235174447, -161085.0213271405, -177444.37485270202, -160706.8298109567, 0.39, 0.744, 0.672, 192.0, 0.0, 0.0, 0.0, 0.0, 0.0, 0.0, 0.0, 0.0, 0.0, 1.730829726322734E9, 0.0, 2024-11-05 15:02:06.322
100.0, -178800.0528574053, -146307.36664621433, 84154.72020563128, -187500.02235174447, -187500.02235174447, -161124.270990404, -177429.84621880608, -160700.45956378695, 0.39, 0.744, 0.672, 192.0, 0.0, 0.0, 0.0, 0.0, 0.0, 0.0, 0.0, 0.0, 0.0, 1.7308297263227453E9, 0.0, 2024-11-05 15:02:06.322
101.0, -178795.4931015364, -146297.777747843, 84139.34220544604, -187500.02235174447, -187500.02235174447, -161134.8433655314, -177427.45458214934, -160695.76569745134, 0.39, 0.744, 0.672, 192.0, 0.0, 0.0, 0.0, 0.0, 0.0, 0.0, 0.0, 0.0, 0.0, 1.7308297263227572E9, 0.0, 2024-11-05 15:02:06.322
102.0, -178824.93034898405, -146281.05864299045, 84127.07109774007, -187500.02235174447, -187500.02235174447, -161112.73749026508, -177440.57505614462, -160694.31283406174, 0.39, 0.744, 0.672, 192.0, 0.0, 0.0, 0.0, 0.0, 0.0, 0.0, 0.0, 0.0, 0.0, 1.7308297263227687E9, 0.0, 2024-11-05 15:02:06.322
103.0, -178830.71945079797, -146271.44739287466, 84114.79999003411, -187500.02235174447, -187500.02235174447, -161113.4303943432, -177442.05027127865, -160689.86483691513, 0.39, 0.744, 0.672, 192.0, 0.0, 0.0, 0.0, 0.0, 0.0, 0.0, 0.0, 0.0, 0.0, 1.7308297263227801E9, 0.0, 2024-11-05 15:02:06.322
104.0, -178801.37161032818, -146271.76031729704, 84101.72421952775, -187500.02235174447, -187500.02235174447, -161152.16596748424, -177428.59452111658, -160684.09808684565, 0.39, 0.744, 0.672, 192.0, 0.0, 0.0, 0.0, 0.0, 0.0, 0.0, 0.0, 0.0, 0.0, 1.730829726322792E9, 0.0, 2024-11-05 15:02:06.322
105.0, -178789.56988925577, -146264.9206834937, 84086.86030946497, -187500.02235174447, -187500.02235174447, -161171.83550260492, -177423.3195094251, -160679.51597923232, 0.39, 0.744, 0.672, 192.0, 0.0, 0.0, 0.0, 0.0, 0.0, 0.0, 0.0, 0.0, 0.0, 1.7308297263228092E9, 0.0, 2024-11-05 15:02:06.322
106.0, -178814.961470957, -146246.48049431806, 84071.81758544655, -187500.02235174447, -187500.02235174447, -161149.61786861633, -177432.59548337408, -160675.35855476363, 0.39, 0.744, 0.672, 192.0, 0.0, 0.0, 0.0, 0.0, 0.0, 0.0, 0.0, 0.0, 0.0, 1.730829726322821E9, 0.0, 2024-11-05 15:02:06.322
107.0, -178827.85842750772, -146234.14233137874, 84059.16649808484, -187500.02235174447, -187500.02235174447, -161141.8841650348, -177436.46233516483, -160670.9776128504, 0.36, 0.78, 0.67, 192.0, 11.0, 64.0, 24.0, 96.0, 20.0, 240.0, 0.0, 0.0, 0.0, 1.7308297263228335E9, 0.0, 2024-11-05 15:02:06.322
108.0, -178801.6621830061, -146233.73999997854, 84046.98479735671, -187500.02235174447, -187500.02235174447, -161177.95988058567, -177425.06294549262, -160666.1719877925, 0.36, 0.78, 0.67, 192.0, 0.0, 0.0, 0.0, 0.0, 0.0, 0.0, 0.0, 0.0, 0.0, 1.7308297263228457E9, 0.0, 2024-11-05 15:02:06.322
109.0, -178785.703037465, -146231.4601220441, 84035.25013151766, -187500.02235174447, -187500.02235174447, -161207.5982937334, -177419.85498903453, -160664.2273860249, 0.36, 0.78, 0.67, 192.0, 0.0, 0.0, 0.0, 0.0, 0.0, 0.0, 0.0, 0.0, 0.0, 1.7308297263228571E9, 0.0, 2024-11-05 15:02:06.322
110.0, -178812.1675029001, -146219.1666625937, 84024.99068081268, -187500.02235174447, -187500.02235174447, -161194.88015113832, -177432.39431767398, -160665.0767523142, 0.36, 0.78, 0.67, 192.0, 0.0, 0.0, 0.0, 0.0, 0.0, 0.0, 0.0, 0.0, 0.0, 1.73082972632287E9, 0.0, 2024-11-05 15:02:06.322
111.0, -178832.9099217546, -146206.0014851095, 84013.39012544038, -187500.02235174447, -187500.02235174447, -161181.46910446516, -177439.99391078876, -160662.19337727944, 0.36, 0.78, 0.67, 192.0, 0.0, 0.0, 0.0, 0.0, 0.0, 0.0, 0.0, 0.0, 0.0, 1.7308297263228817E9, 0.0, 2024-11-05 15:02:06.322
112.0, -178810.87110172166, -146203.67690368617, 84001.58840436798, -187500.02235174447, -187500.02235174447, -161211.77806994654, -177430.49441939528, -160657.5218626883, 0.36, 0.78, 0.67, 192.0, 0.0, 0.0, 0.0, 0.0, 0.0, 0.0, 0.0, 0.0, 0.0, 1.7308297263228931E9, 0.0, 2024-11-05 15:02:06.322
113.0, -178784.1384153531, -146197.9548571056, 83985.62925882688, -187500.02235174447, -187500.02235174447, -161242.48936682814, -177418.04449773367, -160650.6598771405, 0.36, 0.78, 0.67, 192.0, 0.0, 0.0, 0.0, 0.0, 0.0, 0.0, 0.0, 0.0, 0.0, 1.7308297263229043E9, 0.0, 2024-11-05 15:02:06.322
114.0, -178799.62817426064, -146181.4592696976, 83969.71481677471, -187500.02235174447, -187500.02235174447, -161230.17355563326, -177422.5371983692, -160645.7201416159, 0.36, 0.78, 0.67, 192.0, 0.0, 0.0, 0.0, 0.0, 0.0, 0.0, 0.0, 0.0, 0.0, 1.7308297263229156E9, 0.0, 2024-11-05 15:02:06.322
115.0, -178824.75153502842, -146166.23773172352, 83957.19783987974, -187500.02235174447, -187500.02235174447, -161210.92870365724, -177431.41084091793, -160642.34502820316, 0.36, 0.78, 0.67, 192.0, 0.0, 0.0, 0.0, 0.0, 0.0, 0.0, 0.0, 0.0, 0.0, 1.7308297263229272E9, 0.0, 2024-11-05 15:02:06.322
116.0, -178807.78656098683, -146160.6050921208, 83943.94325541775, -187500.02235174447, -187500.02235174447, -161232.81106147898, -177423.14069546948, -160636.33240894467, 0.36, 0.78, 0.67, 192.0, 0.0, 0.0, 0.0, 0.0, 0.0, 0.0, 0.0, 0.0, 0.0, 1.7308297263229387E9, 0.0, 2024-11-05 15:02:06.322
117.0, -178779.8915839066, -146159.33104268683, 83931.71685120069, -187500.02235174447, -187500.02235174447, -161271.50193113112, -177412.83654127558, -160633.06905425419, 0.322, 0.796, 0.66, 192.0, 10.0, 16.0, 24.0, 224.0, 20.0, 160.0, 0.0, 0.0, 0.0, 1.7308297263229504E9, 0.0, 2024-11-05 15:02:06.322
118.0, -178793.72731372446, -146150.03271699342, 83921.07742083997, -187500.02235174447, -187500.02235174447, -161272.15013172032, -177420.14556171247, -160633.40433042104, 0.322, 0.796, 0.66, 192.0, 0.0, 0.0, 0.0, 0.0, 0.0, 0.0, 0.0, 0.0, 0.0, 1.7308297263229623E9, 0.0, 2024-11-05 15:02:06.322
119.0, -178822.67282279406, -146133.9841644745, 83908.06870556697, -187500.02235174447, -187500.02235174447, -161249.2619453981, -177430.0250327617, -160629.98451351936, 0.322, 0.796, 0.66, 192.0, 0.0, 0.0, 0.0, 0.0, 0.0, 0.0, 0.0, 0.0, 0.0, 1.7308297263229737E9, 0.0, 2024-11-05 15:02:06.322
120.0, -178814.44738083452, -146127.94919347158, 83896.6469641503, -187500.02235174447, -187500.02235174447, -161264.79640779452, -177426.04642224868, -160625.87179253958, 0.322, 0.796, 0.66, 192.0, 0.0, 0.0, 0.0, 0.0, 0.0, 0.0, 0.0, 0.0, 0.0, 1.730829726801328E9, 0.0, 2024-11-05 15:02:06.801
121.0, -178782.32792405225, -146125.55755681486, 83883.50413841059, -187500.02235174447, -187500.02235174447, -161304.64956815835, -177413.46239012032, -160621.3120366707, 0.322, 0.796, 0.66, 192.0, 0.0, 0.0, 0.0, 0.0, 0.0, 0.0, 0.0, 0.0, 0.0, 1.730829726801381E9, 0.0, 2024-11-05 15:02:06.801
122.0, -178783.91489790857, -146113.4429113201, 83868.57317311445, -187500.02235174447, -187500.02235174447, -161309.29873100505, -177413.44003837588, -160617.26637092428, 0.322, 0.796, 0.66, 192.0, 0.0, 0.0, 0.0, 0.0, 0.0, 0.0, 0.0, 0.0, 0.0, 1.7308297268014104E9, 0.0, 2024-11-05 15:02:06.801
123.0, -178814.00034594542, -146096.3438268118, 83854.60333282988, -187500.02235174447, -187500.02235174447, -161284.4212394263, -177423.3195094251, -160613.17600168896, 0.322, 0.796, 0.66, 192.0, 0.0, 0.0, 0.0, 0.0, 0.0, 0.0, 0.0, 0.0, 0.0, 1.7308297268014424E9, 0.0, 2024-11-05 15:02:06.801
124.0, -178811.8545784777, -146086.1737830846, 83840.85700998986, -187500.02235174447, -187500.02235174447, -161289.4280301843, -177420.3243756681, -160607.07397545266, 0.322, 0.796, 0.66, 192.0, 0.0, 0.0, 0.0, 0.0, 0.0, 0.0, 0.0, 0.0, 0.0, 1.7308297268014712E9, 0.0, 2024-11-05 15:02:06.801
125.0, -178778.21520307247, -146082.66455920512, 83827.24479761659, -187500.02235174447, -187500.02235174447, -161328.54358298107, -177406.7121632948, -160601.6201498056, 0.322, 0.796, 0.66, 192.0, 0.0, 0.0, 0.0, 0.0, 0.0, 0.0, 0.0, 0.0, 0.0, 1.7308297268014855E9, 0.0, 2024-11-05 15:02:06.801
126.0, -178776.11413909367, -146076.89780913567, 83816.87358818932, -187500.02235174447, -187500.02235174447, -161346.0897023785, -177408.23208191778, -160601.9554259724, 0.322, 0.796, 0.66, 192.0, 0.0, 0.0, 0.0, 0.0, 0.0, 0.0, 0.0, 0.0, 0.0, 1.7308297268015E9, 0.0, 2024-11-05 15:02:06.801
127.0, -178804.67966850754, -146059.28463450487, 83802.36730603782, -187500.02235174447, -187500.02235174447, -161322.46390848924, -177417.79862854467, -160597.93211197044, 0.276, 0.792, 0.638, 192.0, 8.0, 160.0, 24.0, 192.0, 19.0, 240.0, 0.0, 0.0, 0.0, 1.7308297268015149E9, 0.0, 2024-11-05 15:02:06.801
128.0, -178812.48042732244, -146048.64520414415, 83790.09619833186, -187500.02235174447, -187500.02235174447, -161320.2734375326, -177419.2738436787, -160593.4170595905, 0.276, 0.792, 0.638, 192.0, 0.0, 0.0, 0.0, 0.0, 0.0, 0.0, 0.0, 0.0, 0.0, 1.73082972680153E9, 0.0, 2024-11-05 15:02:06.801
129.0, -178781.6350199741, -146045.4265529426, 83777.60157318134, -187500.02235174447, -187500.02235174447, -161357.17616762832, -177406.80157027266, -160588.54437929922, 0.276, 0.792, 0.638, 192.0, 0.0, 0.0, 0.0, 0.0, 0.0, 0.0, 0.0, 0.0, 0.0, 1.7308297268015442E9, 0.0, 2024-11-05 15:02:06.801
130.0, -178767.06168258926, -146036.7764278384, 83764.68226488619, -187500.02235174447, -187500.02235174447, -161379.46085685026, -177402.35357312605, -160585.92922519794, 0.276, 0.792, 0.638, 192.0, 0.0, 0.0, 0.0, 0.0, 0.0, 0.0, 0.0, 0.0, 0.0, 1.730829726801559E9, 0.0, 2024-11-05 15:02:06.801
131.0, -178793.01205790188, -146019.05149448532, 83750.48890715707, -187500.02235174447, -187500.02235174447, -161357.846719962, -177411.38367788598, -160582.1070768961, 0.276, 0.792, 0.638, 192.0, 0.0, 0.0, 0.0, 0.0, 0.0, 0.0, 0.0, 0.0, 0.0, 1.7308297268015735E9, 0.0, 2024-11-05 15:02:06.801
132.0, -178806.93719469753, -146004.6569710561, 83736.89904652823, -187500.02235174447, -187500.02235174447, -161345.329743067, -177414.24470117627, -160576.02740240426, 0.276, 0.792, 0.638, 192.0, 0.0, 0.0, 0.0, 0.0, 0.0, 0.0, 0.0, 0.0, 0.0, 1.7308297268015888E9, 0.0, 2024-11-05 15:02:06.801
133.0, -178776.42706351605, -145997.39265410815, 83723.68916555514, -187500.02235174447, -187500.02235174447, -161376.37631611543, -177401.48185509228, -160569.81361744567, 0.276, 0.792, 0.638, 192.0, 0.0, 0.0, 0.0, 0.0, 0.0, 0.0, 0.0, 0.0, 0.0, 1.7308297268016028E9, 0.0, 2024-11-05 15:02:06.801
134.0, -178753.96356033845, -145989.01074993738, 83709.94284271513, -187500.02235174447, -187500.02235174447, -161403.98072051772, -177392.89878522145, -160565.85735867708, 0.276, 0.792, 0.638, 192.0, 0.0, 0.0, 0.0, 0.0, 0.0, 0.0, 0.0, 0.0, 0.0, 1.730829726801617E9, 0.0, 2024-11-05 15:02:06.801
135.0, -178778.7963484283, -145975.5549997753, 83697.17999663115, -187500.02235174447, -187500.02235174447, -161389.51914185515, -177401.8171312591, -160563.8009981872, 0.276, 0.792, 0.638, 192.0, 0.0, 0.0, 0.0, 0.0, 0.0, 0.0, 0.0, 0.0, 0.0, 1.7308297268016775E9, 0.0, 2024-11-05 15:02:06.801
136.0, -178803.02563941784, -145964.04385138082, 83685.33357206984, -187500.02235174447, -187500.02235174447, -161374.65523179236, -177409.90846275192, -160560.67175396346, 0.276, 0.792, 0.638, 192.0, 0.0, 0.0, 0.0, 0.0, 0.0, 0.0, 0.0, 0.0, 0.0, 1.7308297268016913E9, 0.0, 2024-11-05 15:02:06.801
137.0, -178781.85853741868, -145960.22170307895, 83673.71066495308, -187500.02235174447, -187500.02235174447, -161404.22658970673, -177402.10770393704, -160557.05077136168, 0.246, 0.782, 0.5740000000000001, 192.0, 7.0, 176.0, 24.0, 112.0, 17.0, 240.0, 0.0, 0.0, 0.0, 1.7308297268017056E9, 0.0, 2024-11-05 15:02:06.801
138.0, -178753.13654579362, -145953.2926622978, 83658.08679557881, -187500.02235174447, -187500.02235174447, -161437.86596511197, -177390.26127937573, -160551.66400094796, 0.246, 0.782, 0.5740000000000001, 192.0, 0.0, 0.0, 0.0, 0.0, 0.0, 0.0, 0.0, 0.0, 0.0, 1.7308297268017206E9, 0.0, 2024-11-05 15:02:06.801
139.0, -178774.23659255943, -145943.9943366044, 83645.99450182849, -187500.02235174447, -187500.02235174447, -161433.105043543, -177398.57612831309, -160551.28402129223, 0.246, 0.782, 0.5740000000000001, 192.0, 0.0, 0.0, 0.0, 0.0, 0.0, 0.0, 0.0, 0.0, 0.0, 1.7308297268017344E9, 0.0, 2024-11-05 15:02:06.801
140.0, -178803.4503225625, -145931.61147017617, 83632.18112375512, -187500.02235174447, -187500.02235174447, -161412.98847353322, -177407.2262534173, -160547.17130031245, 0.246, 0.782, 0.5740000000000001, 192.0, 0.0, 0.0, 0.0, 0.0, 0.0, 0.0, 0.0, 0.0, 0.0, 1.7308297268017492E9, 0.0, 2024-11-05 15:02:06.801
141.0, -178789.1899096, -145926.8952520961, 83620.7817340829, -187500.02235174447, -187500.02235174447, -161435.63079066644, -177401.861834748, -160543.68442817742, 0.246, 0.782, 0.5740000000000001, 192.0, 0.0, 0.0, 0.0, 0.0, 0.0, 0.0, 0.0, 0.0, 0.0, 1.7308297268017633E9, 0.0, 2024-11-05 15:02:06.801
142.0, -178759.21622028545, -145923.83306310573, 83609.20353045507, -187500.02235174447, -187500.02235174447, -161476.2215585973, -177391.84825323205, -160541.62806768753, 0.246, 0.782, 0.5740000000000001, 192.0, 0.0, 0.0, 0.0, 0.0, 0.0, 0.0, 0.0, 0.0, 0.0, 1.730829726801777E9, 0.0, 2024-11-05 15:02:06.801
143.0, -178770.07916809074, -145913.28303972282, 83595.54661459287, -187500.02235174447, -187500.02235174447, -161476.98151790877, -177395.37982885598, -160539.48230021982, 0.246, 0.782, 0.5740000000000001, 192.0, 0.0, 0.0, 0.0, 0.0, 0.0, 0.0, 0.0, 0.0, 0.0, 1.7308297268017912E9, 0.0, 2024-11-05 15:02:06.801
144.0, -178803.6514882626, -145901.54837388376, 83583.65548654264, -187500.02235174447, -187500.02235174447, -161455.4567879983, -177406.93568073938, -160537.18007054093, 0.246, 0.782, 0.5740000000000001, 192.0, 0.0, 0.0, 0.0, 0.0, 0.0, 0.0, 0.0, 0.0, 0.0, 1.7308297268018095E9, 0.0, 2024-11-05 15:02:06.801
145.0, -178797.9070899376, -145895.7816238143, 83573.03840792637, -187500.02235174447, -187500.02235174447, -161470.58891899456, -177404.85696850505, -160533.96141933935, 0.246, 0.782, 0.5740000000000001, 192.0, 0.0, 0.0, 0.0, 0.0, 0.0, 0.0, 0.0, 0.0, 0.0, 1.730829726801824E9, 0.0, 2024-11-05 15:02:06.801
146.0, -178765.27354303285, -145892.6970830795, 83561.5272595319, -187500.02235174447, -187500.02235174447, -161513.50426834874, -177393.70344802184, -160531.5027274493, 0.246, 0.782, 0.5740000000000001, 192.0, 0.0, 0.0, 0.0, 0.0, 0.0, 0.0, 0.0, 0.0, 0.0, 1.730829726801838E9, 0.0, 2024-11-05 15:02:06.801
147.0, -178768.6933599345, -145884.6951585645, 83549.21144833702, -187500.02235174447, -187500.02235174447, -161523.29433242016, -177395.84921548955, -160530.76511988224, 0.252, 0.744, 0.596, 192.0, 7.0, 224.0, 23.0, 64.0, 18.0, 160.0, 0.0, 0.0, 0.0, 1.730829726801853E9, 0.0, 2024-11-05 15:02:06.801
148.0, -178800.4998922944, -145870.2335799019, 83534.12402082968, -187500.02235174447, -187500.02235174447, -161497.5674745521, -177405.19224467187, -160525.9371430799, 0.252, 0.744, 0.596, 192.0, 0.0, 0.0, 0.0, 0.0, 0.0, 0.0, 0.0, 0.0, 0.0, 1.7308297268018677E9, 0.0, 2024-11-05 15:02:06.801
149.0, -178801.37161032818, -145861.0246611863, 83520.93649160105, -187500.02235174447, -187500.02235174447, -161501.43432634286, -177403.53821558217, -160520.2821517327, 0.252, 0.744, 0.596, 192.0, 0.0, 0.0, 0.0, 0.0, 0.0, 0.0, 0.0, 0.0, 0.0, 1.7308297268018892E9, 0.0, 2024-11-05 15:02:06.801
150.0, -178768.55924946777, -145857.73895475137, 83509.60415716222, -187500.02235174447, -187500.02235174447, -161543.41090242993, -177392.18352939887, -160517.4434801869, 0.252, 0.744, 0.596, 192.0, 0.0, 0.0, 0.0, 0.0, 0.0, 0.0, 0.0, 0.0, 0.0, 1.7308297268019035E9, 0.0, 2024-11-05 15:02:06.801
151.0, -178759.95382785247, -145847.99359416886, 83494.74024709944, -187500.02235174447, -187500.02235174447, -161559.21358575983, -177388.51784330822, -160513.9342563074, 0.252, 0.744, 0.596, 192.0, 0.0, 0.0, 0.0, 0.0, 0.0, 0.0, 0.0, 0.0, 0.0, 1.7308297268019176E9, 0.0, 2024-11-05 15:02:06.801
152.0, -178793.12381662417, -145836.21422484092, 83482.62560160465, -187500.02235174447, -187500.02235174447, -161539.94638203937, -177400.3642678695, -160512.16846849542, 0.252, 0.744, 0.596, 192.0, 0.0, 0.0, 0.0, 0.0, 0.0, 0.0, 0.0, 0.0, 0.0, 1.7308297268019316E9, 0.0, 2024-11-05 15:02:06.801
153.0, -178803.3609155847, -145826.60297472513, 83470.42154913206, -187500.02235174447, -187500.02235174447, -161540.41576867292, -177402.77825627069, -160507.5863608821, 0.252, 0.744, 0.596, 192.0, 0.0, 0.0, 0.0, 0.0, 0.0, 0.0, 0.0, 0.0, 0.0, 1.7308297268019452E9, 0.0, 2024-11-05 15:02:06.801
154.0, -178770.81677565776, -145820.7691694223, 83457.21166815897, -187500.02235174447, -187500.02235174447, -161580.91712962594, -177389.90365146444, -160502.35605267956, 0.252, 0.744, 0.596, 192.0, 0.0, 0.0, 0.0, 0.0, 0.0, 0.0, 0.0, 0.0, 0.0, 1.730829726801959E9, 0.0, 2024-11-05 15:02:06.801
155.0, -178753.91885684954, -145812.0743408292, 83443.17477264104, -187500.02235174447, -187500.02235174447, -161607.8956851835, -177383.68986650585, -160499.04799450017, 0.252, 0.744, 0.596, 192.0, 0.0, 0.0, 0.0, 0.0, 0.0, 0.0, 0.0, 0.0, 0.0, 1.7308297268019726E9, 0.0, 2024-11-05 15:02:06.801
156.0, -178781.9926478854, -145798.88681160056, 83428.55673176727, -187500.02235174447, -187500.02235174447, -161590.2378070638, -177392.54115731016, -160495.5834741096, 0.252, 0.744, 0.596, 192.0, 0.0, 0.0, 0.0, 0.0, 0.0, 0.0, 0.0, 0.0, 0.0, 1.730829726801987E9, 0.0, 2024-11-05 15:02:06.801
157.0, -178802.46684580648, -145790.3037417297, 83416.8891211616, -187500.02235174447, -187500.02235174447, -161581.36416451505, -177398.93375622437, -160492.36482290804, 0.234, 0.734, 0.604, 192.0, 7.0, 80.0, 22.0, 240.0, 18.0, 224.0, 0.0, 0.0, 0.0, 1.7308297268020008E9, 0.0, 2024-11-05 15:02:06.802
158.0, -178776.27060130486, -145786.54864866124, 83405.62384195613, -187500.02235174447, -187500.02235174447, -161618.0433771662, -177389.90365146444, -160489.14617170647, 0.234, 0.734, 0.604, 192.0, 0.0, 0.0, 0.0, 0.0, 0.0, 0.0, 0.0, 0.0, 0.0, 1.7308297268020155E9, 0.0, 2024-11-05 15:02:06.802
159.0, -178753.7400428939, -145780.60308463612, 83392.6374784276, -187500.02235174447, -187500.02235174447, -161652.64387758303, -177382.48287230526, -160487.11216296104, 0.234, 0.734, 0.604, 192.0, 0.0, 0.0, 0.0, 0.0, 0.0, 0.0, 0.0, 0.0, 0.0, 1.7308297268020296E9, 0.0, 2024-11-05 15:02:06.802
160.0, -178778.7516449394, -145770.52244788676, 83379.29348698778, -187500.02235174447, -187500.02235174447, -161641.84798501112, -177391.15534915394, -160485.45813387135, 0.234, 0.734, 0.604, 192.0, 0.0, 0.0, 0.0, 0.0, 0.0, 0.0, 0.0, 0.0, 0.0, 1.730829726802052E9, 0.0, 2024-11-05 15:02:06.802
161.0, -178802.98093592894, -145758.67602332545, 83363.51315540232, -187500.02235174447, -187500.02235174447, -161623.13957490202, -177396.34095386756, -160478.88672100147, 0.234, 0.734, 0.604, 192.0, 0.0, 0.0, 0.0, 0.0, 0.0, 0.0, 0.0, 0.0, 0.0, 1.730829726802066E9, 0.0, 2024-11-05 15:02:06.802
162.0, -178780.5844879847, -145751.99285173332, 83348.60454185064, -187500.02235174447, -187500.02235174447, -161650.36399964857, -177386.21561362932, -160472.53882557616, 0.234, 0.734, 0.604, 192.0, 0.0, 0.0, 0.0, 0.0, 0.0, 0.0, 0.0, 0.0, 0.0, 1.73082972680208E9, 0.0, 2024-11-05 15:02:06.802
163.0, -178755.34936849467, -145750.11530519908, 83337.22750392288, -187500.02235174447, -187500.02235174447, -161693.34640423613, -177379.13011063696, -160472.49412208726, 0.234, 0.734, 0.604, 192.0, 0.0, 0.0, 0.0, 0.0, 0.0, 0.0, 0.0, 0.0, 0.0, 1.730829726802094E9, 0.0, 2024-11-05 15:02:06.802
164.0, -178775.82356641575, -145743.4097818625, 83324.0176229498, -187500.02235174447, -187500.02235174447, -161692.02765131328, -177386.72970375177, -160472.2259011538, 0.234, 0.734, 0.604, 192.0, 0.0, 0.0, 0.0, 0.0, 0.0, 0.0, 0.0, 0.0, 0.0, 1.7308297268021154E9, 0.0, 2024-11-05 15:02:06.802
165.0, -178809.48529356543, -145735.96665095887, 83311.23242512136, -187500.02235174447, -187500.02235174447, -161673.38629643756, -177397.59265155706, -160469.74485751925, 0.234, 0.734, 0.604, 192.0, 0.0, 0.0, 0.0, 0.0, 0.0, 0.0, 0.0, 0.0, 0.0, 1.7308297268021293E9, 0.0, 2024-11-05 15:02:06.802
166.0, -178799.8516917052, -145733.91029046898, 83300.59299476063, -187500.02235174447, -187500.02235174447, -161697.50382870482, -177394.55281431114, -160467.75555226274, 0.234, 0.734, 0.604, 192.0, 0.0, 0.0, 0.0, 0.0, 0.0, 0.0, 0.0, 0.0, 0.0, 1.730829726802143E9, 0.0, 2024-11-05 15:02:06.802
167.0, -178770.50385123538, -145732.77035150176, 83288.83597717715, -187500.02235174447, -187500.02235174447, -161743.5707740272, -177385.54506129565, -160467.21911039582, 0.218, 0.71, 0.62, 192.0, 6.0, 208.0, 22.0, 48.0, 19.0, 96.0, 0.0, 0.0, 0.0, 1.7308297268021572E9, 0.0, 2024-11-05 15:02:06.802
168.0, -178781.97029614096, -145726.51186305427, 83276.74368342683, -187500.02235174447, -187500.02235174447, -161750.16453864152, -177390.19422414235, -160467.1744069069, 0.218, 0.71, 0.62, 192.0, 0.0, 0.0, 0.0, 0.0, 0.0, 0.0, 0.0, 0.0, 0.0, 1.7308297268021717E9, 0.0, 2024-11-05 15:02:06.802
169.0, -178813.6650697786, -145713.92783092594, 83261.09746230811, -187500.02235174447, -187500.02235174447, -161724.12475635108, -177397.99498295726, -160461.09473241505, 0.218, 0.71, 0.62, 192.0, 0.0, 0.0, 0.0, 0.0, 0.0, 0.0, 0.0, 0.0, 0.0, 1.730829726802186E9, 0.0, 2024-11-05 15:02:06.802
170.0, -178804.99259292992, -145703.26604882075, 83246.90410457899, -187500.02235174447, -187500.02235174447, -161731.54553551026, -177392.02706718768, -160453.53984278918, 0.218, 0.71, 0.62, 192.0, 0.0, 0.0, 0.0, 0.0, 0.0, 0.0, 0.0, 0.0, 0.0, 1.7308297268021996E9, 0.0, 2024-11-05 15:02:06.802
171.0, -178767.75458666738, -145695.30882779465, 83233.64952011699, -187500.02235174447, -187500.02235174447, -161771.2422336629, -177378.1689856254, -160448.51070028672, 0.218, 0.71, 0.62, 192.0, 0.0, 0.0, 0.0, 0.0, 0.0, 0.0, 0.0, 0.0, 0.0, 1.7308297268022137E9, 0.0, 2024-11-05 15:02:06.802
172.0, -178764.8935633771, -145683.77532765572, 83220.48434263282, -187500.02235174447, -187500.02235174447, -161780.5852628452, -177376.7161222358, -160445.78378746318, 0.218, 0.71, 0.62, 192.0, 0.0, 0.0, 0.0, 0.0, 0.0, 0.0, 0.0, 0.0, 0.0, 1.7308297268022273E9, 0.0, 2024-11-05 15:02:06.802
173.0, -178796.208357359, -145669.96194958233, 83208.81673202715, -187500.02235174447, -187500.02235174447, -161753.45024507647, -177385.81328222912, -160441.64871473896, 0.218, 0.71, 0.62, 192.0, 0.0, 0.0, 0.0, 0.0, 0.0, 0.0, 0.0, 0.0, 0.0, 1.7308297268022408E9, 0.0, 2024-11-05 15:02:06.802
174.0, -178798.26471784888, -145658.5849116546, 83195.31627837614, -187500.02235174447, -187500.02235174447, -161750.7233322529, -177384.47217756178, -160434.8090809356, 0.218, 0.71, 0.62, 192.0, 0.0, 0.0, 0.0, 0.0, 0.0, 0.0, 0.0, 0.0, 0.0, 1.730829726802255E9, 0.0, 2024-11-05 15:02:06.802
175.0, -178759.35033075218, -145644.88329230348, 83180.80999622465, -187500.02235174447, -187500.02235174447, -161783.80391404676, -177372.73751172275, -160429.13173784397, 0.218, 0.71, 0.62, 192.0, 0.0, 0.0, 0.0, 0.0, 0.0, 0.0, 0.0, 0.0, 0.0, 1.7308297268022685E9, 0.0, 2024-11-05 15:02:06.802
176.0, -178748.80030736927, -145635.16028346543, 83168.24831584077, -187500.02235174447, -187500.02235174447, -161803.36169044516, -177370.27881983266, -160428.12590934348, 0.218, 0.71, 0.62, 192.0, 0.0, 0.0, 0.0, 0.0, 0.0, 0.0, 0.0, 0.0, 0.0, 1.7308297268022823E9, 0.0, 2024-11-05 15:02:06.802
177.0, -178784.0490083753, -145629.17001595141, 83155.3290075456, -187500.02235174447, -187500.02235174447, -161785.56970185874, -177376.98434316926, -160424.68374069736, 0.194, 0.8240000000000001, 0.668, 192.0, 6.0, 16.0, 25.0, 192.0, 20.0, 224.0, 0.0, 0.0, 0.0, 1.7308297268022962E9, 0.0, 2024-11-05 15:02:06.802
178.0, -178798.8011597158, -145620.54224259165, 83142.0744230836, -187500.02235174447, -187500.02235174447, -161777.12074245463, -177378.63837225895, -160418.38054876096, 0.194, 0.8240000000000001, 0.668, 192.0, 0.0, 0.0, 0.0, 0.0, 0.0, 0.0, 0.0, 0.0, 0.0, 1.7308297268023107E9, 0.0, 2024-11-05 15:02:06.802
179.0, -178766.5922959557, -145609.74635001973, 83130.27270201119, -187500.02235174447, -187500.02235174447, -161809.91075157057, -177372.35753206702, -160416.14537431544, 0.194, 0.8240000000000001, 0.668, 192.0, 0.0, 0.0, 0.0, 0.0, 0.0, 0.0, 0.0, 0.0, 0.0, 1.7308297268023314E9, 0.0, 2024-11-05 15:02:06.802
180.0, -178748.01799631334, -145600.73859700427, 83117.28633848266, -187500.02235174447, -187500.02235174447, -161837.962190862, -177368.58008725406, -160415.94420861534, 0.194, 0.8240000000000001, 0.668, 192.0, 0.0, 0.0, 0.0, 0.0, 0.0, 0.0, 0.0, 0.0, 0.0, 1.7308297268023453E9, 0.0, 2024-11-05 15:02:06.802
181.0, -178781.5903164852, -145598.19049813636, 83105.23874822125, -187500.02235174447, -187500.02235174447, -161828.01566457938, -177376.0232181577, -160414.98308360376, 0.194, 0.8240000000000001, 0.668, 192.0, 0.0, 0.0, 0.0, 0.0, 0.0, 0.0, 0.0, 0.0, 0.0, 1.7308297268023589E9, 0.0, 2024-11-05 15:02:06.802
182.0, -178806.1101801527, -145593.0048934227, 83092.11827422598, -187500.02235174447, -187500.02235174447, -161816.4374609515, -177380.51591879321, -160409.95394110132, 0.194, 0.8240000000000001, 0.668, 192.0, 0.0, 0.0, 0.0, 0.0, 0.0, 0.0, 0.0, 0.0, 0.0, 1.7308297268023725E9, 0.0, 2024-11-05 15:02:06.802
183.0, -178779.4445490175, -145583.7065677293, 83079.98127698676, -187500.02235174447, -187500.02235174447, -161845.38297002114, -177375.59853501304, -160407.27173176667, 0.194, 0.8240000000000001, 0.668, 192.0, 0.0, 0.0, 0.0, 0.0, 0.0, 0.0, 0.0, 0.0, 0.0, 1.7308297268023863E9, 0.0, 2024-11-05 15:02:06.802
184.0, -178755.05879581676, -145577.02339613717, 83068.78305301465, -187500.02235174447, -187500.02235174447, -161881.36927859418, -177371.95520066682, -160408.83635387855, 0.194, 0.8240000000000001, 0.668, 192.0, 0.0, 0.0, 0.0, 0.0, 0.0, 0.0, 0.0, 0.0, 0.0, 1.7308297268024004E9, 0.0, 2024-11-05 15:02:06.802
185.0, -178781.47855776295, -145574.16237284688, 83055.75198599721, -187500.02235174447, -187500.02235174447, -161877.56948203678, -177377.20786061382, -160407.83052537806, 0.194, 0.8240000000000001, 0.668, 192.0, 0.0, 0.0, 0.0, 0.0, 0.0, 0.0, 0.0, 0.0, 0.0, 1.7308297268024151E9, 0.0, 2024-11-05 15:02:06.802
186.0, -178812.43572383354, -145569.87083791147, 83042.81032595759, -187500.02235174447, -187500.02235174447, -161861.87855742915, -177383.17577638337, -160403.02490032016, 0.194, 0.8240000000000001, 0.668, 192.0, 0.0, 0.0, 0.0, 0.0, 0.0, 0.0, 0.0, 0.0, 0.0, 1.7308297268024285E9, 0.0, 2024-11-05 15:02:06.802
187.0, -178790.57571775626, -145559.11964882846, 83030.0474798736, -187500.02235174447, -187500.02235174447, -161882.2633483724, -177378.32544783657, -160398.33103398455, 0.27, 0.768, 0.662, 192.0, 8.0, 112.0, 24.0, 0.0, 20.0, 176.0, 0.0, 0.0, 0.0, 1.7308297268024416E9, 0.0, 2024-11-05 15:02:06.802
188.0, -178757.53983945132, -145548.6590324234, 83017.46344774526, -187500.02235174447, -187500.02235174447, -161918.49552613444, -177371.53051752216, -160397.50401943972, 0.27, 0.768, 0.662, 192.0, 0.0, 0.0, 0.0, 0.0, 0.0, 0.0, 0.0, 0.0, 0.0, 1.7308297268024554E9, 0.0, 2024-11-05 15:02:06.802
189.0, -178774.32599953725, -145543.8087038766, 83004.7900086391, -187500.02235174447, -187500.02235174447, -161920.44012790205, -177374.88327919046, -160396.5205426837, 0.27, 0.768, 0.662, 192.0, 0.0, 0.0, 0.0, 0.0, 0.0, 0.0, 0.0, 0.0, 0.0, 1.730829726802469E9, 0.0, 2024-11-05 15:02:06.802
190.0, -178808.5688720428, -145538.93602358532, 82991.42366545483, -187500.02235174447, -187500.02235174447, -161901.55290383732, -177381.29822984914, -160391.44669669232, 0.27, 0.768, 0.662, 192.0, 0.0, 0.0, 0.0, 0.0, 0.0, 0.0, 0.0, 0.0, 0.0, 1.7308297268024824E9, 0.0, 2024-11-05 15:02:06.802
191.0, -178795.71661898098, -145528.63186939142, 82978.0349705261, -187500.02235174447, -187500.02235174447, -161913.8240115433, -177377.78900596965, -160385.74700185622, 0.27, 0.768, 0.662, 192.0, 0.0, 0.0, 0.0, 0.0, 0.0, 0.0, 0.0, 0.0, 0.0, 1.7308297268024957E9, 0.0, 2024-11-05 15:02:06.802
192.0, -178757.42808072903, -145515.82431981855, 82963.4839848857, -187500.02235174447, -187500.02235174447, -161949.13976778268, -177368.04364538714, -160382.28248146563, 0.27, 0.768, 0.662, 192.0, 0.0, 0.0, 0.0, 0.0, 0.0, 0.0, 0.0, 0.0, 0.0, 1.7308297268025093E9, 0.0, 2024-11-05 15:02:06.802
193.0, -178764.82650814374, -145510.05756974907, 82951.32463590201, -187500.02235174447, -187500.02235174447, -161958.9298318541, -177370.0105988992, -160382.23777797673, 0.27, 0.768, 0.662, 192.0, 0.0, 0.0, 0.0, 0.0, 0.0, 0.0, 0.0, 0.0, 0.0, 1.7308297268025224E9, 0.0, 2024-11-05 15:02:06.802
194.0, -178802.13156963963, -145505.9448487693, 82938.00299620665, -187500.02235174447, -187500.02235174447, -161938.9697240555, -177376.73847398025, -160377.36509768548, 0.27, 0.768, 0.662, 192.0, 0.0, 0.0, 0.0, 0.0, 0.0, 0.0, 0.0, 0.0, 0.0, 1.730829726802542E9, 0.0, 2024-11-05 15:02:06.802
195.0, -178800.23167136093, -145497.92057250984, 82926.35773734543, -187500.02235174447, -187500.02235174447, -161945.3176194808, -177376.62671525797, -160372.73828658322, 0.27, 0.768, 0.662, 192.0, 0.0, 0.0, 0.0, 0.0, 0.0, 0.0, 0.0, 0.0, 0.0, 1.7308297268025553E9, 0.0, 2024-11-05 15:02:06.802
196.0, -178761.71961566445, -145485.40359561486, 82914.04192615056, -187500.02235174447, -187500.02235174447, -161982.22034957653, -177368.73654946525, -160370.7936848156, 0.27, 0.768, 0.662, 192.0, 0.0, 0.0, 0.0, 0.0, 0.0, 0.0, 0.0, 0.0, 0.0, 1.7308297268025692E9, 0.0, 2024-11-05 15:02:06.802
197.0, -178758.67977841853, -145477.0440431886, 82900.58617598846, -187500.02235174447, -187500.02235174447, -161996.88309393922, -177367.0154651422, -160369.4972836372, 0.24, 0.76, 0.67, 192.0, 7.0, 128.0, 23.0, 192.0, 20.0, 240.0, 0.0, 0.0, 0.0, 1.7308297268025827E9, 0.0, 2024-11-05 15:02:06.802
198.0, -178795.98483991442, -145472.8866187199, 82887.39864675983, -187500.02235174447, -187500.02235174447, -161977.8394076633, -177373.58687801205, -160365.2504521907, 0.24, 0.76, 0.67, 192.0, 0.0, 0.0, 0.0, 0.0, 0.0, 0.0, 0.0, 0.0, 0.0, 1.7308297268025968E9, 0.0, 2024-11-05 15:02:06.802
199.0, -178800.0528574053, -145461.8895604479, 82872.82530937497, -187500.02235174447, -187500.02235174447, -161973.2796517944, -177372.13401462245, -160357.20382418678, 0.24, 0.76, 0.67, 192.0, 0.0, 0.0, 0.0, 0.0, 0.0, 0.0, 0.0, 0.0, 0.0, 1.73082972680261E9, 0.0, 2024-11-05 15:02:06.802
200.0, -178764.87121163265, -145450.8254469425, 82862.81172785899, -187500.02235174447, -187500.02235174447, -162009.06479466736, -177366.38961629744, -160356.53327185314, 0.24, 0.76, 0.67, 192.0, 0.0, 0.0, 0.0, 0.0, 0.0, 0.0, 0.0, 0.0, 0.0, 1.7308297268026233E9, 0.0, 2024-11-05 15:02:06.802
201.0, -178754.76822313885, -145443.89640616137, 82852.84284983193, -187500.02235174447, -187500.02235174447, -162033.71876880154, -177366.09904361953, -160358.61198408747, 0.24, 0.76, 0.67, 192.0, 0.0, 0.0, 0.0, 0.0, 0.0, 0.0, 0.0, 0.0, 0.0, 1.7308297268026366E9, 0.0, 2024-11-05 15:02:06.802
202.0, -178790.01692414487, -145439.78368518158, 82840.0576520035, -187500.02235174447, -187500.02235174447, -162017.983140705, -177372.60340125603, -160355.52744335265, 0.24, 0.76, 0.67, 192.0, 0.0, 0.0, 0.0, 0.0, 0.0, 0.0, 0.0, 0.0, 0.0, 1.7308297268026507E9, 0.0, 2024-11-05 15:02:06.802
203.0, -178805.6631452636, -145431.71470543323, 82826.73601230813, -187500.02235174447, -187500.02235174447, -162008.30483535587, -177374.63741000145, -160349.17954792734, 0.24, 0.76, 0.67, 192.0, 0.0, 0.0, 0.0, 0.0, 0.0, 0.0, 0.0, 0.0, 0.0, 1.730829726802664E9, 0.0, 2024-11-05 15:02:06.802
204.0, -178769.45331924598, -145416.00142908114, 82811.82739875643, -187500.02235174447, -187500.02235174447, -162035.5516118469, -177365.0261598857, -160343.39044611342, 0.24, 0.76, 0.67, 192.0, 0.0, 0.0, 0.0, 0.0, 0.0, 0.0, 0.0, 0.0, 0.0, 1.7308297268026772E9, 0.0, 2024-11-05 15:02:06.802
205.0, -178748.91206609155, -145406.077254543, 82799.93627070621, -187500.02235174447, -187500.02235174447, -162064.07243777186, -177361.0251976282, -160343.72572228024, 0.24, 0.76, 0.67, 192.0, 0.0, 0.0, 0.0, 0.0, 0.0, 0.0, 0.0, 0.0, 0.0, 1.7308297268026905E9, 0.0, 2024-11-05 15:02:06.802
206.0, -178777.72346469446, -145400.35520796242, 82786.01113391056, -187500.02235174447, -187500.02235174447, -162051.9577922771, -177365.33908430804, -160340.17179491185, 0.24, 0.76, 0.67, 192.0, 0.0, 0.0, 0.0, 0.0, 0.0, 0.0, 0.0, 0.0, 0.0, 1.730829726802704E9, 0.0, 2024-11-05 15:02:06.802
207.0, -178803.94206094052, -145395.571934649, 82774.94702040518, -187500.02235174447, -187500.02235174447, -162039.23964968201, -177371.39640705544, -160336.1931843988, 0.20400000000000001, 0.746, 0.658, 192.0, 6.0, 96.0, 23.0, 80.0, 20.0, 144.0, 0.0, 0.0, 0.0, 1.7308297268027172E9, 0.0, 2024-11-05 15:02:06.802
208.0, -178774.37070302616, -145381.04330075305, 82760.91012488725, -187500.02235174447, -187500.02235174447, -162061.68080111514, -177363.75211045172, -160330.58289654052, 0.20400000000000001, 0.746, 0.658, 192.0, 0.0, 0.0, 0.0, 0.0, 0.0, 0.0, 0.0, 0.0, 0.0, 1.7308297268027315E9, 0.0, 2024-11-05 15:02:06.802
209.0, -178744.86640034514, -145368.52632385807, 82747.45437472516, -187500.02235174447, -187500.02235174447, -162092.97324335258, -177356.64425571493, -160329.1970883843, 0.20400000000000001, 0.746, 0.658, 192.0, 0.0, 0.0, 0.0, 0.0, 0.0, 0.0, 0.0, 0.0, 0.0, 1.7308297268027585E9, 0.0, 2024-11-05 15:02:06.802
210.0, -178769.22980180144, -145364.48065811166, 82735.71970888611, -187500.02235174447, -187500.02235174447, -162089.3522607508, -177361.9192674064, -160328.66064651735, 0.20400000000000001, 0.746, 0.658, 192.0, 0.0, 0.0, 0.0, 0.0, 0.0, 0.0, 0.0, 0.0, 0.0, 1.730829726802772E9, 0.0, 2024-11-05 15:02:06.802
211.0, -178800.36578182768, -145359.54092258704, 82723.29213896897, -187500.02235174447, -187500.02235174447, -162071.98495530905, -177368.15540410942, -160323.8997249484, 0.20400000000000001, 0.746, 0.658, 192.0, 0.0, 0.0, 0.0, 0.0, 0.0, 0.0, 0.0, 0.0, 0.0, 1.7308297268027854E9, 0.0, 2024-11-05 15:02:06.802
212.0, -178778.8410519172, -145346.0628206805, 82708.91996728421, -187500.02235174447, -187500.02235174447, -162087.78763863895, -177362.1204331065, -160317.75299522319, 0.20400000000000001, 0.746, 0.658, 192.0, 0.0, 0.0, 0.0, 0.0, 0.0, 0.0, 0.0, 0.0, 0.0, 1.7308297268027987E9, 0.0, 2024-11-05 15:02:06.802
213.0, -178743.72646137793, -145332.2047391182, 82695.17364444419, -187500.02235174447, -187500.02235174447, -162121.53877276645, -177353.604418469, -160315.584876011, 0.20400000000000001, 0.746, 0.658, 192.0, 0.0, 0.0, 0.0, 0.0, 0.0, 0.0, 0.0, 0.0, 0.0, 1.7308297268028204E9, 0.0, 2024-11-05 15:02:06.802
214.0, -178757.11515630665, -145324.91807042577, 82681.40496985972, -187500.02235174447, -187500.02235174447, -162122.29873207794, -177355.12433709198, -160313.3944050544, 0.20400000000000001, 0.746, 0.658, 192.0, 0.0, 0.0, 0.0, 0.0, 0.0, 0.0, 0.0, 0.0, 0.0, 1.730829726802834E9, 0.0, 2024-11-05 15:02:06.802
215.0, -178792.87794743513, -145321.18532910172, 82669.98322844306, -187500.02235174447, -187500.02235174447, -162103.34445277983, -177363.126261607, -160309.9969398972, 0.20400000000000001, 0.746, 0.658, 192.0, 0.0, 0.0, 0.0, 0.0, 0.0, 0.0, 0.0, 0.0, 0.0, 1.730829726802848E9, 0.0, 2024-11-05 15:02:06.802
216.0, -178780.02569437335, -145308.37777952885, 82656.0580916474, -187500.02235174447, -187500.02235174447, -162111.2122668281, -177358.94648539383, -160303.44787877178, 0.20400000000000001, 0.746, 0.658, 192.0, 0.0, 0.0, 0.0, 0.0, 0.0, 0.0, 0.0, 0.0, 0.0, 1.7308297268028612E9, 0.0, 2024-11-05 15:02:06.802
217.0, -178741.4018799546, -145293.37975899933, 82641.77532694046, -187500.02235174447, -187500.02235174447, -162144.1140346663, -177348.9999591112, -160300.07276535901, 0.192, 0.742, 0.644, 192.0, 6.0, 0.0, 23.0, 48.0, 20.0, 32.0, 0.0, 0.0, 0.0, 1.7308297268028755E9, 0.0, 2024-11-05 15:02:06.802
218.0, -178745.11226953415, -145284.68493040622, 82628.61014945629, -187500.02235174447, -187500.02235174447, -162152.49593883706, -177348.9552556223, -160298.75401243617, 0.192, 0.742, 0.644, 192.0, 0.0, 0.0, 0.0, 0.0, 0.0, 0.0, 0.0, 0.0, 0.0, 1.730829726802889E9, 0.0, 2024-11-05 15:02:06.802
219.0, -178782.12675835215, -145280.5945611709, 82616.62961442824, -187500.02235174447, -187500.02235174447, -162133.11697639432, -177356.7113109483, -160295.1330298344, 0.192, 0.742, 0.644, 192.0, 0.0, 0.0, 0.0, 0.0, 0.0, 0.0, 0.0, 0.0, 0.0, 1.730829726802902E9, 0.0, 2024-11-05 15:02:06.802
220.0, -178779.13162459515, -145268.9493023097, 82602.83858809932, -187500.02235174447, -187500.02235174447, -162132.60288627184, -177354.4090812694, -160288.24869254217, 0.192, 0.742, 0.644, 192.0, 0.0, 0.0, 0.0, 0.0, 0.0, 0.0, 0.0, 0.0, 0.0, 1.730829726802915E9, 0.0, 2024-11-05 15:02:06.802
221.0, -178738.56320840874, -145251.783162568, 82591.32743970484, -187500.02235174447, -187500.02235174447, -162162.4201133752, -177345.42367999838, -160285.52177971863, 0.192, 0.742, 0.644, 192.0, 0.0, 0.0, 0.0, 0.0, 0.0, 0.0, 0.0, 0.0, 0.0, 1.7308297268029282E9, 0.0, 2024-11-05 15:02:06.802
222.0, -178728.1919989815, -145236.36045889385, 82579.21279421006, -187500.02235174447, -187500.02235174447, -162172.3889914023, -177341.7132904188, -160282.97368085073, 0.192, 0.742, 0.644, 192.0, 0.0, 0.0, 0.0, 0.0, 0.0, 0.0, 0.0, 0.0, 0.0, 1.7308297268029418E9, 0.0, 2024-11-05 15:02:06.802
223.0, -178760.73613890843, -145227.79974076746, 82565.39941613667, -187500.02235174447, -187500.02235174447, -162150.2160609026, -177346.63067419897, -160277.18457903678, 0.192, 0.742, 0.644, 192.0, 0.0, 0.0, 0.0, 0.0, 0.0, 0.0, 0.0, 0.0, 0.0, 1.730829726802955E9, 0.0, 2024-11-05 15:02:06.802
224.0, -178769.76624366836, -145219.23902264106, 82552.8377357528, -187500.02235174447, -187500.02235174447, -162144.24814513305, -177348.28470328866, -160271.64134641187, 0.192, 0.742, 0.644, 192.0, 0.0, 0.0, 0.0, 0.0, 0.0, 0.0, 0.0, 0.0, 0.0, 1.7308297268029745E9, 0.0, 2024-11-05 15:02:06.802
225.0, -178733.62347288412, -145205.2244788676, 82538.84554372377, -187500.02235174447, -187500.02235174447, -162173.8865582808, -177339.79104039565, -160268.19917776575, 0.192, 0.742, 0.644, 192.0, 0.0, 0.0, 0.0, 0.0, 0.0, 0.0, 0.0, 0.0, 0.0, 1.7308297268029873E9, 0.0, 2024-11-05 15:02:06.802
226.0, -178721.2853099448, -145196.90962993022, 82526.90971218464, -187500.02235174447, -187500.02235174447, -162198.42877369272, -177337.82408688357, -160269.2273580107, 0.192, 0.742, 0.644, 192.0, 0.0, 0.0, 0.0, 0.0, 0.0, 0.0, 0.0, 0.0, 0.0, 1.7308297268030005E9, 0.0, 2024-11-05 15:02:06.803
227.0, -178757.45043247347, -145195.769690963, 82515.84559867927, -187500.02235174447, -187500.02235174447, -162187.789343332, -177346.58597071006, -160268.69091614377, 0.196, 0.724, 0.648, 192.0, 6.0, 32.0, 22.0, 160.0, 20.0, 64.0, 0.0, 0.0, 0.0, 1.7308297268030133E9, 0.0, 2024-11-05 15:02:06.803
228.0, -178774.77303442635, -145188.48302227058, 82501.18285431658, -187500.02235174447, -187500.02235174447, -162176.70287808214, -177348.82114515558, -160261.94068931826, 0.196, 0.724, 0.648, 192.0, 0.0, 0.0, 0.0, 0.0, 0.0, 0.0, 0.0, 0.0, 0.0, 1.7308297268030276E9, 0.0, 2024-11-05 15:02:06.803
229.0, -178743.2347229999, -145175.4072517642, 82487.28006926538, -187500.02235174447, -187500.02235174447, -162202.92147432824, -177341.3109590186, -160257.85032008294, 0.196, 0.724, 0.648, 192.0, 0.0, 0.0, 0.0, 0.0, 0.0, 0.0, 0.0, 0.0, 0.0, 1.7308297268030407E9, 0.0, 2024-11-05 15:02:06.803
230.0, -178722.7828768233, -145166.60066444884, 82475.76892087089, -187500.02235174447, -187500.02235174447, -162233.3869020208, -177338.13701130595, -160259.25847998363, 0.196, 0.724, 0.648, 192.0, 0.0, 0.0, 0.0, 0.0, 0.0, 0.0, 0.0, 0.0, 0.0, 1.7308297268030536E9, 0.0, 2024-11-05 15:02:06.803
231.0, -178752.95773183796, -145164.32078651438, 82463.94484805404, -187500.02235174447, -187500.02235174447, -162227.35193101788, -177344.9095898759, -160258.45381718324, 0.196, 0.724, 0.648, 192.0, 0.0, 0.0, 0.0, 0.0, 0.0, 0.0, 0.0, 0.0, 0.0, 1.7308297268030665E9, 0.0, 2024-11-05 15:02:06.803
232.0, -178779.53395599534, -145160.00689983452, 82450.98083626996, -187500.02235174447, -187500.02235174447, -162213.51620120005, -177349.98343586727, -160253.3799711919, 0.196, 0.724, 0.648, 192.0, 0.0, 0.0, 0.0, 0.0, 0.0, 0.0, 0.0, 0.0, 0.0, 1.7308297268030794E9, 0.0, 2024-11-05 15:02:06.803
233.0, -178753.85180161617, -145147.53462642845, 82436.87688551866, -187500.02235174447, -187500.02235174447, -162233.96804737666, -177343.63554044196, -160248.59669787844, 0.196, 0.724, 0.648, 192.0, 0.0, 0.0, 0.0, 0.0, 0.0, 0.0, 0.0, 0.0, 0.0, 1.7308297268030925E9, 0.0, 2024-11-05 15:02:06.803
234.0, -178724.2357402129, -145135.37527744475, 82423.01880395637, -187500.02235174447, -187500.02235174447, -162265.90869020327, -177336.6617961719, -160247.30029670004, 0.196, 0.724, 0.648, 192.0, 0.0, 0.0, 0.0, 0.0, 0.0, 0.0, 0.0, 0.0, 0.0, 1.730829726803105E9, 0.0, 2024-11-05 15:02:06.803
235.0, -178747.9956445689, -145133.1624547437, 82411.97704219545, -187500.02235174447, -187500.02235174447, -162267.02627742605, -177342.74147066372, -160247.8814420559, 0.196, 0.724, 0.648, 192.0, 0.0, 0.0, 0.0, 0.0, 0.0, 0.0, 0.0, 0.0, 0.0, 1.7308297268031185E9, 0.0, 2024-11-05 15:02:06.803
236.0, -178778.9975141284, -145128.28977445242, 82397.09078038821, -187500.02235174447, -187500.02235174447, -162248.809605695, -177347.368281766, -160241.35473267492, 0.196, 0.724, 0.648, 192.0, 0.0, 0.0, 0.0, 0.0, 0.0, 0.0, 0.0, 0.0, 0.0, 1.730829726803131E9, 0.0, 2024-11-05 15:02:06.803
237.0, -178760.78084239733, -145116.5998121023, 82382.96447789246, -187500.02235174447, -187500.02235174447, -162262.6006320239, -177342.42854624137, -160235.78914830557, 0.20600000000000002, 0.728, 0.664, 192.0, 6.0, 112.0, 22.0, 192.0, 20.0, 192.0, 0.0, 0.0, 0.0, 1.730829726803144E9, 0.0, 2024-11-05 15:02:06.803
238.0, -178726.71678384743, -145104.03813171844, 82369.93341087502, -187500.02235174447, -187500.02235174447, -162296.84350452942, -177334.98541533775, -160234.8727267829, 0.20600000000000002, 0.728, 0.664, 192.0, 0.0, 0.0, 0.0, 0.0, 0.0, 0.0, 0.0, 0.0, 0.0, 1.7308297268031576E9, 0.0, 2024-11-05 15:02:06.803
239.0, -178740.1501822651, -145098.74076828253, 82357.30467525776, -187500.02235174447, -187500.02235174447, -162302.6549580878, -177337.53351420566, -160234.15747096032, 0.20600000000000002, 0.728, 0.664, 192.0, 0.0, 0.0, 0.0, 0.0, 0.0, 0.0, 0.0, 0.0, 0.0, 1.7308297268032265E9, 0.0, 2024-11-05 15:02:06.803
240.0, -178776.56117398277, -145096.32677988135, 82344.98886406289, -187500.02235174447, -187500.02235174447, -162285.5558735795, -177345.04370034262, -160230.24591568066, 0.20600000000000002, 0.728, 0.664, 192.0, 0.0, 0.0, 0.0, 0.0, 0.0, 0.0, 0.0, 0.0, 0.0, 1.730829727281654E9, 0.0, 2024-11-05 15:02:07.281
241.0, -178767.91104887857, -145086.20143964307, 82331.39900343407, -187500.02235174447, -187500.02235174447, -162292.797838783, -177342.54030496365, -160224.7697382891, 0.20600000000000002, 0.728, 0.664, 192.0, 0.0, 0.0, 0.0, 0.0, 0.0, 0.0, 0.0, 0.0, 0.0, 1.7308297272817216E9, 0.0, 2024-11-05 15:02:07.281
242.0, -178730.71774610493, -145072.56687552534, 82317.89854978306, -187500.02235174447, -187500.02235174447, -162326.66073163282, -177334.2478077707, -160222.89219175486, 0.20600000000000002, 0.728, 0.664, 192.0, 0.0, 0.0, 0.0, 0.0, 0.0, 0.0, 0.0, 0.0, 0.0, 1.7308297272817473E9, 0.0, 2024-11-05 15:02:07.281
243.0, -178733.46701067293, -145064.96728241054, 82304.24163392087, -187500.02235174447, -187500.02235174447, -162338.59656317194, -177333.8007728816, -160221.819308021, 0.20600000000000002, 0.728, 0.664, 192.0, 0.0, 0.0, 0.0, 0.0, 0.0, 0.0, 0.0, 0.0, 0.0, 1.7308297272817705E9, 0.0, 2024-11-05 15:02:07.281
244.0, -178770.72736867995, -145062.5979974983, 82291.16586341451, -187500.02235174447, -187500.02235174447, -162322.23508623065, -177341.1097933185, -160217.93010448577, 0.20600000000000002, 0.728, 0.664, 192.0, 0.0, 0.0, 0.0, 0.0, 0.0, 0.0, 0.0, 0.0, 0.0, 1.7308297272817912E9, 0.0, 2024-11-05 15:02:07.281
245.0, -178774.10248209268, -145056.51832300643, 82279.9229359535, -187500.02235174447, -187500.02235174447, -162324.93964730974, -177342.9649881083, -160214.51028758413, 0.20600000000000002, 0.728, 0.664, 192.0, 0.0, 0.0, 0.0, 0.0, 0.0, 0.0, 0.0, 0.0, 0.0, 1.7308297272818048E9, 0.0, 2024-11-05 15:02:07.281
246.0, -178739.5466851648, -145045.32009903432, 82269.03763640377, -187500.02235174447, -187500.02235174447, -162359.5177959821, -177337.4441072278, -160214.9126189843, 0.20600000000000002, 0.728, 0.664, 192.0, 0.0, 0.0, 0.0, 0.0, 0.0, 0.0, 0.0, 0.0, 0.0, 1.7308297272818184E9, 0.0, 2024-11-05 15:02:07.281
247.0, -178732.61764438363, -145036.1335320632, 82255.3136653082, -187500.02235174447, -187500.02235174447, -162378.36031655793, -177335.07482231557, -160214.08560443946, 0.192, 0.734, 0.666, 192.0, 6.0, 0.0, 22.0, 240.0, 20.0, 208.0, 0.0, 0.0, 0.0, 1.7308297272818313E9, 0.0, 2024-11-05 15:02:07.281
248.0, -178768.51454597886, -145033.6748401731, 82241.70145293493, -187500.02235174447, -187500.02235174447, -162364.34577278447, -177341.33331076306, -160210.10699392643, 0.192, 0.734, 0.666, 192.0, 0.0, 0.0, 0.0, 0.0, 0.0, 0.0, 0.0, 0.0, 0.0, 1.730829727281845E9, 0.0, 2024-11-05 15:02:07.281
249.0, -178781.07622636275, -145028.86921511524, 82230.0114905848, -187500.02235174447, -187500.02235174447, -162361.28358379408, -177344.7531276647, -160206.17308690227, 0.192, 0.734, 0.666, 192.0, 0.0, 0.0, 0.0, 0.0, 0.0, 0.0, 0.0, 0.0, 0.0, 1.7308297272818599E9, 0.0, 2024-11-05 15:02:07.281
250.0, -178747.4368509575, -145016.50870043144, 82217.65097590101, -187500.02235174447, -187500.02235174447, -162391.39138357536, -177338.31582526158, -160204.49670606814, 0.192, 0.734, 0.666, 192.0, 0.0, 0.0, 0.0, 0.0, 0.0, 0.0, 0.0, 0.0, 0.0, 1.7308297272818725E9, 0.0, 2024-11-05 15:02:07.281
251.0, -178732.30471996128, -145006.94215380456, 82204.68696411693, -187500.02235174447, -187500.02235174447, -162416.47004085424, -177334.8960083599, -160204.5637613015, 0.192, 0.734, 0.666, 192.0, 0.0, 0.0, 0.0, 0.0, 0.0, 0.0, 0.0, 0.0, 0.0, 1.7308297272818854E9, 0.0, 2024-11-05 15:02:07.281
252.0, -178766.72640642244, -145006.07043577082, 82192.86289130007, -187500.02235174447, -187500.02235174447, -162408.87044773943, -177342.361491008, -160203.37911884536, 0.192, 0.734, 0.666, 192.0, 0.0, 0.0, 0.0, 0.0, 0.0, 0.0, 0.0, 0.0, 0.0, 1.7308297272818978E9, 0.0, 2024-11-05 15:02:07.281
253.0, -178788.11702586617, -145002.74002584696, 82181.10587371659, -187500.02235174447, -187500.02235174447, -162401.11439241344, -177347.5023922327, -160199.53461879905, 0.192, 0.734, 0.666, 192.0, 0.0, 0.0, 0.0, 0.0, 0.0, 0.0, 0.0, 0.0, 0.0, 1.7308297272819576E9, 0.0, 2024-11-05 15:02:07.281
254.0, -178757.83041212923, -144989.7760140629, 82167.33719913212, -187500.02235174447, -187500.02235174447, -162424.7401863027, -177340.72981366277, -160195.75717398612, 0.192, 0.734, 0.666, 192.0, 0.0, 0.0, 0.0, 0.0, 0.0, 0.0, 0.0, 0.0, 0.0, 1.7308297272819698E9, 0.0, 2024-11-05 15:02:07.281
255.0, -178734.2940252178, -144978.53308660188, 82153.85909722556, -187500.02235174447, -187500.02235174447, -162453.1939569943, -177335.2089327823, -160195.19838037473, 0.192, 0.734, 0.666, 192.0, 0.0, 0.0, 0.0, 0.0, 0.0, 0.0, 0.0, 0.0, 0.0, 1.7308297272819824E9, 0.0, 2024-11-05 15:02:07.281
0.0, -178760.06558657475, -144974.2639034109, 82139.9339604299, -187500.02235174447, -187500.02235174447, -162448.9471255478, -177339.34400550651, -160192.4714675512, 0.192, 0.734, 0.666, 192.0, 0.0, 0.0, 0.0, 0.0, 0.0, 0.0, 0.0, 0.0, 0.0, 1.7308297272819948E9, 0.0, 2024-11-05 15:02:07.281
1.0, -178788.36289505518, -144971.8722667542, 82127.55109400167, -187500.02235174447, -187500.02235174447, -162437.32421843102, -177345.1554590649, -160187.93406342674, 0.154, 0.744, 0.668, 192.0, 4.0, 208.0, 23.0, 64.0, 20.0, 224.0, 0.0, 0.0, 0.0, 1.730829727282007E9, 0.0, 2024-11-05 15:02:07.282
2.0, -178763.41834824305, -144958.75179275894, 82112.62012870552, -187500.02235174447, -187500.02235174447, -162454.6915238728, -177338.5616944506, -160182.3684790574, 0.154, 0.744, 0.668, 192.0, 0.0, 0.0, 0.0, 0.0, 0.0, 0.0, 0.0, 0.0, 0.0, 1.7308297272820206E9, 0.0, 2024-11-05 15:02:07.282
3.0, -178734.5845978957, -144947.59827227573, 82100.39372448847, -187500.02235174447, -187500.02235174447, -162487.86151264448, -177333.1972757813, -160183.3072523245, 0.154, 0.744, 0.668, 192.0, 0.0, 0.0, 0.0, 0.0, 0.0, 0.0, 0.0, 0.0, 0.0, 1.7308297272820337E9, 0.0, 2024-11-05 15:02:07.282
4.0, -178755.57288593924, -144944.5137315409, 82087.58617491557, -187500.02235174447, -187500.02235174447, -162490.8566464015, -177337.04177582765, -160182.4131825463, 0.154, 0.744, 0.668, 192.0, 0.0, 0.0, 0.0, 0.0, 0.0, 0.0, 0.0, 0.0, 0.0, 1.7308297272820463E9, 0.0, 2024-11-05 15:02:07.282
5.0, -178788.4970055219, -144942.50207453992, 82074.51040440923, -187500.02235174447, -187500.02235174447, -162476.99856483922, -177343.3002642751, -160177.42874353277, 0.154, 0.744, 0.668, 192.0, 0.0, 0.0, 0.0, 0.0, 0.0, 0.0, 0.0, 0.0, 0.0, 1.7308297272820587E9, 0.0, 2024-11-05 15:02:07.282
6.0, -178773.07430184775, -144932.19792034602, 82061.03230250267, -187500.02235174447, -187500.02235174447, -162490.56607372357, -177340.03690958465, -160173.0478016195, 0.154, 0.744, 0.668, 192.0, 0.0, 0.0, 0.0, 0.0, 0.0, 0.0, 0.0, 0.0, 0.0, 1.730829727282071E9, 0.0, 2024-11-05 15:02:07.282
7.0, -178741.7371561214, -144922.27374580788, 82050.34816865304, -187500.02235174447, -187500.02235174447, -162527.17823114136, -177335.6559676714, -160175.28297606503, 0.154, 0.744, 0.668, 192.0, 0.0, 0.0, 0.0, 0.0, 0.0, 0.0, 0.0, 0.0, 0.0, 1.7308297272820835E9, 0.0, 2024-11-05 15:02:07.282
8.0, -178754.38824348312, -144918.51865273938, 82038.07706094708, -187500.02235174447, -187500.02235174447, -162537.57179231307, -177338.38288049496, -160175.6629557208, 0.154, 0.744, 0.668, 192.0, 0.0, 0.0, 0.0, 0.0, 0.0, 0.0, 0.0, 0.0, 0.0, 1.7308297272820957E9, 0.0, 2024-11-05 15:02:07.282
9.0, -178790.77688345636, -144917.57987947227, 82024.17427589587, -187500.02235174447, -187500.02235174447, -162523.19962062832, -177344.7978311536, -160170.72322019617, 0.154, 0.744, 0.668, 192.0, 0.0, 0.0, 0.0, 0.0, 0.0, 0.0, 0.0, 0.0, 0.0, 1.730829727282108E9, 0.0, 2024-11-05 15:02:07.282
10.0, -178784.4960432644, -144908.9521061125, 82010.13738037794, -187500.02235174447, -187500.02235174447, -162530.64275153194, -177343.0543950861, -160165.4035050158, 0.154, 0.744, 0.668, 192.0, 0.0, 0.0, 0.0, 0.0, 0.0, 0.0, 0.0, 0.0, 0.0, 1.73082972728212E9, 0.0, 2024-11-05 15:02:07.282
11.0, -178749.22499051393, -144896.77040538436, 81997.26277557168, -187500.02235174447, -187500.02235174447, -162565.3773624155, -177336.0582990716, -160164.97882187116, 0.12, 0.748, 0.66, 192.0, 3.0, 192.0, 23.0, 96.0, 20.0, 160.0, 0.0, 0.0, 0.0, 1.7308297272821324E9, 0.0, 2024-11-05 15:02:07.282
12.0, -178751.72838589293, -144890.98130357044, 81984.27641204315, -187500.02235174447, -187500.02235174447, -162581.7835428457, -177336.2594647717, -160165.1576358268, 0.12, 0.748, 0.66, 192.0, 0.0, 0.0, 0.0, 0.0, 0.0, 0.0, 0.0, 0.0, 0.0, 1.730829727282152E9, 0.0, 2024-11-05 15:02:07.282
13.0, -178789.0557991333, -144890.46721344796, 81970.77595839214, -187500.02235174447, -187500.02235174447, -162568.79717931716, -177342.8085258971, -160161.0002113581, 0.12, 0.748, 0.66, 192.0, 0.0, 0.0, 0.0, 0.0, 0.0, 0.0, 0.0, 0.0, 0.0, 1.7308297272821643E9, 0.0, 2024-11-05 15:02:07.282
14.0, -178794.442569547, -144885.43807094553, 81958.99658906419, -187500.02235174447, -187500.02235174447, -162571.7252578408, -177344.7084241758, -160157.22276654516, 0.12, 0.748, 0.66, 192.0, 0.0, 0.0, 0.0, 0.0, 0.0, 0.0, 0.0, 0.0, 0.0, 1.7308297272821767E9, 0.0, 2024-11-05 15:02:07.282
15.0, -178760.11029006366, -144873.7928120843, 81947.26192322516, -187500.02235174447, -187500.02235174447, -162605.11876405703, -177338.94167410635, -160157.2004148007, 0.12, 0.748, 0.66, 192.0, 0.0, 0.0, 0.0, 0.0, 0.0, 0.0, 0.0, 0.0, 0.0, 1.7308297272821891E9, 0.0, 2024-11-05 15:02:07.282
16.0, -178753.96356033845, -144867.37786142563, 81935.70607134177, -187500.02235174447, -187500.02235174447, -162628.34222654608, -177338.53934270615, -160158.78738865705, 0.12, 0.748, 0.66, 192.0, 0.0, 0.0, 0.0, 0.0, 0.0, 0.0, 0.0, 0.0, 0.0, 1.7308297272822013E9, 0.0, 2024-11-05 15:02:07.282
17.0, -178789.4581305335, -144866.66260560305, 81922.40678339086, -187500.02235174447, -187500.02235174447, -162618.2839415412, -177344.9542933648, -160155.27816477756, 0.12, 0.748, 0.66, 192.0, 0.0, 0.0, 0.0, 0.0, 0.0, 0.0, 0.0, 0.0, 0.0, 1.7308297272822137E9, 0.0, 2024-11-05 15:02:07.282
18.0, -178802.3997905731, -144861.63346310062, 81908.79457101758, -187500.02235174447, -187500.02235174447, -162614.19357230587, -177346.92124687688, -160149.53376645254, 0.12, 0.748, 0.66, 192.0, 0.0, 0.0, 0.0, 0.0, 0.0, 0.0, 0.0, 0.0, 0.0, 1.7308297272822266E9, 0.0, 2024-11-05 15:02:07.282
19.0, -178768.31338027876, -144848.17771293852, 81894.53415805509, -187500.02235174447, -187500.02235174447, -162641.9320871749, -177339.43341248436, -160146.53863269553, 0.12, 0.748, 0.66, 192.0, 0.0, 0.0, 0.0, 0.0, 0.0, 0.0, 0.0, 0.0, 0.0, 1.73082972728224E9, 0.0, 2024-11-05 15:02:07.282
20.0, -178750.946074837, -144838.25353840037, 81880.832538704, -187500.02235174447, -187500.02235174447, -162668.150683421, -177335.43245022686, -160146.35981873987, 0.12, 0.748, 0.66, 192.0, 0.0, 0.0, 0.0, 0.0, 0.0, 0.0, 0.0, 0.0, 0.0, 1.7308297272822528E9, 0.0, 2024-11-05 15:02:07.282
21.0, -178783.8031391863, -144838.3876488671, 81868.74024495366, -187500.02235174447, -187500.02235174447, -162663.41211359645, -177342.07091833008, -160144.70578965018, 0.108, 0.758, 0.658, 192.0, 3.0, 96.0, 23.0, 176.0, 20.0, 144.0, 0.0, 0.0, 0.0, 1.7308297272822652E9, 0.0, 2024-11-05 15:02:07.282
22.0, -178805.37257258565, -144835.10194243217, 81855.32919828048, -187500.02235174447, -187500.02235174447, -162655.23137512582, -177345.69190093182, -160139.05079830298, 0.108, 0.758, 0.658, 192.0, 0.0, 0.0, 0.0, 0.0, 0.0, 0.0, 0.0, 0.0, 0.0, 1.7308297272822812E9, 0.0, 2024-11-05 15:02:07.282
23.0, -178776.42706351605, -144822.36144809265, 81841.314654507, -187500.02235174447, -187500.02235174447, -162678.61129982607, -177339.4110607399, -160135.34040872342, 0.108, 0.758, 0.658, 192.0, 0.0, 0.0, 0.0, 0.0, 0.0, 0.0, 0.0, 0.0, 0.0, 1.7308297272822936E9, 0.0, 2024-11-05 15:02:07.282
24.0, -178751.88484810412, -144811.14087237607, 81827.99301481164, -187500.02235174447, -187500.02235174447, -162708.67439611847, -177334.0019385817, -160135.27335349005, 0.108, 0.758, 0.658, 192.0, 0.0, 0.0, 0.0, 0.0, 0.0, 0.0, 0.0, 0.0, 0.0, 1.730829727282306E9, 0.0, 2024-11-05 15:02:07.282
25.0, -178777.5446507388, -144809.21862235293, 81815.23016872766, -187500.02235174447, -187500.02235174447, -162708.71909960738, -177338.7628601507, -160133.66402788926, 0.108, 0.758, 0.658, 192.0, 0.0, 0.0, 0.0, 0.0, 0.0, 0.0, 0.0, 0.0, 0.0, 1.7308297272823186E9, 0.0, 2024-11-05 15:02:07.282
26.0, -178805.7078487525, -144807.0281513963, 81801.93088077675, -187500.02235174447, -187500.02235174447, -162697.99026226884, -177343.8143543976, -160128.21020224216, 0.108, 0.758, 0.658, 192.0, 0.0, 0.0, 0.0, 0.0, 0.0, 0.0, 0.0, 0.0, 0.0, 1.7308297272823308E9, 0.0, 2024-11-05 15:02:07.282
27.0, -178784.11606360867, -144795.65111346854, 81788.47513061466, -187500.02235174447, -187500.02235174447, -162716.2069339999, -177339.27695027317, -160124.23159172913, 0.108, 0.758, 0.658, 192.0, 0.0, 0.0, 0.0, 0.0, 0.0, 0.0, 0.0, 0.0, 0.0, 1.730829727282349E9, 0.0, 2024-11-05 15:02:07.282
28.0, -178755.12585105014, -144784.81051740772, 81776.94163047572, -187500.02235174447, -187500.02235174447, -162750.29334429424, -177334.605435682, -160125.81856558545, 0.108, 0.758, 0.658, 192.0, 0.0, 0.0, 0.0, 0.0, 0.0, 0.0, 0.0, 0.0, 0.0, 1.7308297272823615E9, 0.0, 2024-11-05 15:02:07.282
29.0, -178772.51550823636, -144780.7648516613, 81763.77645299154, -187500.02235174447, -187500.02235174447, -162755.52365249678, -177337.42175548337, -160124.43275742923, 0.108, 0.758, 0.658, 192.0, 0.0, 0.0, 0.0, 0.0, 0.0, 0.0, 0.0, 0.0, 0.0, 1.730829727282374E9, 0.0, 2024-11-05 15:02:07.282
30.0, -178805.37257258565, -144779.0661190827, 81750.32070282946, -187500.02235174447, -187500.02235174447, -162742.80550990172, -177343.12145031948, -160119.02363527103, 0.108, 0.758, 0.658, 192.0, 0.0, 0.0, 0.0, 0.0, 0.0, 0.0, 0.0, 0.0, 0.0, 1.730829727282386E9, 0.0, 2024-11-05 15:02:07.282
31.0, -178791.02275264537, -144768.1137642996, 81736.32851080043, -187500.02235174447, -187500.02235174447, -162754.13784434056, -177339.56752295108, -160113.81567881294, 0.092, 0.762, 0.652, 192.0, 2.0, 224.0, 23.0, 208.0, 20.0, 96.0, 0.0, 0.0, 0.0, 1.730829727282406E9, 0.0, 2024-11-05 15:02:07.282
32.0, -178755.86345861715, -144754.12157227058, 81722.82805714943, -187500.02235174447, -187500.02235174447, -162786.65963252302, -177332.1467437919, -160112.92160903473, 0.092, 0.762, 0.652, 192.0, 0.0, 0.0, 0.0, 0.0, 0.0, 0.0, 0.0, 0.0, 0.0, 1.73082972728242E9, 0.0, 2024-11-05 15:02:07.282
33.0, -178765.45235698848, -144749.38300244606, 81710.62400467682, -187500.02235174447, -187500.02235174447, -162798.46135359543, -177334.0466420706, -160112.96631252364, 0.092, 0.762, 0.652, 192.0, 0.0, 0.0, 0.0, 0.0, 0.0, 0.0, 0.0, 0.0, 0.0, 1.7308297272824323E9, 0.0, 2024-11-05 15:02:07.282
34.0, -178799.67287774957, -144747.19253148945, 81695.9836120586, -187500.02235174447, -187500.02235174447, -162784.33505109968, -177338.78521189516, -160106.6854723317, 0.092, 0.762, 0.652, 192.0, 0.0, 0.0, 0.0, 0.0, 0.0, 0.0, 0.0, 0.0, 0.0, 1.7308297272824447E9, 0.0, 2024-11-05 15:02:07.282
35.0, -178797.0130201594, -144740.17408373047, 81684.02542877501, -187500.02235174447, -187500.02235174447, -162791.68877502548, -177339.12048806198, -160102.9974344966, 0.092, 0.762, 0.652, 192.0, 0.0, 0.0, 0.0, 0.0, 0.0, 0.0, 0.0, 0.0, 0.0, 1.7308297272824569E9, 0.0, 2024-11-05 15:02:07.282
36.0, -178762.65838893157, -144727.88062428005, 81672.26841119152, -187500.02235174447, -187500.02235174447, -162825.2834469418, -177333.5549036926, -160103.66798683023, 0.092, 0.762, 0.652, 192.0, 0.0, 0.0, 0.0, 0.0, 0.0, 0.0, 0.0, 0.0, 0.0, 1.7308297272824695E9, 0.0, 2024-11-05 15:02:07.282
37.0, -178762.59133369822, -144721.2198044324, 81659.70673080764, -187500.02235174447, -187500.02235174447, -162842.15901400556, -177333.42079322587, -160103.91385601927, 0.092, 0.762, 0.652, 192.0, 0.0, 0.0, 0.0, 0.0, 0.0, 0.0, 0.0, 0.0, 0.0, 1.7308297272824817E9, 0.0, 2024-11-05 15:02:07.282
38.0, -178801.08103765023, -144723.1644062, 81648.73202428008, -187500.02235174447, -187500.02235174447, -162832.45835691196, -177341.98151135226, -160101.85749552937, 0.092, 0.762, 0.652, 192.0, 0.0, 0.0, 0.0, 0.0, 0.0, 0.0, 0.0, 0.0, 0.0, 1.7308297272824943E9, 0.0, 2024-11-05 15:02:07.282
39.0, -178808.39005808713, -144719.18579568694, 81637.51144856351, -187500.02235174447, -187500.02235174447, -162834.40295867957, -177344.864886387, -160098.66119607227, 0.092, 0.762, 0.652, 192.0, 0.0, 0.0, 0.0, 0.0, 0.0, 0.0, 0.0, 0.0, 0.0, 1.730829727282507E9, 0.0, 2024-11-05 15:02:07.282
40.0, -178771.3979210136, -144704.76892051328, 81622.60283501183, -187500.02235174447, -187500.02235174447, -162861.76149389285, -177336.1477060494, -160095.46489661516, 0.092, 0.762, 0.652, 192.0, 0.0, 0.0, 0.0, 0.0, 0.0, 0.0, 0.0, 0.0, 0.0, 1.730829727282519E9, 0.0, 2024-11-05 15:02:07.282
41.0, -178761.38433949763, -144699.06922567717, 81609.37060229428, -187500.02235174447, -187500.02235174447, -162882.52626449184, -177333.64431067044, -160095.42019312622, 0.074, 0.774, 0.656, 192.0, 2.0, 80.0, 24.0, 48.0, 20.0, 128.0, 0.0, 0.0, 0.0, 1.7308297272825327E9, 0.0, 2024-11-05 15:02:07.282
42.0, -178796.67774399254, -144703.13724316802, 81597.47947424406, -187500.02235174447, -187500.02235174447, -162874.3455260212, -177340.9533311073, -160093.2744256585, 0.074, 0.774, 0.656, 192.0, 0.0, 0.0, 0.0, 0.0, 0.0, 0.0, 0.0, 0.0, 0.0, 1.7308297272825527E9, 0.0, 2024-11-05 15:02:07.282
43.0, -178812.52513081135, -144701.08088267816, 81585.74480840503, -187500.02235174447, -187500.02235174447, -162871.1045230752, -177345.0660520871, -160089.49698084558, 0.074, 0.774, 0.656, 192.0, 0.0, 0.0, 0.0, 0.0, 0.0, 0.0, 0.0, 0.0, 0.0, 1.730829727282565E9, 0.0, 2024-11-05 15:02:07.282
44.0, -178780.36097054018, -144687.73689123834, 81572.49022394302, -187500.02235174447, -187500.02235174447, -162897.39017455463, -177338.7628601507, -160087.26180640006, 0.074, 0.774, 0.656, 192.0, 0.0, 0.0, 0.0, 0.0, 0.0, 0.0, 0.0, 0.0, 0.0, 1.7308297272825778E9, 0.0, 2024-11-05 15:02:07.282
45.0, -178762.01018834236, -144676.91864692196, 81559.23563948103, -187500.02235174447, -187500.02235174447, -162923.74288126742, -177334.42662172636, -160087.21710291115, 0.074, 0.774, 0.656, 192.0, 0.0, 0.0, 0.0, 0.0, 0.0, 0.0, 0.0, 0.0, 0.0, 1.7308297272825904E9, 0.0, 2024-11-05 15:02:07.282
46.0, -178792.8108922018, -144676.4492602884, 81547.18804921962, -187500.02235174447, -187500.02235174447, -162921.01596844388, -177340.43924098485, -160085.51837033255, 0.074, 0.774, 0.656, 192.0, 0.0, 0.0, 0.0, 0.0, 0.0, 0.0, 0.0, 0.0, 0.0, 1.7308297272826025E9, 0.0, 2024-11-05 15:02:07.282
47.0, -178814.87206397916, -144673.05179513118, 81533.8440577798, -187500.02235174447, -187500.02235174447, -162912.8575817177, -177344.0155200977, -160079.6845650297, 0.074, 0.774, 0.656, 192.0, 0.0, 0.0, 0.0, 0.0, 0.0, 0.0, 0.0, 0.0, 0.0, 1.7308297272826147E9, 0.0, 2024-11-05 15:02:07.282
48.0, -178787.4017700436, -144659.52898973573, 81520.1871419176, -187500.02235174447, -187500.02235174447, -162933.8682215057, -177337.93584560585, -160075.9294719612, 0.074, 0.774, 0.656, 192.0, 0.0, 0.0, 0.0, 0.0, 0.0, 0.0, 0.0, 0.0, 0.0, 1.7308297272826276E9, 0.0, 2024-11-05 15:02:07.282
49.0, -178762.07724357574, -144647.2355302853, 81507.33488885581, -187500.02235174447, -187500.02235174447, -162964.33364919826, -177332.7502408922, -160076.30945161695, 0.074, 0.774, 0.656, 192.0, 0.0, 0.0, 0.0, 0.0, 0.0, 0.0, 0.0, 0.0, 0.0, 1.7308297272826397E9, 0.0, 2024-11-05 15:02:07.282
50.0, -178787.37941829916, -144646.0955913181, 81496.00255441696, -187500.02235174447, -187500.02235174447, -162968.44637017805, -177338.33817700605, -160076.1306376613, 0.074, 0.774, 0.656, 192.0, 0.0, 0.0, 0.0, 0.0, 0.0, 0.0, 0.0, 0.0, 0.0, 1.730829727282652E9, 0.0, 2024-11-05 15:02:07.282
51.0, -178817.9119012251, -144645.8497221291, 81484.46905427803, -187500.02235174447, -187500.02235174447, -162960.9138322966, -177345.24486604272, -160072.39789633726, 0.074, 0.78, 0.634, 192.0, 2.0, 80.0, 24.0, 96.0, 19.0, 208.0, 0.0, 0.0, 0.0, 1.7308297272826655E9, 0.0, 2024-11-05 15:02:07.282
52.0, -178796.56598527028, -144632.4386754559, 81469.29221979287, -187500.02235174447, -187500.02235174447, -162976.8059226043, -177339.43341248436, -160066.80996022344, 0.074, 0.78, 0.634, 192.0, 0.0, 0.0, 0.0, 0.0, 0.0, 0.0, 0.0, 0.0, 0.0, 1.7308297272826784E9, 0.0, 2024-11-05 15:02:07.282
53.0, -178765.36295001066, -144618.49118691578, 81455.85882137524, -187500.02235174447, -187500.02235174447, -163009.95355963154, -177332.72788914776, -160066.58644277888, 0.074, 0.78, 0.634, 192.0, 0.0, 0.0, 0.0, 0.0, 0.0, 0.0, 0.0, 0.0, 0.0, 1.7308297272826903E9, 0.0, 2024-11-05 15:02:07.282
54.0, -178781.81383392977, -144614.91490780294, 81443.14067878017, -187500.02235174447, -187500.02235174447, -163019.6318649807, -177335.2089327823, -160065.80413172295, 0.074, 0.78, 0.634, 192.0, 0.0, 0.0, 0.0, 0.0, 0.0, 0.0, 0.0, 0.0, 0.0, 1.7308297272827027E9, 0.0, 2024-11-05 15:02:07.282
55.0, -178814.24621513442, -144613.35028569106, 81428.7685070954, -187500.02235174447, -187500.02235174447, -163008.0760130973, -177339.83574388456, -160059.4338845532, 0.074, 0.78, 0.634, 192.0, 0.0, 0.0, 0.0, 0.0, 0.0, 0.0, 0.0, 0.0, 0.0, 1.7308297272827148E9, 0.0, 2024-11-05 15:02:07.282
56.0, -178803.47267430698, -144603.87314604202, 81415.98330926697, -187500.02235174447, -187500.02235174447, -163018.84955392475, -177338.1593630504, -160055.36586706233, 0.074, 0.78, 0.634, 192.0, 0.0, 0.0, 0.0, 0.0, 0.0, 0.0, 0.0, 0.0, 0.0, 1.7308297272827277E9, 0.0, 2024-11-05 15:02:07.282
57.0, -178770.12387157965, -144590.5291546022, 81403.42162888308, -187500.02235174447, -187500.02235174447, -163051.0807694293, -177332.0573368141, -160055.90230892925, 0.074, 0.78, 0.634, 192.0, 0.0, 0.0, 0.0, 0.0, 0.0, 0.0, 0.0, 0.0, 0.0, 1.730829727282746E9, 0.0, 2024-11-05 15:02:07.282
58.0, -178779.22103157296, -144587.24344816728, 81392.22340491098, -187500.02235174447, -187500.02235174447, -163065.8999760032, -177334.6948426598, -160057.5339862745, 0.074, 0.78, 0.634, 192.0, 0.0, 0.0, 0.0, 0.0, 0.0, 0.0, 0.0, 0.0, 0.0, 1.7308297272827587E9, 0.0, 2024-11-05 15:02:07.282
59.0, -178815.207340146, -144587.9363522454, 81379.21468963799, -187500.02235174447, -187500.02235174447, -163055.55111832038, -177341.3556625075, -160053.35421006134, 0.074, 0.78, 0.634, 192.0, 0.0, 0.0, 0.0, 0.0, 0.0, 0.0, 0.0, 0.0, 0.0, 1.7308297272827706E9, 0.0, 2024-11-05 15:02:07.282
60.0, -178814.5591395568, -144581.70021554234, 81366.96593367647, -187500.02235174447, -187500.02235174447, -163061.80960676787, -177342.07091833008, -160049.66617222622, 0.074, 0.78, 0.634, 192.0, 0.0, 0.0, 0.0, 0.0, 0.0, 0.0, 0.0, 0.0, 0.0, 1.7308297272827833E9, 0.0, 2024-11-05 15:02:07.282
61.0, -178780.4950810069, -144568.4232793359, 81354.18073584804, -187500.02235174447, -187500.02235174447, -163092.65501411617, -177335.54420894914, -160049.2861925705, 0.058, 0.79, 0.612, 192.0, 1.0, 208.0, 24.0, 176.0, 19.0, 32.0, 0.0, 0.0, 0.0, 1.730829727282796E9, 0.0, 2024-11-05 15:02:07.282
62.0, -178777.67876120555, -144560.622520521, 81340.25559905238, -187500.02235174447, -187500.02235174447, -163110.0893747913, -177333.5549036926, -160048.45917802563, 0.058, 0.79, 0.612, 192.0, 0.0, 0.0, 0.0, 0.0, 0.0, 0.0, 0.0, 0.0, 0.0, 1.7308297272828093E9, 0.0, 2024-11-05 15:02:07.282
63.0, -178813.44155233403, -144561.89656995496, 81328.14095355761, -187500.02235174447, -187500.02235174447, -163102.6462438877, -177340.77451715167, -160045.6205064798, 0.058, 0.79, 0.612, 192.0, 0.0, 0.0, 0.0, 0.0, 0.0, 0.0, 0.0, 0.0, 0.0, 1.730829727282823E9, 0.0, 2024-11-05 15:02:07.282
64.0, -178823.32102338327, -144558.58851177557, 81316.5403981853, -187500.02235174447, -187500.02235174447, -163101.95333980958, -177343.9484648643, -160042.15598608923, 0.058, 0.79, 0.612, 192.0, 0.0, 0.0, 0.0, 0.0, 0.0, 0.0, 0.0, 0.0, 0.0, 1.7308297272828379E9, 0.0, 2024-11-05 15:02:07.282
65.0, -178791.98387765692, -144547.01030814773, 81303.41992419004, -187500.02235174447, -187500.02235174447, -163118.1583545397, -177338.4946392172, -160041.66424771122, 0.058, 0.79, 0.612, 192.0, 0.0, 0.0, 0.0, 0.0, 0.0, 0.0, 0.0, 0.0, 0.0, 1.73082972728285E9, 0.0, 2024-11-05 15:02:07.282
66.0, -178782.5514414968, -144540.26008132222, 81290.41120891705, -187500.02235174447, -187500.02235174447, -163128.64132268922, -177336.7512031497, -160043.2288698231, 0.058, 0.79, 0.612, 192.0, 0.0, 0.0, 0.0, 0.0, 0.0, 0.0, 0.0, 0.0, 0.0, 1.7308297272828622E9, 0.0, 2024-11-05 15:02:07.282
67.0, -178813.73212501194, -144538.78486618816, 81275.10026396517, -187500.02235174447, -187500.02235174447, -163120.52763945196, -177340.28277877366, -160037.99856162054, 0.058, 0.79, 0.612, 192.0, 0.0, 0.0, 0.0, 0.0, 0.0, 0.0, 0.0, 0.0, 0.0, 1.7308297272828743E9, 0.0, 2024-11-05 15:02:07.282
68.0, -178829.66891880857, -144534.96271788632, 81261.3315893807, -187500.02235174447, -187500.02235174447, -163115.6996626496, -177342.87558113047, -160032.1200528288, 0.058, 0.79, 0.612, 192.0, 0.0, 0.0, 0.0, 0.0, 0.0, 0.0, 0.0, 0.0, 0.0, 1.7308297272828867E9, 0.0, 2024-11-05 15:02:07.282
69.0, -178802.37743882864, -144524.83737764804, 81249.21694388593, -187500.02235174447, -187500.02235174447, -163128.86484013379, -177339.32165376208, -160032.0753493399, 0.058, 0.79, 0.612, 192.0, 0.0, 0.0, 0.0, 0.0, 0.0, 0.0, 0.0, 0.0, 0.0, 1.730829727282899E9, 0.0, 2024-11-05 15:02:07.282
70.0, -178784.80896768678, -144516.34371475503, 81235.44826930146, -187500.02235174447, -187500.02235174447, -163140.6665612062, -177335.72302290477, -160033.25999179602, 0.058, 0.79, 0.612, 192.0, 0.0, 0.0, 0.0, 0.0, 0.0, 0.0, 0.0, 0.0, 0.0, 1.7308297272829118E9, 0.0, 2024-11-05 15:02:07.282
71.0, -178814.73795351243, -144517.43895023334, 81223.35597555114, -187500.02235174447, -187500.02235174447, -163137.69377919362, -177341.46742122978, -160032.00829410652, 0.046, 0.784, 0.606, 192.0, 1.0, 112.0, 24.0, 128.0, 18.0, 240.0, 0.0, 0.0, 0.0, 1.7308297272829244E9, 0.0, 2024-11-05 15:02:07.282
72.0, -178837.02264273437, -144514.2202990318, 81208.98380386637, -187500.02235174447, -187500.02235174447, -163130.22829654554, -177344.61901719798, -160025.258067281, 0.046, 0.784, 0.606, 192.0, 0.0, 0.0, 0.0, 0.0, 0.0, 0.0, 0.0, 0.0, 0.0, 1.7308297272829435E9, 0.0, 2024-11-05 15:02:07.282
73.0, -178814.3579738567, -144504.18436577136, 81195.90803336001, -187500.02235174447, -187500.02235174447, -163139.88425015024, -177341.04273808512, -160023.4252242357, 0.046, 0.784, 0.606, 192.0, 0.0, 0.0, 0.0, 0.0, 0.0, 0.0, 0.0, 0.0, 0.0, 1.730829727282956E9, 0.0, 2024-11-05 15:02:07.282
74.0, -178792.0956363792, -144496.07068253407, 81183.68162914296, -187500.02235174447, -187500.02235174447, -163154.50229102402, -177337.77938339466, -160026.08508182588, 0.046, 0.784, 0.606, 192.0, 0.0, 0.0, 0.0, 0.0, 0.0, 0.0, 0.0, 0.0, 0.0, 1.7308297272829685E9, 0.0, 2024-11-05 15:02:07.282
75.0, -178813.97799420095, -144494.21548774428, 81169.98000979186, -187500.02235174447, -187500.02235174447, -163152.5129857675, -177340.9980345962, -160024.1628318027, 0.046, 0.784, 0.606, 192.0, 0.0, 0.0, 0.0, 0.0, 0.0, 0.0, 0.0, 0.0, 0.0, 1.730829727282981E9, 0.0, 2024-11-05 15:02:07.282
76.0, -178847.14798297264, -144497.4117872014, 81160.56992537617, -187500.02235174447, -187500.02235174447, -163149.02611363246, -177350.38576726746, -160022.6652649242, 0.046, 0.784, 0.606, 192.0, 0.0, 0.0, 0.0, 0.0, 0.0, 0.0, 0.0, 0.0, 0.0, 1.7308297272829933E9, 0.0, 2024-11-05 15:02:07.282
77.0, -178832.14996244313, -144489.2534004752, 81148.03059673675, -187500.02235174447, -187500.02235174447, -163156.15632011372, -177348.32940677757, -160020.3630352453, 0.046, 0.784, 0.606, 192.0, 0.0, 0.0, 0.0, 0.0, 0.0, 0.0, 0.0, 0.0, 0.0, 1.7308297272830055E9, 0.0, 2024-11-05 15:02:07.283
78.0, -178804.0985231517, -144479.03865325914, 81134.75366053029, -187500.02235174447, -187500.02235174447, -163170.50614005403, -177343.03204334166, -160021.74884340155, 0.046, 0.784, 0.606, 192.0, 0.0, 0.0, 0.0, 0.0, 0.0, 0.0, 0.0, 0.0, 0.0, 1.730829727283018E9, 0.0, 2024-11-05 15:02:07.283
79.0, -178817.53192156935, -144475.28356019064, 81119.77799174524, -187500.02235174447, -187500.02235174447, -163170.32732609837, -177343.34496776402, -160019.33485500037, 0.046, 0.784, 0.606, 192.0, 0.0, 0.0, 0.0, 0.0, 0.0, 0.0, 0.0, 0.0, 0.0, 1.7308297272830367E9, 0.0, 2024-11-05 15:02:07.283
80.0, -178849.7631370739, -144474.85887704598, 81105.87520669404, -187500.02235174447, -187500.02235174447, -163161.45368354963, -177348.37411026648, -160013.38929097526, 0.046, 0.784, 0.606, 192.0, 0.0, 0.0, 0.0, 0.0, 0.0, 0.0, 0.0, 0.0, 0.0, 1.7308297272830503E9, 0.0, 2024-11-05 15:02:07.283
81.0, -178842.32000617028, -144467.57220835355, 81092.97825014332, -187500.02235174447, -187500.02235174447, -163164.91820394018, -177347.74826142172, -160010.0141775625, 0.046, 0.784, 0.586, 192.0, 1.0, 112.0, 24.0, 128.0, 18.0, 80.0, 0.0, 0.0, 0.0, 1.7308297272830632E9, 0.0, 2024-11-05 15:02:07.283
82.0, -178810.5581772993, -144455.81519077005, 81078.7848924142, -187500.02235174447, -187500.02235174447, -163178.2174918911, -177341.33331076306, -160010.23769500706, 0.046, 0.784, 0.586, 192.0, 0.0, 0.0, 0.0, 0.0, 0.0, 0.0, 0.0, 0.0, 0.0, 1.7308297272830763E9, 0.0, 2024-11-05 15:02:07.283
83.0, -178816.9060727246, -144452.1048011905, 81064.99386608528, -187500.02235174447, -187500.02235174447, -163182.24080589306, -177341.46742122978, -160010.0141775625, 0.046, 0.784, 0.586, 192.0, 0.0, 0.0, 0.0, 0.0, 0.0, 0.0, 0.0, 0.0, 0.0, 1.7308297272830884E9, 0.0, 2024-11-05 15:02:07.283
84.0, -178854.94874178752, -144456.44103961482, 81054.9355810804, -187500.02235174447, -187500.02235174447, -163178.08338142437, -177350.67633994538, -160008.58366591737, 0.046, 0.784, 0.586, 192.0, 0.0, 0.0, 0.0, 0.0, 0.0, 0.0, 0.0, 0.0, 0.0, 1.7308297272831008E9, 0.0, 2024-11-05 15:02:07.283
85.0, -178857.34037844426, -144452.03774595712, 81043.20091524135, -187500.02235174447, -187500.02235174447, -163180.13974191426, -177352.73270043527, -160005.5661804159, 0.046, 0.784, 0.586, 192.0, 0.0, 0.0, 0.0, 0.0, 0.0, 0.0, 0.0, 0.0, 0.0, 1.7308297272831137E9, 0.0, 2024-11-05 15:02:07.283
86.0, -178824.59507281723, -144439.36430685097, 81028.2252464563, -187500.02235174447, -187500.02235174447, -163192.25438740902, -177345.69190093182, -160004.42624144867, 0.046, 0.784, 0.586, 192.0, 0.0, 0.0, 0.0, 0.0, 0.0, 0.0, 0.0, 0.0, 0.0, 1.7308297272831254E9, 0.0, 2024-11-05 15:02:07.283
87.0, -178823.14220942763, -144435.07277191553, 81015.3729933945, -187500.02235174447, -187500.02235174447, -163200.39042239077, -177345.2672177872, -160005.67793913817, 0.046, 0.784, 0.586, 192.0, 0.0, 0.0, 0.0, 0.0, 0.0, 0.0, 0.0, 0.0, 0.0, 1.7308297272831442E9, 0.0, 2024-11-05 15:02:07.283
88.0, -178857.0051022774, -144436.2350626272, 81002.29722288814, -187500.02235174447, -187500.02235174447, -163194.24369266556, -177351.0563196011, -160001.72168036958, 0.046, 0.784, 0.586, 192.0, 0.0, 0.0, 0.0, 0.0, 0.0, 0.0, 0.0, 0.0, 0.0, 1.730829727283156E9, 0.0, 2024-11-05 15:02:07.283
89.0, -178866.30342797082, -144431.9882311807, 80989.0649901706, -187500.02235174447, -187500.02235174447, -163192.00851822, -177353.13503183547, -159996.62548263377, 0.046, 0.784, 0.586, 192.0, 0.0, 0.0, 0.0, 0.0, 0.0, 0.0, 0.0, 0.0, 0.0, 1.7308297272831676E9, 0.0, 2024-11-05 15:02:07.283
90.0, -178838.65432007963, -144422.95812642077, 80977.44208305384, -187500.02235174447, -187500.02235174447, -163205.91130327122, -177349.64815970042, -159997.94423555664, 0.046, 0.784, 0.586, 192.0, 0.0, 0.0, 0.0, 0.0, 0.0, 0.0, 0.0, 0.0, 0.0, 1.7308297272831793E9, 0.0, 2024-11-05 15:02:07.283
91.0, -178829.42304961957, -144417.54900426258, 80965.37214104798, -187500.02235174447, -187500.02235174447, -163217.3777481768, -177348.61997945549, -160000.49233442455, 0.038, 0.768, 0.58, 192.0, 1.0, 48.0, 24.0, 0.0, 18.0, 32.0, 0.0, 0.0, 0.0, 1.730829727283191E9, 0.0, 2024-11-05 15:02:07.283
92.0, -178862.30246571332, -144419.89593743038, 80953.70453044231, -187500.02235174447, -187500.02235174447, -163214.71789058662, -177355.61607547, -159999.06182277942, 0.038, 0.768, 0.58, 192.0, 0.0, 0.0, 0.0, 0.0, 0.0, 0.0, 0.0, 0.0, 0.0, 1.730829727283203E9, 0.0, 2024-11-05 15:02:07.283
93.0, -178879.35684673273, -144417.01256239566, 80939.95820760229, -187500.02235174447, -187500.02235174447, -163210.024024251, -177358.54415399363, -159993.25036922103, 0.038, 0.768, 0.58, 192.0, 0.0, 0.0, 0.0, 0.0, 0.0, 0.0, 0.0, 0.0, 0.0, 1.7308297272832146E9, 0.0, 2024-11-05 15:02:07.283
94.0, -178851.88655279716, -144405.25554481216, 80925.31781498407, -187500.02235174447, -187500.02235174447, -163219.0317772665, -177352.84445915752, -159990.65756686422, 0.038, 0.768, 0.58, 192.0, 0.0, 0.0, 0.0, 0.0, 0.0, 0.0, 0.0, 0.0, 0.0, 1.730829727283226E9, 0.0, 2024-11-05 15:02:07.283
95.0, -178836.57560784527, -144399.60055346496, 80914.2537014787, -187500.02235174447, -187500.02235174447, -163233.26983848453, -177351.5704097236, -159994.54677039944, 0.038, 0.768, 0.58, 192.0, 0.0, 0.0, 0.0, 0.0, 0.0, 0.0, 0.0, 0.0, 0.0, 1.7308297272832377E9, 0.0, 2024-11-05 15:02:07.283
96.0, -178864.44823318103, -144400.91930638783, 80902.11670423945, -187500.02235174447, -187500.02235174447, -163232.15225126175, -177356.89012490393, -159993.33977619885, 0.038, 0.768, 0.58, 192.0, 0.0, 0.0, 0.0, 0.0, 0.0, 0.0, 0.0, 0.0, 0.0, 1.7308297272832496E9, 0.0, 2024-11-05 15:02:07.283
97.0, -178889.19161429306, -144400.33816103198, 80889.66678257786, -187500.02235174447, -187500.02235174447, -163227.05605352594, -177362.0757296176, -159988.40004067423, 0.038, 0.768, 0.58, 192.0, 0.0, 0.0, 0.0, 0.0, 0.0, 0.0, 0.0, 0.0, 0.0, 1.7308297272832615E9, 0.0, 2024-11-05 15:02:07.283
98.0, -178869.63383789468, -144391.86684988343, 80877.50743359416, -187500.02235174447, -187500.02235174447, -163236.17556526372, -177359.9076104054, -159987.43891566264, 0.038, 0.768, 0.58, 192.0, 0.0, 0.0, 0.0, 0.0, 0.0, 0.0, 0.0, 0.0, 0.0, 1.7308297272832737E9, 0.0, 2024-11-05 15:02:07.283
99.0, -178846.29861668334, -144383.0379108236, 80864.49871832118, -187500.02235174447, -187500.02235174447, -163249.81012938145, -177355.59372372553, -159989.33881394134, 0.038, 0.768, 0.58, 192.0, 0.0, 0.0, 0.0, 0.0, 0.0, 0.0, 0.0, 0.0, 0.0, 1.7308297272832851E9, 0.0, 2024-11-05 15:02:07.283
100.0, -178864.73880585897, -144380.1321840444, 80848.74073848019, -187500.02235174447, -187500.02235174447, -163248.04434156948, -177356.19722082582, -159985.65077610622, 0.038, 0.768, 0.58, 192.0, 0.0, 0.0, 0.0, 0.0, 0.0, 0.0, 0.0, 0.0, 0.0, 1.7308297272832968E9, 0.0, 2024-11-05 15:02:07.283
101.0, -178892.32085851682, -144378.45580321024, 80833.80977318404, -187500.02235174447, -187500.02235174447, -163239.84125135437, -177359.72879644978, -159978.49821788052, 0.03, 0.778, 0.586, 192.0, 0.0, 240.0, 24.0, 80.0, 18.0, 80.0, 0.0, 0.0, 0.0, 1.7308297272833085E9, 0.0, 2024-11-05 15:02:07.283
102.0, -178880.16150953312, -144371.63852115138, 80822.25392130065, -187500.02235174447, -187500.02235174447, -163246.94910609117, -177359.43822377184, -159977.24652019102, 0.03, 0.778, 0.586, 192.0, 0.0, 0.0, 0.0, 0.0, 0.0, 0.0, 0.0, 0.0, 0.0, 1.7308297272833264E9, 0.0, 2024-11-05 15:02:07.283
103.0, -178853.83115456477, -144363.01074779162, 80810.29573801706, -187500.02235174447, -187500.02235174447, -163262.2376992986, -177355.7054824478, -159980.0181365035, 0.03, 0.778, 0.586, 192.0, 0.0, 0.0, 0.0, 0.0, 0.0, 0.0, 0.0, 0.0, 0.0, 1.730829727283338E9, 0.0, 2024-11-05 15:02:07.283
104.0, -178867.93510531608, -144362.25078848016, 80798.22579601119, -187500.02235174447, -187500.02235174447, -163266.55158597848, -177358.49945050472, -159980.6216336038, 0.03, 0.778, 0.586, 192.0, 0.0, 0.0, 0.0, 0.0, 0.0, 0.0, 0.0, 0.0, 0.0, 1.7308297277612946E9, 0.0, 2024-11-05 15:02:07.761
105.0, -178902.89323364416, -144365.3800327039, 80787.34049646146, -187500.02235174447, -187500.02235174447, -163262.1929958097, -177366.367264553, -159977.82766554685, 0.03, 0.778, 0.586, 192.0, 0.0, 0.0, 0.0, 0.0, 0.0, 0.0, 0.0, 0.0, 0.0, 1.7308297277614179E9, 0.0, 2024-11-05 15:02:07.761
106.0, -178897.66292544163, -144359.05448902305, 80774.80116782204, -187500.02235174447, -187500.02235174447, -163265.545757478, -177366.4790232753, -159974.69842132312, 0.03, 0.778, 0.586, 192.0, 0.0, 0.0, 0.0, 0.0, 0.0, 0.0, 0.0, 0.0, 0.0, 1.7308297277614336E9, 0.0, 2024-11-05 15:02:07.761
107.0, -178868.58330590528, -144349.44323890726, 80762.32889441597, -187500.02235174447, -187500.02235174447, -163280.1861500962, -177362.03102612868, -159976.64302309073, 0.03, 0.778, 0.586, 192.0, 0.0, 0.0, 0.0, 0.0, 0.0, 0.0, 0.0, 0.0, 0.0, 1.730829727761458E9, 0.0, 2024-11-05 15:02:07.761
108.0, -178873.7689106189, -144346.1128289834, 80749.00725472061, -187500.02235174447, -187500.02235174447, -163286.26582458804, -177362.29924706212, -159977.00065100202, 0.03, 0.778, 0.586, 192.0, 0.0, 0.0, 0.0, 0.0, 0.0, 0.0, 0.0, 0.0, 0.0, 1.7308297277614868E9, 0.0, 2024-11-05 15:02:07.761
109.0, -178909.3305360473, -144349.10796274044, 80737.56316155949, -187500.02235174447, -187500.02235174447, -163281.92958616372, -177369.85413668802, -159974.251386434, 0.03, 0.778, 0.586, 192.0, 0.0, 0.0, 0.0, 0.0, 0.0, 0.0, 0.0, 0.0, 0.0, 1.7308297277615E9, 0.0, 2024-11-05 15:02:07.761
110.0, -178910.96221339254, -144342.98358475967, 80723.41450731928, -187500.02235174447, -187500.02235174447, -163281.2366820856, -177369.89884017693, -159968.8646160203, 0.03, 0.778, 0.586, 192.0, 0.0, 0.0, 0.0, 0.0, 0.0, 0.0, 0.0, 0.0, 0.0, 1.7308297277615147E9, 0.0, 2024-11-05 15:02:07.761
111.0, -178879.64741941064, -144331.18186368726, 80709.13174261234, -187500.02235174447, -187500.02235174447, -163293.28427234702, -177363.64035172944, -159968.3058224089, 0.032, 0.798, 0.584, 192.0, 1.0, 0.0, 24.0, 240.0, 18.0, 64.0, 0.0, 0.0, 0.0, 1.7308297277615263E9, 0.0, 2024-11-05 15:02:07.761
112.0, -178878.68629439906, -144328.65611656383, 80698.26879480705, -187500.02235174447, -187500.02235174447, -163304.12486840785, -177364.60147674102, -159971.52447361048, 0.032, 0.798, 0.584, 192.0, 0.0, 0.0, 0.0, 0.0, 0.0, 0.0, 0.0, 0.0, 0.0, 1.7308297277615397E9, 0.0, 2024-11-05 15:02:07.761
113.0, -178911.6774692151, -144330.33249739796, 80685.30478302298, -187500.02235174447, -187500.02235174447, -163299.40865032776, -177370.3682268105, -159967.83643577533, 0.032, 0.798, 0.584, 192.0, 0.0, 0.0, 0.0, 0.0, 0.0, 0.0, 0.0, 0.0, 0.0, 1.7308297277615523E9, 0.0, 2024-11-05 15:02:07.761
114.0, -178923.45683854306, -144327.85145376343, 80673.32424799494, -187500.02235174447, -187500.02235174447, -163298.58163578293, -177373.89980243443, -159963.9472322401, 0.032, 0.798, 0.584, 192.0, 0.0, 0.0, 0.0, 0.0, 0.0, 0.0, 0.0, 0.0, 0.0, 1.7308297277615647E9, 0.0, 2024-11-05 15:02:07.761
115.0, -178894.62308819572, -144316.9214507248, 80659.64498038829, -187500.02235174447, -187500.02235174447, -163309.80221149948, -177368.64714248743, -159963.18727292863, 0.032, 0.798, 0.584, 192.0, 0.0, 0.0, 0.0, 0.0, 0.0, 0.0, 0.0, 0.0, 0.0, 1.730829727761577E9, 0.0, 2024-11-05 15:02:07.761
116.0, -178880.76500663342, -144308.00310468712, 80643.81994531392, -187500.02235174447, -187500.02235174447, -163318.1394121813, -177363.6627034739, -159962.18144442816, 0.032, 0.798, 0.584, 192.0, 0.0, 0.0, 0.0, 0.0, 0.0, 0.0, 0.0, 0.0, 0.0, 1.7308297277615883E9, 0.0, 2024-11-05 15:02:07.761
117.0, -178910.91750990364, -144309.47831982118, 80630.85593352985, -187500.02235174447, -187500.02235174447, -163315.52425808006, -177368.78125295416, -159959.4545316046, 0.032, 0.798, 0.584, 192.0, 0.0, 0.0, 0.0, 0.0, 0.0, 0.0, 0.0, 0.0, 0.0, 1.7308297277616467E9, 0.0, 2024-11-05 15:02:07.761
118.0, -178930.0282514129, -144308.3160291095, 80618.58482582388, -187500.02235174447, -187500.02235174447, -163312.66323478977, -177373.45276754533, -159954.98418271355, 0.032, 0.798, 0.584, 192.0, 0.0, 0.0, 0.0, 0.0, 0.0, 0.0, 0.0, 0.0, 0.0, 1.730829727761659E9, 0.0, 2024-11-05 15:02:07.761
119.0, -178906.40245752365, -144299.1071103939, 80606.1796076512, -187500.02235174447, -187500.02235174447, -163323.3920721283, -177370.34587506604, -159954.6042030578, 0.032, 0.798, 0.584, 192.0, 0.0, 0.0, 0.0, 0.0, 0.0, 0.0, 0.0, 0.0, 0.0, 1.7308297277616708E9, 0.0, 2024-11-05 15:02:07.761
120.0, -178888.99044859296, -144292.1110143794, 80593.9755551786, -187500.02235174447, -187500.02235174447, -163336.87017403488, -177367.7754244537, -159957.28641239245, 0.032, 0.798, 0.584, 192.0, 0.0, 0.0, 0.0, 0.0, 0.0, 0.0, 0.0, 0.0, 0.0, 1.7308297277616825E9, 0.0, 2024-11-05 15:02:07.761
121.0, -178914.13616110518, -144292.37923531287, 80581.05624688343, -187500.02235174447, -187500.02235174447, -163336.46784263468, -177372.35753206702, -159955.6547350472, 0.026000000000000002, 0.8140000000000001, 0.586, 192.0, 0.0, 208.0, 25.0, 112.0, 18.0, 80.0, 0.0, 0.0, 0.0, 1.730829727761694E9, 0.0, 2024-11-05 15:02:07.761
122.0, -178940.42181258462, -144293.42976730227, 80569.7686159335, -187500.02235174447, -187500.02235174447, -163333.6068193444, -177378.92894493687, -159952.1455111677, 0.026000000000000002, 0.8140000000000001, 0.586, 192.0, 0.0, 0.0, 0.0, 0.0, 0.0, 0.0, 0.0, 0.0, 0.0, 1.730829727761706E9, 0.0, 2024-11-05 15:02:07.761
123.0, -178922.36160306475, -144285.53960150955, 80557.1622320607, -187500.02235174447, -187500.02235174447, -163342.27929619304, -177376.60436351353, -159950.78205475595, 0.026000000000000002, 0.8140000000000001, 0.586, 192.0, 0.0, 0.0, 0.0, 0.0, 0.0, 0.0, 0.0, 0.0, 0.0, 1.7308297277617188E9, 0.0, 2024-11-05 15:02:07.761
124.0, -178899.71928593153, -144277.62708397236, 80544.39938597672, -187500.02235174447, -187500.02235174447, -163356.53970915554, -177372.60340125603, -159953.1066361793, 0.026000000000000002, 0.8140000000000001, 0.586, 192.0, 0.0, 0.0, 0.0, 0.0, 0.0, 0.0, 0.0, 0.0, 0.0, 1.7308297277617307E9, 0.0, 2024-11-05 15:02:07.761
125.0, -178918.0700681293, -144276.42008977177, 80530.92128407018, -187500.02235174447, -187500.02235174447, -163358.17138650076, -177375.50912803522, -159951.92199372317, 0.026000000000000002, 0.8140000000000001, 0.586, 192.0, 0.0, 0.0, 0.0, 0.0, 0.0, 0.0, 0.0, 0.0, 0.0, 1.7308297277617424E9, 0.0, 2024-11-05 15:02:07.761
126.0, -178948.11081267725, -144277.58238048345, 80518.82899031985, -187500.02235174447, -187500.02235174447, -163354.28218296554, -177382.52757579417, -159948.12219716577, 0.026000000000000002, 0.8140000000000001, 0.586, 192.0, 0.0, 0.0, 0.0, 0.0, 0.0, 0.0, 0.0, 0.0, 0.0, 1.7308297277617545E9, 0.0, 2024-11-05 15:02:07.761
127.0, -178940.0865364178, -144273.8496391594, 80507.87663553676, -187500.02235174447, -187500.02235174447, -163362.82054934747, -177383.42164557238, -159947.83162448785, 0.026000000000000002, 0.8140000000000001, 0.586, 192.0, 0.0, 0.0, 0.0, 0.0, 0.0, 0.0, 0.0, 0.0, 0.0, 1.730829727761766E9, 0.0, 2024-11-05 15:02:07.761
128.0, -178914.76200994995, -144266.47356348915, 80495.51612085296, -187500.02235174447, -187500.02235174447, -163378.39971523284, -177379.26422110372, -159950.4020751002, 0.026000000000000002, 0.8140000000000001, 0.586, 192.0, 0.0, 0.0, 0.0, 0.0, 0.0, 0.0, 0.0, 0.0, 0.0, 1.7308297277617776E9, 0.0, 2024-11-05 15:02:07.761
129.0, -178927.21193161153, -144265.55714196648, 80482.68621953562, -187500.02235174447, -187500.02235174447, -163383.92059611328, -177381.67820950487, -159950.96086871158, 0.026000000000000002, 0.8140000000000001, 0.586, 192.0, 0.0, 0.0, 0.0, 0.0, 0.0, 0.0, 0.0, 0.0, 0.0, 1.7308297277618027E9, 0.0, 2024-11-05 15:02:07.761
130.0, -178959.28668490492, -144266.74178442263, 80468.91754495115, -187500.02235174447, -187500.02235174447, -163378.42206697728, -177387.22144212978, -159945.70820876458, 0.026000000000000002, 0.8140000000000001, 0.586, 192.0, 0.0, 0.0, 0.0, 0.0, 0.0, 0.0, 0.0, 0.0, 0.0, 1.7308297277618225E9, 0.0, 2024-11-05 15:02:07.761
131.0, -178957.43149011512, -144263.16550530976, 80456.98171341202, -187500.02235174447, -187500.02235174447, -163383.5182647131, -177388.56254679713, -159943.6518482747, 0.016, 0.834, 0.5740000000000001, 192.0, 0.0, 128.0, 26.0, 16.0, 17.0, 240.0, 0.0, 0.0, 0.0, 1.7308297277618356E9, 0.0, 2024-11-05 15:02:07.761
132.0, -178930.00589966847, -144255.14122905032, 80444.57649523932, -187500.02235174447, -187500.02235174447, -163399.075078854, -177384.47217756178, -159945.9540779536, 0.016, 0.834, 0.5740000000000001, 192.0, 0.0, 0.0, 0.0, 0.0, 0.0, 0.0, 0.0, 0.0, 0.0, 1.730829727761855E9, 0.0, 2024-11-05 15:02:07.761
133.0, -178932.9339781921, -144251.18497028173, 80429.71258517654, -187500.02235174447, -187500.02235174447, -163405.0206428791, -177383.26518336122, -159945.1941186421, 0.016, 0.834, 0.5740000000000001, 192.0, 0.0, 0.0, 0.0, 0.0, 0.0, 0.0, 0.0, 0.0, 0.0, 1.730829727761868E9, 0.0, 2024-11-05 15:02:07.761
134.0, -178967.44507163108, -144254.49302846112, 80417.66499491513, -187500.02235174447, -187500.02235174447, -163402.0255091221, -177390.57420379808, -159942.28839186294, 0.016, 0.834, 0.5740000000000001, 192.0, 0.0, 0.0, 0.0, 0.0, 0.0, 0.0, 0.0, 0.0, 0.0, 1.7308297277618797E9, 0.0, 2024-11-05 15:02:07.761
135.0, -178971.84836528878, -144250.6038249259, 80404.36570696422, -187500.02235174447, -187500.02235174447, -163403.23250332268, -177391.98236369877, -159937.92980169415, 0.016, 0.834, 0.5740000000000001, 192.0, 0.0, 0.0, 0.0, 0.0, 0.0, 0.0, 0.0, 0.0, 0.0, 1.7308297277618911E9, 0.0, 2024-11-05 15:02:07.761
136.0, -178943.10402191928, -144240.88081608783, 80390.46292191303, -187500.02235174447, -187500.02235174447, -163416.26357034012, -177386.32737235157, -159937.88509820524, 0.016, 0.834, 0.5740000000000001, 192.0, 0.0, 0.0, 0.0, 0.0, 0.0, 0.0, 0.0, 0.0, 0.0, 1.7308297277619028E9, 0.0, 2024-11-05 15:02:07.761
137.0, -178939.1477631507, -144236.63398464132, 80377.18598570657, -187500.02235174447, -187500.02235174447, -163426.05363441154, -177385.14272989545, -159939.11444415027, 0.016, 0.834, 0.5740000000000001, 192.0, 0.0, 0.0, 0.0, 0.0, 0.0, 0.0, 0.0, 0.0, 0.0, 1.7308297277619166E9, 0.0, 2024-11-05 15:02:07.761
138.0, -178972.02717924444, -144239.4056009538, 80364.73606404496, -187500.02235174447, -187500.02235174447, -163423.7290529882, -177391.73649450977, -159936.54399353793, 0.016, 0.834, 0.5740000000000001, 192.0, 0.0, 0.0, 0.0, 0.0, 0.0, 0.0, 0.0, 0.0, 0.0, 1.7308297277619789E9, 0.0, 2024-11-05 15:02:07.761
139.0, -178983.62773461675, -144236.3434119634, 80350.69916852703, -187500.02235174447, -187500.02235174447, -163422.0303204096, -177393.85991023303, -159931.00076091298, 0.016, 0.834, 0.5740000000000001, 192.0, 0.0, 0.0, 0.0, 0.0, 0.0, 0.0, 0.0, 0.0, 0.0, 1.7308297277619913E9, 0.0, 2024-11-05 15:02:07.761
140.0, -178956.78328952592, -144226.5980513809, 80336.55051428682, -187500.02235174447, -187500.02235174447, -163433.63087578188, -177388.62960203047, -159930.01728415696, 0.016, 0.834, 0.5740000000000001, 192.0, 0.0, 0.0, 0.0, 0.0, 0.0, 0.0, 0.0, 0.0, 0.0, 1.7308297277620056E9, 0.0, 2024-11-05 15:02:07.762
141.0, -178946.5014870765, -144222.21710946766, 80324.30175832531, -187500.02235174447, -187500.02235174447, -163446.5725358215, -177387.24379387425, -159932.74419698052, 0.024, 0.834, 0.5660000000000001, 192.0, 0.0, 192.0, 26.0, 16.0, 17.0, 176.0, 0.0, 0.0, 0.0, 1.7308297277620173E9, 0.0, 2024-11-05 15:02:07.762
142.0, -178974.86585079026, -144223.3346966904, 80310.62249071867, -187500.02235174447, -187500.02235174447, -163444.85145149846, -177391.84825323205, -159929.70435973458, 0.024, 0.834, 0.5660000000000001, 192.0, 0.0, 0.0, 0.0, 0.0, 0.0, 0.0, 0.0, 0.0, 0.0, 1.7308297277620292E9, 0.0, 2024-11-05 15:02:07.762
143.0, -178995.3400487113, -144223.3794001793, 80298.57490045726, -187500.02235174447, -187500.02235174447, -163443.28682938658, -177396.94445096786, -159925.70339747707, 0.024, 0.834, 0.5660000000000001, 192.0, 0.0, 0.0, 0.0, 0.0, 0.0, 0.0, 0.0, 0.0, 0.0, 1.7308297277620428E9, 0.0, 2024-11-05 15:02:07.762
