%OpenBCI Raw EXG Data
%Number of channels = 8
%Sample Rate = 250 Hz
%Board = OpenBCI_GUI$BoardCytonSerial
Sample Index, EXG Channel 0, EXG Channel 1, EXG Channel 2, EXG Channel 3, EXG Channel 4, EXG Channel 5, EXG Channel 6, EXG Channel 7, Accel Channel 0, Accel Channel 1, Accel Channel 2, Not Used, Digital Channel 0 (D11), Digital Channel 1 (D12), Digital Channel 2 (D13), Digital Channel 3 (D17), Not Used, Digital Channel 4 (D18), Analog Channel 0, Analog Channel 1, Analog Channel 2, Timestamp, Marker Channel, Timestamp (Formatted)
0.0, -178209.20684447372, -51791.54000181437, -177671.22270717894, -177432.640186863, -177337.62292118347, -180778.3163521667, -179167.20261182816, -178247.98712110368, 0.024, 0.47600000000000003, 0.168, 192.0, 0.0, 192.0, 14.0, 224.0, 5.0, 64.0, 0.0, 0.0, 0.0, 1.7426781674052055E9, 0.0, 2025-03-22 18:16:07.405
1.0, -179814.37502078715, -53832.142511861624, -177772.6102200282, -177879.33979980228, -177458.67996915343, -180471.35984556196, -178729.39899318208, -177537.42516486946, 0.024, 0.47600000000000003, 0.168, 192.0, 0.0, 0.0, 0.0, 0.0, 0.0, 0.0, 0.0, 0.0, 0.0, 1.7426781674052792E9, 0.0, 2025-03-22 18:16:07.405
2.0, -179442.01730990616, -53304.5295839941, -177705.10795177319, -177865.21349730654, -177775.3147811073, -180530.92724453536, -178704.74501904787, -177474.5944112056, 0.024, 0.47600000000000003, 0.168, 192.0, 0.0, 0.0, 0.0, 0.0, 0.0, 0.0, 0.0, 0.0, 0.0, 1.7426781674052951E9, 0.0, 2025-03-22 18:16:07.405
3.0, -177883.54192775988, -51378.56917125812, -177621.5794827437, -177642.2771981093, -177748.38092903866, -180836.65440519506, -179064.2728286115, -178139.29058781752, 0.024, 0.47600000000000003, 0.168, 192.0, 0.0, 0.0, 0.0, 0.0, 0.0, 0.0, 0.0, 0.0, 0.0, 1.7426781674053097E9, 0.0, 2025-03-22 18:16:07.405
4.0, -177971.8536701028, -51632.35087780367, -177676.45301538147, -177615.99154662987, -177439.74804159976, -180851.69712921348, -179092.05604696943, -178350.49222117572, 0.024, 0.47600000000000003, 0.168, 192.0, 0.0, 0.0, 0.0, 0.0, 0.0, 0.0, 0.0, 0.0, 0.0, 1.7426781674053233E9, 0.0, 2025-03-22 18:16:07.405
5.0, -179631.29188195372, -53797.832584122734, -177801.71219130902, -177834.21162774702, -177419.45265763436, -180544.00301504173, -178663.7295679724, -177667.69113155498, 0.024, 0.47600000000000003, 0.168, 192.0, 0.0, 0.0, 0.0, 0.0, 0.0, 0.0, 0.0, 0.0, 0.0, 1.7426781674053369E9, 0.0, 2025-03-22 18:16:07.405
6.0, -179801.20984330296, -53897.25314345994, -177796.48188310646, -177875.87527941173, -177743.50824874738, -180481.10520614448, -178530.55787450765, -177409.79670402966, 0.024, 0.47600000000000003, 0.168, 192.0, 0.0, 0.0, 0.0, 0.0, 0.0, 0.0, 0.0, 0.0, 0.0, 1.7426781674053507E9, 0.0, 2025-03-22 18:16:07.405
7.0, -178129.81344816845, -51863.62437768273, -177655.64354129357, -177644.31120685473, -177771.4032258276, -180831.5805592037, -178877.81457636532, -178042.99927270404, 0.034, 0.71, 0.25, 192.0, 1.0, 16.0, 22.0, 48.0, 7.0, 208.0, 0.0, 0.0, 0.0, 1.742678167405364E9, 0.0, 2025-03-22 18:16:07.405
8.0, -177686.690114342, -51466.38917522302, -177666.55119258777, -177528.52917057625, -177444.19603874636, -180989.18270935808, -179000.9950400585, -178479.55119366065, 0.034, 0.71, 0.25, 192.0, 0.0, 0.0, 0.0, 0.0, 0.0, 0.0, 0.0, 0.0, 0.0, 1.7426781674053786E9, 0.0, 2025-03-22 18:16:07.405
9.0, -179374.00095152867, -53675.277969274284, -177801.80159828684, -177744.4023185256, -177426.1805327154, -180631.1301149285, -178543.52188629174, -177823.79571483086, 0.034, 0.71, 0.25, 192.0, 0.0, 0.0, 0.0, 0.0, 0.0, 0.0, 0.0, 0.0, 0.0, 1.7426781674053924E9, 0.0, 2025-03-22 18:16:07.405
10.0, -180059.77482316195, -54383.85062025197, -177850.39429073266, -177851.80245063335, -177769.54803103782, -180440.00034809118, -178024.08969689487, -177366.94840990883, 0.034, 0.71, 0.25, 192.0, 0.0, 0.0, 0.0, 0.0, 0.0, 0.0, 0.0, 0.0, 0.0, 1.7426781674054055E9, 0.0, 2025-03-22 18:16:07.405
11.0, -178410.77487597166, -52382.430718234864, -177676.67653282604, -177612.07999135018, -177847.8238401203, -180758.98209321286, -178493.45397871186, -177886.26884058345, 0.034, 0.71, 0.25, 192.0, 0.0, 0.0, 0.0, 0.0, 0.0, 0.0, 0.0, 0.0, 0.0, 1.742678167405419E9, 0.0, 2025-03-22 18:16:07.405
12.0, -177561.05095875871, -51426.915994514944, -177651.59787554716, -177428.5721693721, -177529.84792349912, -180995.75412222793, -179267.0031508211, -178468.44237666635, 0.034, 0.71, 0.25, 192.0, 0.0, 0.0, 0.0, 0.0, 0.0, 0.0, 0.0, 0.0, 0.0, 1.7426781674054325E9, 0.0, 2025-03-22 18:16:07.405
13.0, -179037.94247364314, -53441.009335638206, -177771.13500489414, -177612.92935763948, -177364.8249941856, -180694.31849650366, -179033.58388347435, -177954.62047512777, 0.034, 0.71, 0.25, 192.0, 0.0, 0.0, 0.0, 0.0, 0.0, 0.0, 0.0, 0.0, 0.0, 1.7426781674054458E9, 0.0, 2025-03-22 18:16:07.405
14.0, -180163.9786558126, -54705.76044389731, -177875.76352068945, -177786.98239171295, -177653.67658778152, -180426.20932176226, -178710.48941737288, -177363.10390986252, 0.034, 0.71, 0.25, 192.0, 0.0, 0.0, 0.0, 0.0, 0.0, 0.0, 0.0, 0.0, 0.0, 1.7426781674054592E9, 0.0, 2025-03-22 18:16:07.405
15.0, -178753.2930080048, -52966.43709736313, -177722.78818163733, -177606.53675872527, -177837.8773138377, -180707.8413018991, -178957.47619360403, -177763.89303969062, 0.034, 0.71, 0.25, 192.0, 0.0, 0.0, 0.0, 0.0, 0.0, 0.0, 0.0, 0.0, 0.0, 1.7426781674056356E9, 0.0, 2025-03-22 18:16:07.405
16.0, -177531.61371131107, -51559.95357751293, -177653.09544242566, -177330.71623214678, -177571.913906564, -181023.89496849716, -179243.35500518742, -178462.45210915233, 0.034, 0.71, 0.25, 192.0, 0.0, 0.0, 0.0, 0.0, 0.0, 0.0, 0.0, 0.0, 0.0, 1.7426781674056509E9, 0.0, 2025-03-22 18:16:07.405
17.0, -178692.74213227537, -53204.013789178585, -177741.8542196577, -177631.66011949303, -177358.119470849, -180785.3124481812, -178954.3469493803, -178113.0943433159, 0.044, 0.8240000000000001, 0.292, 192.0, 1.0, 96.0, 25.0, 192.0, 9.0, 32.0, 0.0, 0.0, 0.0, 1.742678167405664E9, 0.0, 2025-03-22 18:16:07.405
18.0, -180162.6822546342, -54916.649152833124, -177874.48947125548, -177997.82639715986, -177637.80684921824, -180443.55427545958, -178557.71524402086, -177406.28748015017, 0.044, 0.8240000000000001, 0.292, 192.0, 0.0, 0.0, 0.0, 0.0, 0.0, 0.0, 0.0, 0.0, 0.0, 1.7426781674056785E9, 0.0, 2025-03-22 18:16:07.405
19.0, -179089.35148589034, -53552.92452012593, -177752.53835350735, -177877.50695675696, -177896.50593954397, -180642.641263323, -178720.90533028907, -177641.2937213533, 0.044, 0.8240000000000001, 0.292, 192.0, 0.0, 0.0, 0.0, 0.0, 0.0, 0.0, 0.0, 0.0, 0.0, 1.742678167405692E9, 0.0, 2025-03-22 18:16:07.405
20.0, -177606.24618604736, -51808.75084504495, -177657.29757038326, -177636.51044803983, -177696.7931028358, -181014.50723582593, -179063.7140350001, -178399.53194851064, 0.044, 0.8240000000000001, 0.292, 192.0, 0.0, 0.0, 0.0, 0.0, 0.0, 0.0, 0.0, 0.0, 0.0, 1.7426781674057057E9, 0.0, 2025-03-22 18:16:07.405
21.0, -178385.53975648162, -52989.884077296745, -177735.90865563258, -177704.66091688408, -177399.2243289023, -180892.46671109996, -178893.43844573956, -178281.31357208654, 0.044, 0.8240000000000001, 0.292, 192.0, 0.0, 0.0, 0.0, 0.0, 0.0, 0.0, 0.0, 0.0, 0.0, 1.74267816740572E9, 0.0, 2025-03-22 18:16:07.405
22.0, -180089.39088456522, -55035.51572984645, -177897.10943664427, -177946.32797793485, -177562.7049878484, -180514.29754666061, -178462.2732951967, -177516.03454542573, 0.044, 0.8240000000000001, 0.292, 192.0, 0.0, 0.0, 0.0, 0.0, 0.0, 0.0, 0.0, 0.0, 0.0, 1.7426781674057417E9, 0.0, 2025-03-22 18:16:07.405
23.0, -179453.9531414453, -54169.43033569221, -177817.6713368501, -177887.52053827295, -177871.3825787762, -180612.46640830833, -178522.35478429258, -177555.1500982225, 0.044, 0.8240000000000001, 0.292, 192.0, 0.0, 0.0, 0.0, 0.0, 0.0, 0.0, 0.0, 0.0, 0.0, 1.742678167405759E9, 0.0, 2025-03-22 18:16:07.405
24.0, -177799.92405175258, -52191.9715037312, -177677.10121597067, -177631.4813055374, -177739.39552776763, -181007.7793607449, -178887.24701252545, -178317.61280508194, 0.044, 0.8240000000000001, 0.292, 192.0, 0.0, 0.0, 0.0, 0.0, 0.0, 0.0, 0.0, 0.0, 0.0, 1.7426781674057775E9, 0.0, 2025-03-22 18:16:07.405
25.0, -178123.01851785404, -52794.68629296855, -177723.63754792663, -177626.2733490793, -177404.02995396018, -180994.5247762829, -178828.75249728592, -178425.59408254555, 0.044, 0.8240000000000001, 0.292, 192.0, 0.0, 0.0, 0.0, 0.0, 0.0, 0.0, 0.0, 0.0, 0.0, 1.7426781674058385E9, 0.0, 2025-03-22 18:16:07.405
26.0, -179915.13668479165, -55025.54685181938, -177891.4320935526, -177873.0813113548, -177484.0939025991, -180596.0378761337, -178242.4662402232, -177650.25677087985, 0.044, 0.8240000000000001, 0.292, 192.0, 0.0, 0.0, 0.0, 0.0, 0.0, 0.0, 0.0, 0.0, 0.0, 1.7426781674058652E9, 0.0, 2025-03-22 18:16:07.405
27.0, -179767.01167428633, -54722.61365921661, -177851.2883605109, -177867.38161651872, -177807.88127277867, -180568.27700952018, -177973.61945791479, -177475.95786761737, 0.046, 0.882, 0.318, 192.0, 1.0, 112.0, 27.0, 144.0, 9.0, 240.0, 0.0, 0.0, 0.0, 1.7426781674058836E9, 0.0, 2025-03-22 18:16:07.405
28.0, -178001.7156006951, -52624.70127638594, -177685.2372509524, -177592.81278762972, -177736.17687656605, -180944.43451695854, -178734.0481560288, -178167.67730327576, 0.046, 0.882, 0.318, 192.0, 0.0, 0.0, 0.0, 0.0, 0.0, 0.0, 0.0, 0.0, 0.0, 1.7426781674059033E9, 0.0, 2025-03-22 18:16:07.405
29.0, -177836.11152602572, -52606.2163837214, -177698.46948366993, -177506.13272263203, -177402.15240742595, -181029.95229124455, -179250.88754306885, -178476.75722560374, 0.046, 0.882, 0.318, 192.0, 0.0, 0.0, 0.0, 0.0, 0.0, 0.0, 0.0, 0.0, 0.0, 1.7426781674059231E9, 0.0, 2025-03-22 18:16:07.405
30.0, -179609.4989311098, -54866.13421036413, -177846.728604642, -177738.59086496723, -177479.2435740523, -180639.22144642132, -178855.9098667991, -177751.73369070695, 0.046, 0.882, 0.318, 192.0, 0.0, 0.0, 0.0, 0.0, 0.0, 0.0, 0.0, 0.0, 0.0, 1.7426781674060087E9, 0.0, 2025-03-22 18:16:07.406
31.0, -179991.24437466197, -55189.92158054371, -177875.31648580034, -177815.27970019338, -177843.30878774033, -180516.8009420396, -178690.14932991855, -177414.60232908756, 0.046, 0.882, 0.318, 192.0, 0.0, 0.0, 0.0, 0.0, 0.0, 0.0, 0.0, 0.0, 0.0, 1.742678167406027E9, 0.0, 2025-03-22 18:16:07.406
32.0, -178278.51960402963, -53137.76321861306, -177702.71631511644, -177567.13063325055, -177878.95982014656, -180887.12464417514, -179027.50420898251, -178034.8185342334, 0.046, 0.882, 0.318, 192.0, 0.0, 0.0, 0.0, 0.0, 0.0, 0.0, 0.0, 0.0, 0.0, 1.742678167406044E9, 0.0, 2025-03-22 18:16:07.406
33.0, -177669.6804368115, -52537.10478986559, -177676.07303572574, -177387.22144212978, -177543.57189459467, -181078.0532453124, -179181.08304513493, -178532.88245593102, 0.046, 0.882, 0.318, 192.0, 0.0, 0.0, 0.0, 0.0, 0.0, 0.0, 0.0, 0.0, 0.0, 1.742678167406062E9, 0.0, 2025-03-22 18:16:07.406
34.0, -179297.8709099139, -54684.66039713149, -177811.23403444697, -177808.37301115668, -177433.19898047435, -180726.5050085193, -178782.1044066077, -177910.989869951, 0.046, 0.882, 0.318, 192.0, 0.0, 0.0, 0.0, 0.0, 0.0, 0.0, 0.0, 0.0, 0.0, 1.7426781674060805E9, 0.0, 2025-03-22 18:16:07.406
35.0, -180158.68129237668, -55596.65627439693, -177891.5885557638, -178024.73789748407, -177749.4985162614, -180509.5589768361, -178516.25275805627, -177399.38079111348, 0.046, 0.882, 0.318, 192.0, 0.0, 0.0, 0.0, 0.0, 0.0, 0.0, 0.0, 0.0, 0.0, 1.7426781674060984E9, 0.0, 2025-03-22 18:16:07.406
36.0, -178600.92116605298, -53701.60832424263, -177730.32071951876, -177822.38755493017, -177875.51765150044, -180835.80503890576, -178808.3006511093, -177899.74694249, 0.046, 0.882, 0.318, 192.0, 0.0, 0.0, 0.0, 0.0, 0.0, 0.0, 0.0, 0.0, 0.0, 1.7426781674061153E9, 0.0, 2025-03-22 18:16:07.406
37.0, -177607.7661046703, -52598.10270048412, -177678.442320638, -177634.45408754994, -177582.32981948016, -181115.76063820848, -179055.3097790849, -178542.40429906896, 0.044, 0.912, 0.33, 192.0, 1.0, 96.0, 28.0, 128.0, 10.0, 80.0, 0.0, 0.0, 0.0, 1.7426781674061327E9, 0.0, 2025-03-22 18:16:07.406
38.0, -178991.80847308738, -54492.25658086021, -177801.06399071982, -177801.89100526465, -177398.88905273547, -180841.2365128084, -178719.0277837548, -178087.09926451437, 0.044, 0.912, 0.33, 192.0, 0.0, 0.0, 0.0, 0.0, 0.0, 0.0, 0.0, 0.0, 0.0, 1.742678167406152E9, 0.0, 2025-03-22 18:16:07.406
39.0, -180240.6898427832, -55903.143394368104, -177916.3542886203, -177985.57764119835, -177666.66295131005, -180540.60554988452, -178129.67933770173, -177441.9385125564, 0.044, 0.912, 0.33, 192.0, 0.0, 0.0, 0.0, 0.0, 0.0, 0.0, 0.0, 0.0, 0.0, 1.7426781674061692E9, 0.0, 2025-03-22 18:16:07.406
40.0, -178925.04381239938, -54267.487438617645, -177755.98052215346, -177804.59556634375, -177848.71790989852, -180771.38731138557, -178333.16961922284, -177762.9542664235, 0.044, 0.912, 0.33, 192.0, 0.0, 0.0, 0.0, 0.0, 0.0, 0.0, 0.0, 0.0, 0.0, 1.742678167406186E9, 0.0, 2025-03-22 18:16:07.406
41.0, -177598.62424118808, -52735.074190506246, -177673.94962000247, -177561.67680760348, -177588.16362478302, -181093.52065247545, -179197.98096394312, -178470.76695808972, 0.044, 0.912, 0.33, 192.0, 0.0, 0.0, 0.0, 0.0, 0.0, 0.0, 0.0, 0.0, 0.0, 1.7426781674062037E9, 0.0, 2025-03-22 18:16:07.406
42.0, -178622.31178549668, -54219.72176071665, -177756.695777976, -177662.75139603036, -177382.46052056082, -180897.85348151368, -179168.16373683975, -178200.89199553634, 0.044, 0.912, 0.33, 192.0, 0.0, 0.0, 0.0, 0.0, 0.0, 0.0, 0.0, 0.0, 0.0, 1.7426781674062216E9, 0.0, 2025-03-22 18:16:07.406
43.0, -180169.99127507108, -56034.862224443226, -177900.0375151679, -177884.234831838, -177656.29174188277, -180543.33246270806, -178762.47957497594, -177472.15807105997, 0.044, 0.912, 0.33, 192.0, 0.0, 0.0, 0.0, 0.0, 0.0, 0.0, 0.0, 0.0, 0.0, 1.7426781674062457E9, 0.0, 2025-03-22 18:16:07.406
44.0, -179254.21795299268, -54843.51424497536, -177796.25836566192, -177784.1660719116, -177931.19584693862, -180708.71301993288, -178890.80093989384, -177638.96913992992, 0.044, 0.912, 0.33, 192.0, 0.0, 0.0, 0.0, 0.0, 0.0, 0.0, 0.0, 0.0, 0.0, 1.7426781674062643E9, 0.0, 2025-03-22 18:16:07.406
45.0, -177718.40723972407, -53034.9675458631, -177690.31109694377, -177538.54275209224, -177752.94068490752, -181087.75390240597, -179238.54938012952, -178397.67675372085, 0.044, 0.912, 0.33, 192.0, 0.0, 0.0, 0.0, 0.0, 0.0, 0.0, 0.0, 0.0, 0.0, 1.7426781674063003E9, 0.0, 2025-03-22 18:16:07.406
46.0, -178334.6448343569, -54021.08180774234, -177756.8522401872, -177582.28511599125, -177447.30293122565, -181003.44312232055, -179105.26592794253, -178352.10154677648, 0.044, 0.912, 0.33, 192.0, 0.0, 0.0, 0.0, 0.0, 0.0, 0.0, 0.0, 0.0, 0.0, 1.7426781674063165E9, 0.0, 2025-03-22 18:16:07.406
47.0, -180058.54547721692, -56109.382940457224, -177918.38829736572, -177825.7626683429, -177584.38617997005, -180622.0329549352, -178672.6702657545, -177587.80599687173, 0.036000000000000004, 0.924, 0.334, 192.0, 1.0, 32.0, 28.0, 224.0, 10.0, 112.0, 0.0, 0.0, 0.0, 1.7426781674063363E9, 0.0, 2025-03-22 18:16:07.406
48.0, -179600.133550183, -55438.338868419996, -177857.8821251252, -177789.50813883642, -177898.00350642248, -180680.86274634156, -178693.14446367556, -177562.0567872592, 0.036000000000000004, 0.924, 0.334, 192.0, 0.0, 0.0, 0.0, 0.0, 0.0, 0.0, 0.0, 0.0, 0.0, 1.7426781674063573E9, 0.0, 2025-03-22 18:16:07.406
49.0, -177909.35819260578, -53450.10649563152, -177704.16917850604, -177507.47382729934, -177793.73261853846, -181074.32050398833, -179054.0133779065, -178302.01128745216, 0.036000000000000004, 0.924, 0.334, 192.0, 0.0, 0.0, 0.0, 0.0, 0.0, 0.0, 0.0, 0.0, 0.0, 1.7426781674063756E9, 0.0, 2025-03-22 18:16:07.406
50.0, -178052.521115842, -53844.34656433423, -177725.0010043384, -177501.66237374098, -177453.31555048414, -181090.36905650725, -179024.0620403364, -178469.64937086694, 0.036000000000000004, 0.924, 0.334, 192.0, 0.0, 0.0, 0.0, 0.0, 0.0, 0.0, 0.0, 0.0, 0.0, 1.7426781674063933E9, 0.0, 2025-03-22 18:16:07.406
51.0, -179848.43907933703, -56070.69207080508, -177887.20761385057, -177962.82356534287, -177499.8071789512, -180695.81606338217, -178579.1952704424, -177712.5957861657, 0.036000000000000004, 0.924, 0.334, 192.0, 0.0, 0.0, 0.0, 0.0, 0.0, 0.0, 0.0, 0.0, 0.0, 1.742678167406412E9, 0.0, 2025-03-22 18:16:07.406
52.0, -179890.1027310017, -55983.49791568493, -177882.71491321505, -178021.98863291607, -177836.96089231502, -180650.95611226038, -178491.84465311107, -177496.7449899608, 0.036000000000000004, 0.924, 0.334, 192.0, 0.0, 0.0, 0.0, 0.0, 0.0, 0.0, 0.0, 0.0, 0.0, 1.74267816740643E9, 0.0, 2025-03-22 18:16:07.406
53.0, -178160.3906345833, -53933.172396799615, -177722.81053338177, -177777.1699758971, -177815.95025252705, -181038.9823960045, -178846.8127068058, -178179.4566726037, 0.036000000000000004, 0.924, 0.334, 192.0, 0.0, 0.0, 0.0, 0.0, 0.0, 0.0, 0.0, 0.0, 0.0, 1.7426781674064496E9, 0.0, 2025-03-22 18:16:07.406
54.0, -177850.05901456584, -53738.37694387161, -177724.57632119374, -177681.86213753966, -177488.63130672352, -181169.58363885686, -178935.01269042643, -178558.2963893767, 0.036000000000000004, 0.924, 0.334, 192.0, 0.0, 0.0, 0.0, 0.0, 0.0, 0.0, 0.0, 0.0, 0.0, 1.7426781674064677E9, 0.0, 2025-03-22 18:16:07.406
55.0, -179586.67780002093, -55960.38621191814, -177874.82474742233, -177907.3465356048, -177499.6060132511, -180797.80707333173, -178433.39484136045, -177869.34857003076, 0.036000000000000004, 0.924, 0.334, 192.0, 0.0, 0.0, 0.0, 0.0, 0.0, 0.0, 0.0, 0.0, 0.0, 1.7426781674064858E9, 0.0, 2025-03-22 18:16:07.406
56.0, -180117.35291687882, -56464.55215985205, -177907.72651526053, -177992.08199883485, -177833.0269852909, -180631.84537075108, -177955.17926873916, -177453.7849371177, 0.036000000000000004, 0.924, 0.334, 192.0, 0.0, 0.0, 0.0, 0.0, 0.0, 0.0, 0.0, 0.0, 0.0, 1.7426781674065049E9, 0.0, 2025-03-22 18:16:07.406
57.0, -178435.47355359478, -54442.54630119161, -177726.9009026171, -177743.01651036937, -177873.77421543293, -180964.55108696833, -178527.31687156163, -178009.1140281098, 0.044, 0.936, 0.336, 192.0, 1.0, 96.0, 29.0, 64.0, 10.0, 128.0, 0.0, 0.0, 0.0, 1.742678167406524E9, 0.0, 2025-03-22 18:16:07.406
58.0, -177693.2838789563, -53667.67837615948, -177701.33050696022, -177575.64664788803, -177546.43291788496, -181175.43979590415, -179264.03036880857, -178545.15356363697, 0.044, 0.936, 0.336, 192.0, 0.0, 0.0, 0.0, 0.0, 0.0, 0.0, 0.0, 0.0, 0.0, 1.7426781674065444E9, 0.0, 2025-03-22 18:16:07.406
59.0, -179242.46093540918, -55735.505310953304, -177826.85790382122, -177769.1009961487, -177454.99193131828, -180850.66894896852, -178998.26812723497, -177979.3638562398, 0.044, 0.936, 0.336, 192.0, 0.0, 0.0, 0.0, 0.0, 0.0, 0.0, 0.0, 0.0, 0.0, 1.7426781674065633E9, 0.0, 2025-03-22 18:16:07.406
60.0, -180236.4430113367, -56813.97698092186, -177920.26584389995, -177925.67496605814, -177786.33419112375, -180607.4819692948, -178705.39321963707, -177426.96284377133, 0.044, 0.936, 0.336, 192.0, 0.0, 0.0, 0.0, 0.0, 0.0, 0.0, 0.0, 0.0, 0.0, 1.7426781674066367E9, 0.0, 2025-03-22 18:16:07.406
61.0, -178758.90329586307, -55008.02308416642, -177767.2681531034, -177736.73567017744, -177937.11905921926, -180910.52692061986, -178973.1894699561, -177874.44476776657, 0.044, 0.936, 0.336, 192.0, 0.0, 0.0, 0.0, 0.0, 0.0, 0.0, 0.0, 0.0, 0.0, 1.7426781674066508E9, 0.0, 2025-03-22 18:16:07.406
62.0, -177634.9905294169, -53765.333147684716, -177714.51803618885, -177536.1064119466, -177660.82914600722, -181212.8342643779, -179240.89631329733, -178548.23810437182, 0.044, 0.936, 0.336, 192.0, 0.0, 0.0, 0.0, 0.0, 0.0, 0.0, 0.0, 0.0, 0.0, 1.7426781674066644E9, 0.0, 2025-03-22 18:16:07.406
63.0, -178920.19348385258, -55535.077218422564, -177823.23692121948, -177685.17019571905, -177453.27084699523, -180965.02047360188, -178943.86398123074, -178153.81922171346, 0.044, 0.936, 0.336, 192.0, 0.0, 0.0, 0.0, 0.0, 0.0, 0.0, 0.0, 0.0, 0.0, 1.7426781674066775E9, 0.0, 2025-03-22 18:16:07.406
64.0, -180283.67224737076, -57088.456402833035, -177952.7429285935, -177886.71587547255, -177705.62204189564, -180648.11744071453, -178577.07185471916, -177482.77514967622, 0.044, 0.936, 0.336, 192.0, 0.0, 0.0, 0.0, 0.0, 0.0, 0.0, 0.0, 0.0, 0.0, 1.7426781674066942E9, 0.0, 2025-03-22 18:16:07.406
65.0, -179110.09390474486, -55610.33554200358, -177821.0240985184, -177747.82213542727, -177931.73228880554, -180872.68541725702, -178766.43583374453, -177765.9494001805, 0.044, 0.936, 0.336, 192.0, 0.0, 0.0, 0.0, 0.0, 0.0, 0.0, 0.0, 0.0, 0.0, 1.742678167406708E9, 0.0, 2025-03-22 18:16:07.406
66.0, -177697.6424691251, -53993.03036845093, -177713.91453908855, -177516.01219368126, -177709.98063206443, -181229.41925876372, -179090.75964579103, -178509.70369693087, 0.044, 0.936, 0.336, 192.0, 0.0, 0.0, 0.0, 0.0, 0.0, 0.0, 0.0, 0.0, 0.0, 1.7426781674067216E9, 0.0, 2025-03-22 18:16:07.406
67.0, -178608.25253823432, -55331.497529923625, -177798.78411278536, -177605.95561336944, -177438.40693693244, -181075.1475185332, -178887.80580613684, -178318.2833574156, 0.05, 0.9420000000000001, 0.328, 192.0, 1.0, 144.0, 29.0, 112.0, 10.0, 64.0, 0.0, 0.0, 0.0, 1.7426781674067352E9, 0.0, 2025-03-22 18:16:07.406
68.0, -180233.31376711297, -57247.10908497681, -177957.41444318468, -177838.1678865156, -177628.15089561354, -180710.143531578, -178313.32127014652, -177567.77883383978, 0.05, 0.9420000000000001, 0.328, 192.0, 0.0, 0.0, 0.0, 0.0, 0.0, 0.0, 0.0, 0.0, 0.0, 1.7426781674067495E9, 0.0, 2025-03-22 18:16:07.406
69.0, -179444.25248435172, -56199.013435723005, -177852.8753343672, -177740.6025219682, -177897.4447128111, -180824.74092540037, -178230.19513251726, -177651.30730286925, 0.05, 0.9420000000000001, 0.328, 192.0, 0.0, 0.0, 0.0, 0.0, 0.0, 0.0, 0.0, 0.0, 0.0, 1.7426781674067628E9, 0.0, 2025-03-22 18:16:07.406
70.0, -177827.28258696588, -54295.20360174222, -177730.81245789677, -177412.38950638648, -177718.36253623516, -181189.0073047885, -179068.78788099147, -178387.43965476032, 0.05, 0.9420000000000001, 0.328, 192.0, 0.0, 0.0, 0.0, 0.0, 0.0, 0.0, 0.0, 0.0, 0.0, 1.7426781674067764E9, 0.0, 2025-03-22 18:16:07.406
71.0, -178271.61291499293, -55066.45054417259, -177760.71909197798, -177525.95871996388, -177419.0279744897, -181116.61000449778, -179278.1566713043, -178391.44061701783, 0.05, 0.9420000000000001, 0.328, 192.0, 0.0, 0.0, 0.0, 0.0, 0.0, 0.0, 0.0, 0.0, 0.0, 1.7426781674067898E9, 0.0, 2025-03-22 18:16:07.406
72.0, -180017.75354358598, -57202.070319899365, -177905.8489687263, -178002.60967047332, -177599.20538654394, -180713.1610170795, -178835.56977934478, -177616.3268227967, 0.05, 0.9420000000000001, 0.328, 192.0, 0.0, 0.0, 0.0, 0.0, 0.0, 0.0, 0.0, 0.0, 0.0, 1.7426781674068031E9, 0.0, 2025-03-22 18:16:07.406
73.0, -179718.57544405168, -56714.735235540305, -177865.30290428436, -178008.30936530943, -177931.08408821633, -180737.0103284133, -178821.7116977825, -177535.79348752424, 0.05, 0.9420000000000001, 0.328, 192.0, 0.0, 0.0, 0.0, 0.0, 0.0, 0.0, 0.0, 0.0, 0.0, 1.7426781674068167E9, 0.0, 2025-03-22 18:16:07.406
74.0, -178010.11985661028, -54691.745900123824, -177729.67251892955, -177754.52765876387, -177852.04831982235, -181133.84319947282, -179183.45233004718, -178259.7217869427, 0.05, 0.9420000000000001, 0.328, 192.0, 0.0, 0.0, 0.0, 0.0, 0.0, 0.0, 0.0, 0.0, 0.0, 1.7426781674068303E9, 0.0, 2025-03-22 18:16:07.406
75.0, -178015.64073749076, -54890.83288798725, -177760.94260942252, -177701.7551901049, -177515.14047564752, -181195.44460719166, -179198.60681278788, -178506.14976956247, 0.05, 0.9420000000000001, 0.328, 192.0, 0.0, 0.0, 0.0, 0.0, 0.0, 0.0, 0.0, 0.0, 0.0, 1.742678167406852E9, 0.0, 2025-03-22 18:16:07.406
76.0, -179798.79585490178, -57138.54666215738, -177921.02580321144, -177946.3950331682, -177541.0014439823, -180808.51355892583, -178766.54759246678, -177772.1631851391, 0.05, 0.9420000000000001, 0.328, 192.0, 0.0, 0.0, 0.0, 0.0, 0.0, 0.0, 0.0, 0.0, 0.0, 1.7426781674068654E9, 0.0, 2025-03-22 18:16:07.406
77.0, -180014.5795958733, -57255.24511995854, -177935.93441676314, -178003.21316757362, -177877.99869513497, -180723.84515092912, -178642.160134573, -177492.31934455864, 0.05, 0.9440000000000001, 0.332, 192.0, 1.0, 144.0, 29.0, 128.0, 10.0, 96.0, 0.0, 0.0, 0.0, 1.7426781674068787E9, 0.0, 2025-03-22 18:16:07.406
78.0, -178300.089037429, -55207.44534819667, -177764.67535074658, -177761.79197571182, -177884.10072137127, -181106.43996077063, -178988.7909875859, -178146.75607046558, 0.05, 0.9440000000000001, 0.332, 192.0, 0.0, 0.0, 0.0, 0.0, 0.0, 0.0, 0.0, 0.0, 0.0, 1.742678167406893E9, 0.0, 2025-03-22 18:16:07.406
79.0, -177845.90159009714, -54814.32286671673, -177760.1602983666, -177644.15474464354, -177553.898400533, -181272.96045696264, -179111.88204430128, -178588.38183741353, 0.05, 0.9440000000000001, 0.332, 192.0, 0.0, 0.0, 0.0, 0.0, 0.0, 0.0, 0.0, 0.0, 0.0, 1.7426781674069066E9, 0.0, 2025-03-22 18:16:07.406
80.0, -179525.23285451328, -57004.12327100316, -177909.6040617948, -177865.16879381763, -177485.9938008778, -180914.46082764398, -178707.24841442687, -177935.82265804085, 0.05, 0.9440000000000001, 0.332, 192.0, 0.0, 0.0, 0.0, 0.0, 0.0, 0.0, 0.0, 0.0, 0.0, 1.7426781674069269E9, 0.0, 2025-03-22 18:16:07.406
81.0, -180232.26323512357, -57717.94858192785, -177975.9663910826, -177986.02467608746, -177809.62470884618, -180727.8684649311, -178477.71835061532, -177483.15512933198, 0.05, 0.9440000000000001, 0.332, 192.0, 0.0, 0.0, 0.0, 0.0, 0.0, 0.0, 0.0, 0.0, 0.0, 1.7426781674069452E9, 0.0, 2025-03-22 18:16:07.406
82.0, -178615.49450343783, -55770.597549748134, -177804.23793843246, -177771.33617059424, -177903.25616636948, -181071.3477219758, -178786.70886596548, -178027.44245856316, 0.05, 0.9440000000000001, 0.332, 192.0, 0.0, 0.0, 0.0, 0.0, 0.0, 0.0, 0.0, 0.0, 0.0, 1.7426781674069643E9, 0.0, 2025-03-22 18:16:07.406
83.0, -177733.04763234232, -54842.553119963784, -177752.27013257387, -177599.56301445523, -177601.95465111194, -181327.96810006717, -179003.2078627596, -178624.39049773104, 0.05, 0.9440000000000001, 0.332, 192.0, 0.0, 0.0, 0.0, 0.0, 0.0, 0.0, 0.0, 0.0, 0.0, 1.7426781674069817E9, 0.0, 2025-03-22 18:16:07.406
84.0, -179218.83514151993, -56827.544489806234, -177885.41947429415, -177782.4226358441, -177480.40586476398, -181026.82304702082, -178620.56834942917, -178109.40630548078, 0.05, 0.9440000000000001, 0.332, 192.0, 0.0, 0.0, 0.0, 0.0, 0.0, 0.0, 0.0, 0.0, 0.0, 1.7426781674069953E9, 0.0, 2025-03-22 18:16:07.406
85.0, -180342.14441086585, -58063.886530862634, -177987.522242966, -177948.96548378057, -177787.09415043524, -180745.52634305076, -178024.0226416615, -177503.27169934174, 0.05, 0.9440000000000001, 0.332, 192.0, 0.0, 0.0, 0.0, 0.0, 0.0, 0.0, 0.0, 0.0, 0.0, 1.7426781674070084E9, 0.0, 2025-03-22 18:16:07.407
86.0, -178933.91745494812, -56328.65355356378, -177820.465304907, -177750.5490482508, -177941.43294589914, -181002.39259033115, -178353.80027935508, -177877.39519803468, 0.05, 0.9440000000000001, 0.332, 192.0, 0.0, 0.0, 0.0, 0.0, 0.0, 0.0, 0.0, 0.0, 0.0, 1.7426781674070237E9, 0.0, 2025-03-22 18:16:07.407
87.0, -177706.4043529516, -54929.68021985057, -177742.9941586249, -177462.85974536656, -177661.67851229652, -181306.06339050096, -179202.80894074548, -178553.98250269683, 0.048, 0.9400000000000001, 0.338, 192.0, 1.0, 128.0, 29.0, 96.0, 10.0, 144.0, 0.0, 0.0, 0.0, 1.742678167407037E9, 0.0, 2025-03-22 18:16:07.407
88.0, -178846.6115411057, -56549.175864359844, -177819.54888338436, -177723.63754792663, -177448.95696031535, -181068.55375391888, -179129.0705357874, -178202.4119141593, 0.048, 0.9400000000000001, 0.338, 192.0, 0.0, 0.0, 0.0, 0.0, 0.0, 0.0, 0.0, 0.0, 0.0, 1.742678167407051E9, 0.0, 2025-03-22 18:16:07.407
89.0, -180295.63043065436, -58225.13201536322, -177953.23466697155, -178092.3742762058, -177721.08944905872, -180726.14738060802, -178739.9937200539, -177505.41746680945, 0.048, 0.9400000000000001, 0.338, 192.0, 0.0, 0.0, 0.0, 0.0, 0.0, 0.0, 0.0, 0.0, 0.0, 1.742678167407065E9, 0.0, 2025-03-22 18:16:07.407
90.0, -179243.08678425394, -56879.44524043146, -177837.56438941532, -177974.6029346708, -177969.88671659073, -180921.63573761412, -178901.48507374348, -177741.42953651305, 0.048, 0.9400000000000001, 0.338, 192.0, 0.0, 0.0, 0.0, 0.0, 0.0, 0.0, 0.0, 0.0, 0.0, 1.7426781674070861E9, 0.0, 2025-03-22 18:16:07.407
91.0, -177762.37312106768, -55175.28118792549, -177749.9455511505, -177734.05346084278, -177770.84443221622, -181290.50657636006, -179234.5037143831, -178485.87673734152, 0.048, 0.9400000000000001, 0.338, 192.0, 0.0, 0.0, 0.0, 0.0, 0.0, 0.0, 0.0, 0.0, 0.0, 1.7426781674070995E9, 0.0, 2025-03-22 18:16:07.407
92.0, -178531.5413512637, -56343.919795026755, -177826.09794450976, -177801.80159828684, -177484.2950682992, -181172.53406912496, -179063.5575727889, -178363.7915091266, 0.048, 0.9400000000000001, 0.338, 192.0, 0.0, 0.0, 0.0, 0.0, 0.0, 0.0, 0.0, 0.0, 0.0, 1.7426781674071128E9, 0.0, 2025-03-22 18:16:07.407
93.0, -180215.54413027098, -58345.89849065524, -177984.75062665352, -178042.64164479278, -177646.76989874482, -180797.8741285651, -178640.8637333946, -177611.00710761634, 0.048, 0.9400000000000001, 0.338, 192.0, 0.0, 0.0, 0.0, 0.0, 0.0, 0.0, 0.0, 0.0, 0.0, 1.7426781674071262E9, 0.0, 2025-03-22 18:16:07.407
94.0, -179593.49508207978, -57485.132811681375, -177910.40872459518, -177983.7224464086, -177945.83623955684, -180893.24902215588, -178702.73336204689, -177657.85636399465, 0.048, 0.9400000000000001, 0.338, 192.0, 0.0, 0.0, 0.0, 0.0, 0.0, 0.0, 0.0, 0.0, 0.0, 1.74267816740714E9, 0.0, 2025-03-22 18:16:07.407
95.0, -177943.53400987794, -55556.13256169946, -177761.6578652451, -177730.76775440786, -177817.5595781278, -181285.544489091, -179060.45068030962, -178406.79626545863, 0.048, 0.9400000000000001, 0.338, 192.0, 0.0, 0.0, 0.0, 0.0, 0.0, 0.0, 0.0, 0.0, 0.0, 1.7426781674071543E9, 0.0, 2025-03-22 18:16:07.407
96.0, -178254.7820514181, -56167.51982778547, -177803.18740644306, -177728.89020787363, -177493.9510219039, -181273.96628546313, -178997.5081679235, -178503.37815325, 0.048, 0.9400000000000001, 0.338, 192.0, 0.0, 0.0, 0.0, 0.0, 0.0, 0.0, 0.0, 0.0, 0.0, 1.7426781674071724E9, 0.0, 2025-03-22 18:16:07.407
97.0, -180040.93230258612, -58351.709944213624, -177971.33957998033, -177976.2569637605, -177573.50088042032, -180884.26362088486, -178444.83893452157, -177742.1447923356, 0.042, 0.9400000000000001, 0.334, 192.0, 1.0, 80.0, 29.0, 96.0, 10.0, 112.0, 0.0, 0.0, 0.0, 1.7426781674071882E9, 0.0, 2025-03-22 18:16:07.407
98.0, -179896.49532991592, -58038.40554218359, -177935.55443710738, -177971.94307708062, -177887.52053827295, -180859.7437572174, -178147.8960094328, -177580.94401132394, 0.042, 0.9400000000000001, 0.334, 192.0, 0.0, 0.0, 0.0, 0.0, 0.0, 0.0, 0.0, 0.0, 0.0, 1.7426781674072025E9, 0.0, 2025-03-22 18:16:07.407
99.0, -178149.48298328914, -55979.04991853832, -177770.5538595383, -177698.17891099202, -177816.3749356717, -181229.93334888617, -178885.0788933133, -178259.7888421761, 0.042, 0.9400000000000001, 0.334, 192.0, 0.0, 0.0, 0.0, 0.0, 0.0, 0.0, 0.0, 0.0, 0.0, 1.7426781674072158E9, 0.0, 2025-03-22 18:16:07.407
100.0, -177985.13060630925, -55983.11793602919, -177784.5684033118, -177615.70097395196, -177490.91118465798, -181316.5910621394, -179382.98635279972, -178557.96111320987, 0.042, 0.9400000000000001, 0.334, 192.0, 0.0, 0.0, 0.0, 0.0, 0.0, 0.0, 0.0, 0.0, 0.0, 1.7426781674072292E9, 0.0, 2025-03-22 18:16:07.407
101.0, -179746.425717643, -58208.43526225511, -177932.40284113918, -177848.85202036524, -177556.69236858992, -180934.08565927573, -178988.5451183969, -177843.30878774033, 0.042, 0.9400000000000001, 0.334, 192.0, 0.0, 0.0, 0.0, 0.0, 0.0, 0.0, 0.0, 0.0, 0.0, 1.7426781674072428E9, 0.0, 2025-03-22 18:16:07.407
102.0, -180116.88353024525, -58509.021521690076, -177962.5106409205, -177925.22793116904, -177905.82661698182, -180817.40955321904, -178830.74180254244, -177514.4028680805, 0.042, 0.9400000000000001, 0.334, 192.0, 0.0, 0.0, 0.0, 0.0, 0.0, 0.0, 0.0, 0.0, 0.0, 1.742678167407256E9, 0.0, 2025-03-22 18:16:07.407
103.0, -178426.21993139028, -56494.995235800176, -177794.76079878342, -177690.6910765995, -177941.54470462142, -181185.9674675426, -179164.36394028235, -178131.93686389172, 0.042, 0.9400000000000001, 0.334, 192.0, 0.0, 0.0, 0.0, 0.0, 0.0, 0.0, 0.0, 0.0, 0.0, 1.7426781674072697E9, 0.0, 2025-03-22 18:16:07.407
104.0, -177828.0648980218, -55935.1510924281, -177774.17484214008, -177555.7088918339, -177622.40649728852, -181379.62298150337, -179314.05357289955, -178618.86961685057, 0.042, 0.9400000000000001, 0.334, 192.0, 0.0, 0.0, 0.0, 0.0, 0.0, 0.0, 0.0, 0.0, 0.0, 1.7426781674072826E9, 0.0, 2025-03-22 18:16:07.407
105.0, -179457.81999323607, -58060.422010472066, -177918.00831770996, -177767.82694671478, -177525.57874030815, -181042.87159953974, -178926.40726881116, -178011.39390604425, 0.042, 0.9400000000000001, 0.334, 192.0, 0.0, 0.0, 0.0, 0.0, 0.0, 0.0, 0.0, 0.0, 0.0, 1.742678167407303E9, 0.0, 2025-03-22 18:16:07.407
106.0, -180301.24071851262, -58938.57734663217, -178000.28508904995, -177907.5477013049, -177834.41279344712, -180831.1335243146, -178669.6304285086, -177508.85963545556, 0.042, 0.9400000000000001, 0.334, 192.0, 0.0, 0.0, 0.0, 0.0, 0.0, 0.0, 0.0, 0.0, 0.0, 1.7426781674073377E9, 0.0, 2025-03-22 18:16:07.407
107.0, -178755.72934815043, -57066.082306633274, -177836.15622951463, -177696.92721330252, -177955.8945245617, -181153.04334795993, -178959.66666456065, -178007.66116472022, 0.05, 0.9460000000000001, 0.336, 192.0, 1.0, 144.0, 29.0, 144.0, 10.0, 128.0, 0.0, 0.0, 0.0, 1.7426781674073544E9, 0.0, 2025-03-22 18:16:07.407
108.0, -177762.2166588565, -55994.22675302348, -177779.40515034262, -177459.01524532025, -177668.07111121074, -181426.04755473704, -179195.07523716395, -178631.65481467903, 0.05, 0.9460000000000001, 0.336, 192.0, 0.0, 0.0, 0.0, 0.0, 0.0, 0.0, 0.0, 0.0, 0.0, 1.742678167407369E9, 0.0, 2025-03-22 18:16:07.407
109.0, -179139.21822777012, -57862.564368553685, -177890.4933202855, -177835.10569752523, -177478.0365798517, -181142.49332457702, -178860.78254709038, -178163.5422305515, 0.05, 0.9460000000000001, 0.336, 192.0, 0.0, 0.0, 0.0, 0.0, 0.0, 0.0, 0.0, 0.0, 0.0, 1.742678167407382E9, 0.0, 2025-03-22 18:16:07.407
110.0, -180378.48834735018, -59246.852606159766, -178008.42112403168, -178136.6977854607, -177743.7541179364, -180849.14903034558, -178519.627871469, -177535.5029148463, 0.05, 0.9460000000000001, 0.336, 192.0, 0.0, 0.0, 0.0, 0.0, 0.0, 0.0, 0.0, 0.0, 0.0, 1.7426781674073956E9, 0.0, 2025-03-22 18:16:07.407
111.0, -179092.88306151427, -57645.841854315026, -177868.87918339722, -177976.79340562742, -177943.89163778923, -181101.00848686797, -178739.41257469804, -177882.91607891515, 0.05, 0.9460000000000001, 0.336, 192.0, 0.0, 0.0, 0.0, 0.0, 0.0, 0.0, 0.0, 0.0, 0.0, 1.7426781674074092E9, 0.0, 2025-03-22 18:16:07.407
112.0, -177774.08543516224, -56156.4557142801, -177780.23216488745, -177751.46546977348, -177704.57150990624, -181438.83275256547, -179041.45169752263, -178597.3672386846, 0.05, 0.9460000000000001, 0.336, 192.0, 0.0, 0.0, 0.0, 0.0, 0.0, 0.0, 0.0, 0.0, 0.0, 1.7426781674074223E9, 0.0, 2025-03-22 18:16:07.407
113.0, -178814.64854653462, -57647.942918293826, -177868.76742467494, -177860.05024433736, -177477.96952461835, -181248.44059329518, -178787.6476392326, -178328.11812497594, 0.05, 0.9460000000000001, 0.336, 192.0, 0.0, 0.0, 0.0, 0.0, 0.0, 0.0, 0.0, 0.0, 0.0, 1.742678167407436E9, 0.0, 2025-03-22 18:16:07.407
114.0, -180350.59337026995, -59431.07568396041, -178012.0644583779, -178077.35390393186, -177725.80566713877, -180891.01384771036, -178150.37705306735, -177602.0217063453, 0.05, 0.9460000000000001, 0.336, 192.0, 0.0, 0.0, 0.0, 0.0, 0.0, 0.0, 0.0, 0.0, 0.0, 1.74267816740746E9, 0.0, 2025-03-22 18:16:07.407
115.0, -179410.03196359062, -58209.77636692243, -177888.6381254957, -177954.32990244986, -177974.66998990419, -181035.8755035252, -178222.14850451334, -177748.8503156722, 0.05, 0.9460000000000001, 0.336, 192.0, 0.0, 0.0, 0.0, 0.0, 0.0, 0.0, 0.0, 0.0, 0.0, 1.742678167407484E9, 0.0, 2025-03-22 18:16:07.407
116.0, -177842.7276423845, -56399.30741778701, -177778.0193421864, -177687.7853498203, -177778.55578405331, -181395.64918227782, -179088.8820992568, -178480.71348437233, 0.05, 0.9460000000000001, 0.336, 192.0, 0.0, 0.0, 0.0, 0.0, 0.0, 0.0, 0.0, 0.0, 0.0, 1.742678167407498E9, 0.0, 2025-03-22 18:16:07.407
117.0, -178460.3286934291, -57385.91341804426, -177846.37097673072, -177724.53161770484, -177490.53120500222, -181302.48711138812, -179274.44628172473, -178420.20731213182, 0.044, 0.9520000000000001, 0.336, 192.0, 1.0, 96.0, 29.0, 192.0, 10.0, 128.0, 0.0, 0.0, 0.0, 1.7426781674075112E9, 0.0, 2025-03-22 18:16:07.407
118.0, -180185.95042061215, -59454.50031214957, -177998.69811519363, -177966.69041713362, -177669.18869843349, -180916.71835383397, -178851.1042417412, -177658.39280586157, 0.044, 0.9520000000000001, 0.336, 192.0, 0.0, 0.0, 0.0, 0.0, 0.0, 0.0, 0.0, 0.0, 0.0, 1.7426781674075253E9, 0.0, 2025-03-22 18:16:07.407
119.0, -179718.28487137376, -58768.43586783837, -177940.00243425398, -177929.49711436, -177983.6106876863, -180977.29158130786, -178877.21107926502, -177644.55707604374, 0.044, 0.9520000000000001, 0.336, 192.0, 0.0, 0.0, 0.0, 0.0, 0.0, 0.0, 0.0, 0.0, 0.0, 1.7426781674075823E9, 0.0, 2025-03-22 18:16:07.407
120.0, -178027.5095137965, -56791.558181233195, -177795.23018541696, -177673.189660691, -177878.84806142427, -181371.41989128827, -179235.80011556152, -178382.857547147, 0.044, 0.9520000000000001, 0.336, 192.0, 0.0, 0.0, 0.0, 0.0, 0.0, 0.0, 0.0, 0.0, 0.0, 1.742678167884488E9, 0.0, 2025-03-22 18:16:07.884
121.0, -178185.3575331399, -57209.1558228917, -177824.39921193116, -177647.95454120095, -177549.4951068753, -181395.5597753, -179208.82156000397, -178551.72497650684, 0.044, 0.9520000000000001, 0.336, 192.0, 0.0, 0.0, 0.0, 0.0, 0.0, 0.0, 0.0, 0.0, 0.0, 1.7426781678845432E9, 0.0, 2025-03-22 18:16:07.884
122.0, -179986.30463913735, -59428.50523334804, -177992.55138546842, -177896.81886396633, -177601.88759587856, -181005.723000255, -178771.91201113607, -177803.47797912097, 0.044, 0.9520000000000001, 0.336, 192.0, 0.0, 0.0, 0.0, 0.0, 0.0, 0.0, 0.0, 0.0, 0.0, 1.7426781678845694E9, 0.0, 2025-03-22 18:16:07.884
123.0, -180021.732154099, -59322.84853730781, -177989.5115482225, -177929.07243121535, -177935.17445745165, -180958.60552294322, -178690.59636480766, -177594.71268590842, 0.044, 0.9520000000000001, 0.336, 192.0, 0.0, 0.0, 0.0, 0.0, 0.0, 0.0, 0.0, 0.0, 0.0, 1.742678167884596E9, 0.0, 2025-03-22 18:16:07.884
124.0, -178290.8354152245, -57280.12261153729, -177816.2184734605, -177682.5773933622, -177915.6390327977, -181349.4481264887, -179045.67617722467, -178278.02786565162, 0.044, 0.9520000000000001, 0.336, 192.0, 0.0, 0.0, 0.0, 0.0, 0.0, 0.0, 0.0, 0.0, 0.0, 1.7426781678846252E9, 0.0, 2025-03-22 18:16:07.884
125.0, -177983.6553911752, -57101.621580317216, -177801.82395003128, -177589.37061898358, -177584.92262183697, -181483.91622113183, -179131.39511721078, -178653.5148207563, 0.044, 0.9520000000000001, 0.336, 192.0, 0.0, 0.0, 0.0, 0.0, 0.0, 0.0, 0.0, 0.0, 0.0, 1.7426781678846395E9, 0.0, 2025-03-22 18:16:07.884
126.0, -179726.75618252234, -59322.55796462989, -177965.5951816553, -177822.65577586362, -177547.43874638545, -181113.9948503965, -178666.70234998493, -177969.32792297937, 0.044, 0.9520000000000001, 0.336, 192.0, 0.0, 0.0, 0.0, 0.0, 0.0, 0.0, 0.0, 0.0, 0.0, 1.742678167884654E9, 0.0, 2025-03-22 18:16:07.884
127.0, -180259.13003195883, -59812.57525832359, -178005.53774899695, -177912.33097461832, -177865.54877347336, -180950.64830191713, -178188.6208878304, -177566.92946755048, 0.046, 0.9420000000000001, 0.332, 192.0, 1.0, 112.0, 29.0, 112.0, 10.0, 96.0, 0.0, 0.0, 0.0, 1.7426781678846684E9, 0.0, 2025-03-22 18:16:07.884
128.0, -178576.06602621867, -57791.50817293026, -177829.7636306004, -177642.1877911315, -177905.9383757041, -181285.1421576908, -178709.64005108358, -178124.76195392155, 0.046, 0.9420000000000001, 0.332, 192.0, 0.0, 0.0, 0.0, 0.0, 0.0, 0.0, 0.0, 0.0, 0.0, 1.742678167884684E9, 0.0, 2025-03-22 18:16:07.884
129.0, -177825.04741252036, -57018.406035710104, -177809.37883965718, -177436.01530027573, -177578.6194299006, -181489.57121247903, -179413.67529793683, -178645.44584100795, 0.046, 0.9420000000000001, 0.332, 192.0, 0.0, 0.0, 0.0, 0.0, 0.0, 0.0, 0.0, 0.0, 0.0, 1.7426781678846986E9, 0.0, 2025-03-22 18:16:07.884
130.0, -179359.11468972143, -59066.205807471975, -177911.12398041773, -177887.60994525076, -177517.3532983486, -181147.6118740573, -179110.36212567834, -178060.9253717572, 0.046, 0.9420000000000001, 0.332, 192.0, 0.0, 0.0, 0.0, 0.0, 0.0, 0.0, 0.0, 0.0, 0.0, 1.7426781678847127E9, 0.0, 2025-03-22 18:16:07.884
131.0, -180348.80523071354, -60128.76303538836, -178001.60384197283, -178142.19631459672, -177856.33985475777, -180899.17223443656, -178817.80014250282, -177518.24736812682, 0.046, 0.9420000000000001, 0.332, 192.0, 0.0, 0.0, 0.0, 0.0, 0.0, 0.0, 0.0, 0.0, 0.0, 1.7426781678847268E9, 0.0, 2025-03-22 18:16:07.884
132.0, -178868.7621198609, -58323.770263644496, -177850.95308434404, -177952.63116987125, -178006.63298447526, -181204.58647067388, -179089.15032019024, -177970.87019334678, 0.046, 0.9420000000000001, 0.332, 192.0, 0.0, 0.0, 0.0, 0.0, 0.0, 0.0, 0.0, 0.0, 0.0, 1.7426781678847408E9, 0.0, 2025-03-22 18:16:07.884
133.0, -177744.08939410324, -57092.47971683499, -177806.42840938907, -177749.92319940607, -177731.17008580806, -181510.02305865564, -179353.2361809297, -178639.23205604937, 0.046, 0.9420000000000001, 0.332, 192.0, 0.0, 0.0, 0.0, 0.0, 0.0, 0.0, 0.0, 0.0, 0.0, 1.742678167884755E9, 0.0, 2025-03-22 18:16:07.884
134.0, -179039.97648238856, -58871.05272663268, -177915.61668105324, -177900.46219831257, -177524.46115308537, -181260.66699751222, -179052.94049417265, -178240.3204727555, 0.046, 0.9420000000000001, 0.332, 192.0, 0.0, 0.0, 0.0, 0.0, 0.0, 0.0, 0.0, 0.0, 0.0, 1.7426781678848124E9, 0.0, 2025-03-22 18:16:07.884
135.0, -180409.51256865414, -60415.7594341945, -178046.15086867224, -178104.82419786742, -177778.93576370904, -180941.52879017935, -178689.43407409597, -177571.7574443528, 0.046, 0.9420000000000001, 0.332, 192.0, 0.0, 0.0, 0.0, 0.0, 0.0, 0.0, 0.0, 0.0, 0.0, 1.742678167884827E9, 0.0, 2025-03-22 18:16:07.884
136.0, -179220.7126880542, -58921.277096423764, -177912.755657763, -177961.750681609, -178003.10140885133, -181167.97431325607, -178882.44138746755, -177861.34664551576, 0.046, 0.9420000000000001, 0.332, 192.0, 0.0, 0.0, 0.0, 0.0, 0.0, 0.0, 0.0, 0.0, 0.0, 1.742678167884841E9, 0.0, 2025-03-22 18:16:07.884
137.0, -177804.17088319908, -57310.141004340774, -177812.8657117922, -177728.13024856214, -177780.5674410543, -181527.9491577088, -179204.12769366833, -178602.7540090983, 0.046, 0.9500000000000001, 0.334, 192.0, 1.0, 112.0, 29.0, 176.0, 10.0, 112.0, 0.0, 0.0, 0.0, 1.7426781678848555E9, 0.0, 2025-03-22 18:16:07.884
138.0, -178726.80619082527, -58659.76168629667, -177900.5963087793, -177819.2583107064, -177508.18908312192, -181372.26925757757, -178996.1894150006, -178405.6116230025, 0.046, 0.9500000000000001, 0.334, 192.0, 0.0, 0.0, 0.0, 0.0, 0.0, 0.0, 0.0, 0.0, 0.0, 1.7426781678848703E9, 0.0, 2025-03-22 18:16:07.884
139.0, -180367.1113094224, -60579.731831518635, -178059.20428743414, -178055.91858099922, -177699.3412017037, -181003.51017755392, -178582.3915698995, -177655.95646571595, 0.046, 0.9500000000000001, 0.334, 192.0, 0.0, 0.0, 0.0, 0.0, 0.0, 0.0, 0.0, 0.0, 0.0, 1.7426781678848844E9, 0.0, 2025-03-22 18:16:07.884
140.0, -179578.22884061682, -59528.93162118574, -177967.8080043564, -177975.92168759368, -177988.48336797755, -181139.49819082, -178685.36605660513, -177763.714225735, 0.046, 0.9500000000000001, 0.334, 192.0, 0.0, 0.0, 0.0, 0.0, 0.0, 0.0, 0.0, 0.0, 0.0, 1.742678167884898E9, 0.0, 2025-03-22 18:16:07.884
141.0, -177959.58256239686, -57652.41326718489, -177819.2136072175, -177725.22452178295, -177833.0716887798, -181532.91124497788, -179041.2058283336, -178530.35670880758, 0.046, 0.9500000000000001, 0.334, 192.0, 0.0, 0.0, 0.0, 0.0, 0.0, 0.0, 0.0, 0.0, 0.0, 1.7426781678849118E9, 0.0, 2025-03-22 18:16:07.884
142.0, -178433.2160274048, -58464.2509775461, -177866.80047116286, -177744.6034842257, -177533.24538865633, -181482.2845437866, -178936.1302776492, -178552.32847360714, 0.046, 0.9500000000000001, 0.334, 192.0, 0.0, 0.0, 0.0, 0.0, 0.0, 0.0, 0.0, 0.0, 0.0, 1.7426781678849256E9, 0.0, 2025-03-22 18:16:07.884
143.0, -180223.21077861916, -60618.62386687087, -178035.2208656336, -177988.39396099973, -177696.52488190233, -181079.61786742424, -178319.7362208052, -177766.9105251921, 0.046, 0.9500000000000001, 0.334, 192.0, 0.0, 0.0, 0.0, 0.0, 0.0, 0.0, 0.0, 0.0, 0.0, 1.7426781678849394E9, 0.0, 2025-03-22 18:16:07.884
144.0, -179888.8510333122, -60084.88656102259, -177974.1111962928, -177955.5592483949, -178013.27145257848, -181087.88801287272, -178133.41207902576, -177656.11292792714, 0.046, 0.9500000000000001, 0.334, 192.0, 0.0, 0.0, 0.0, 0.0, 0.0, 0.0, 0.0, 0.0, 0.0, 1.7426781678849533E9, 0.0, 2025-03-22 18:16:07.884
145.0, -178130.66281445776, -58030.47067290195, -177821.69465085206, -177652.26842788083, -177908.01708793844, -181466.25834301216, -178929.15653337917, -178368.46302371778, 0.046, 0.9500000000000001, 0.334, 192.0, 0.0, 0.0, 0.0, 0.0, 0.0, 0.0, 0.0, 0.0, 0.0, 1.7426781678849669E9, 0.0, 2025-03-22 18:16:07.884
146.0, -178113.80959913848, -58225.601401996784, -177840.80539236133, -177595.31618300872, -177561.3191796922, -181510.67125924485, -179366.4907653917, -178594.68502934993, 0.046, 0.9500000000000001, 0.334, 192.0, 0.0, 0.0, 0.0, 0.0, 0.0, 0.0, 0.0, 0.0, 0.0, 1.7426781678849807E9, 0.0, 2025-03-22 18:16:07.884
147.0, -179919.83055112726, -60470.38709764327, -177984.19183304213, -178054.4880693541, -177637.44922130695, -181105.16591133666, -178948.66960628863, -177841.7888691174, 0.042, 0.9460000000000001, 0.332, 192.0, 1.0, 80.0, 29.0, 144.0, 10.0, 96.0, 0.0, 0.0, 0.0, 1.7426781678849945E9, 0.0, 2025-03-22 18:16:07.884
148.0, -180130.518094363, -60577.206084395184, -177996.10531283682, -178143.31390181946, -177997.49112099304, -181019.08934343926, -178825.15386642862, -177572.53975540874, 0.042, 0.9460000000000001, 0.332, 192.0, 0.0, 0.0, 0.0, 0.0, 0.0, 0.0, 0.0, 0.0, 0.0, 1.7426781678850093E9, 0.0, 2025-03-22 18:16:07.885
149.0, -178390.52419549518, -58509.91559146829, -177839.218418505, -177900.1939773791, -178004.55427224093, -181408.85906325091, -179174.62339098734, -178231.37977497338, 0.042, 0.9460000000000001, 0.332, 192.0, 0.0, 0.0, 0.0, 0.0, 0.0, 0.0, 0.0, 0.0, 0.0, 1.7426781678850307E9, 0.0, 2025-03-22 18:16:07.885
150.0, -177939.37658540925, -58121.82225249079, -177848.1814680316, -177783.18259515555, -177666.90882049905, -181577.27945772166, -179295.18870057925, -178674.79368147775, 0.042, 0.9460000000000001, 0.332, 192.0, 0.0, 0.0, 0.0, 0.0, 0.0, 0.0, 0.0, 0.0, 0.0, 1.7426781678850448E9, 0.0, 2025-03-22 18:16:07.885
151.0, -179649.41914670696, -60332.7897587764, -177994.92067038067, -178006.25300481953, -177598.71364816593, -181212.20841553312, -178886.68821891406, -178016.75832471353, 0.042, 0.9460000000000001, 0.332, 192.0, 0.0, 0.0, 0.0, 0.0, 0.0, 0.0, 0.0, 0.0, 0.0, 1.7426781678850584E9, 0.0, 2025-03-22 18:16:07.885
152.0, -180358.32707385148, -61046.860938890095, -178056.81265077743, -178125.87954114433, -177926.97136723655, -181021.14570392916, -178655.4594225239, -177558.3687494241, 0.042, 0.9460000000000001, 0.332, 192.0, 0.0, 0.0, 0.0, 0.0, 0.0, 0.0, 0.0, 0.0, 0.0, 1.7426781678850727E9, 0.0, 2025-03-22 18:16:07.885
153.0, -178712.9257575185, -59073.62658663114, -177884.30188707137, -177909.42524783913, -178022.0109846605, -181371.33048431046, -178966.61805708625, -178109.76393339204, 0.042, 0.9460000000000001, 0.332, 192.0, 0.0, 0.0, 0.0, 0.0, 0.0, 0.0, 0.0, 0.0, 0.0, 1.7426781678850863E9, 0.0, 2025-03-22 18:16:07.885
154.0, -177818.9230345396, -58139.949517244044, -177831.19414224557, -177737.51798123337, -177712.43932395452, -181632.3318043151, -179183.67584749174, -178713.8198272967, 0.042, 0.9460000000000001, 0.332, 192.0, 0.0, 0.0, 0.0, 0.0, 0.0, 0.0, 0.0, 0.0, 0.0, 1.7426781678851001E9, 0.0, 2025-03-22 18:16:07.885
155.0, -179337.38879411088, -60152.232367066434, -177968.0985770343, -177924.4456201131, -177556.78177556777, -181326.11290527738, -178813.68742152303, -178193.82884428845, 0.042, 0.9460000000000001, 0.332, 192.0, 0.0, 0.0, 0.0, 0.0, 0.0, 0.0, 0.0, 0.0, 0.0, 1.7426781678851142E9, 0.0, 2025-03-22 18:16:07.885
156.0, -180475.89724968642, -61399.05737627237, -178074.15760447475, -178095.6823343852, -177846.14745928615, -181044.83855305178, -178237.54885644306, -177584.63204915906, 0.042, 0.9460000000000001, 0.332, 192.0, 0.0, 0.0, 0.0, 0.0, 0.0, 0.0, 0.0, 0.0, 0.0, 1.7426781678851278E9, 0.0, 2025-03-22 18:16:07.885
157.0, -179039.79766843293, -59638.09754110546, -177904.73138150352, -177898.67405875612, -178004.37545828527, -181309.90789054727, -178514.86694990002, -177968.8585363458, 0.042, 0.9420000000000001, 0.328, 192.0, 1.0, 80.0, 29.0, 112.0, 10.0, 64.0, 0.0, 0.0, 0.0, 1.7426781678851416E9, 0.0, 2025-03-22 18:16:07.885
158.0, -177801.28750816436, -58232.172814866644, -177833.8763515802, -177666.90882049905, -177722.43055372604, -181623.34640304404, -179365.52964038012, -178659.6615504815, 0.042, 0.9420000000000001, 0.328, 192.0, 0.0, 0.0, 0.0, 0.0, 0.0, 0.0, 0.0, 0.0, 0.0, 1.742678167885156E9, 0.0, 2025-03-22 18:16:07.885
159.0, -178977.92803978064, -59884.61493070304, -177927.97719573704, -177791.34098188175, -177530.96551072187, -181390.2177083752, -179269.35008398892, -178313.16480793533, 0.042, 0.9420000000000001, 0.328, 192.0, 0.0, 0.0, 0.0, 0.0, 0.0, 0.0, 0.0, 0.0, 0.0, 1.7426781678851697E9, 0.0, 2025-03-22 18:16:07.885
160.0, -180450.90799938538, -61576.709041203154, -178063.54052585847, -178003.97312688507, -177821.6722991076, -181042.35750941726, -178878.14985253214, -177606.58146221418, 0.042, 0.9420000000000001, 0.328, 192.0, 0.0, 0.0, 0.0, 0.0, 0.0, 0.0, 0.0, 0.0, 0.0, 1.7426781678851836E9, 0.0, 2025-03-22 18:16:07.885
161.0, -179373.50921315065, -60208.84933577172, -177941.32118717686, -177881.977305648, -178076.32572368692, -181242.98676764808, -179042.79280218994, -177845.76747963042, 0.042, 0.9420000000000001, 0.328, 192.0, 0.0, 0.0, 0.0, 0.0, 0.0, 0.0, 0.0, 0.0, 0.0, 1.7426781678851972E9, 0.0, 2025-03-22 18:16:07.885
162.0, -177861.99484610496, -58474.823352673455, -177831.70823236802, -177640.35494808614, -177871.00259912046, -181622.8770164105, -179382.11463476595, -178606.17382599995, 0.042, 0.9420000000000001, 0.328, 192.0, 0.0, 0.0, 0.0, 0.0, 0.0, 0.0, 0.0, 0.0, 0.0, 1.7426781678852131E9, 0.0, 2025-03-22 18:16:07.885
163.0, -178650.63144572158, -59662.99738442867, -177907.97238444953, -177709.08656228622, -177576.58542115515, -181499.67420097283, -179207.6592692923, -178481.89812682846, 0.042, 0.9420000000000001, 0.328, 192.0, 0.0, 0.0, 0.0, 0.0, 0.0, 0.0, 0.0, 0.0, 0.0, 1.7426781678852808E9, 0.0, 2025-03-22 18:16:07.885
164.0, -180370.68758853528, -61691.284083281054, -178074.91756378624, -177952.22883847106, -177747.21863832697, -181116.11826611977, -178781.47855776295, -177716.08265830073, 0.042, 0.9420000000000001, 0.328, 192.0, 0.0, 0.0, 0.0, 0.0, 0.0, 0.0, 0.0, 0.0, 0.0, 1.742678167885347E9, 0.0, 2025-03-22 18:16:07.885
165.0, -179731.9194354915, -60816.28034308915, -177997.9158041377, -177893.86843369826, -178055.024511221, -181214.7788661455, -178846.1645062166, -177761.702568734, 0.042, 0.9420000000000001, 0.328, 192.0, 0.0, 0.0, 0.0, 0.0, 0.0, 0.0, 0.0, 0.0, 0.0, 1.7426781678853722E9, 0.0, 2025-03-22 18:16:07.885
166.0, -178041.79227850348, -58850.44441824489, -177846.6839011531, -177595.49499696435, -177919.48353284402, -181617.53494948568, -179209.06742919298, -178526.02047038323, 0.042, 0.9420000000000001, 0.328, 192.0, 0.0, 0.0, 0.0, 0.0, 0.0, 0.0, 0.0, 0.0, 0.0, 1.7426781678853965E9, 0.0, 2025-03-22 18:16:07.885
167.0, -178357.93535207934, -59461.98814654209, -177874.62358172223, -177650.36852960213, -177588.23068001636, -181590.9587253283, -179130.8810270883, -178612.05233479172, 0.042, 0.9420000000000001, 0.33, 192.0, 1.0, 80.0, 29.0, 112.0, 10.0, 80.0, 0.0, 0.0, 0.0, 1.74267816788542E9, 0.0, 2025-03-22 18:16:07.885
168.0, -180170.05833030443, -61664.506693423595, -178035.31027261142, -178126.90772138926, -177712.48402744342, -181178.79255757245, -178676.29124835625, -177826.94731079906, 0.042, 0.9420000000000001, 0.33, 192.0, 0.0, 0.0, 0.0, 0.0, 0.0, 0.0, 0.0, 0.0, 0.0, 1.7426781678854454E9, 0.0, 2025-03-22 18:16:07.885
169.0, -180028.90706406918, -61359.96417522004, -178010.09750486584, -178158.42368107126, -178057.1255751998, -181166.81202254439, -178628.07853556616, -177678.17409970454, 0.042, 0.9420000000000001, 0.33, 192.0, 0.0, 0.0, 0.0, 0.0, 0.0, 0.0, 0.0, 0.0, 0.0, 1.7426781678854687E9, 0.0, 2025-03-22 18:16:07.885
170.0, -178263.6780457113, -59289.94676946959, -177857.2786280249, -177904.4855123145, -178004.24134781855, -181571.17743148535, -178992.97076379907, -178396.93914615383, 0.042, 0.9420000000000001, 0.33, 192.0, 0.0, 0.0, 0.0, 0.0, 0.0, 0.0, 0.0, 0.0, 0.0, 1.742678167885492E9, 0.0, 2025-03-22 18:16:07.885
171.0, -178113.60843343838, -59304.31894115436, -177876.50112825647, -177831.9317498126, -177661.20912566295, -181669.30158964416, -179043.12807835676, -178713.75277206337, 0.042, 0.9420000000000001, 0.33, 192.0, 0.0, 0.0, 0.0, 0.0, 0.0, 0.0, 0.0, 0.0, 0.0, 1.7426781678855152E9, 0.0, 2025-03-22 18:16:07.885
172.0, -179922.17748429507, -61572.39515452328, -178037.90307496823, -178072.83885155187, -177657.14110817207, -181279.9342012327, -178517.61621446803, -177986.13643480974, 0.042, 0.9420000000000001, 0.33, 192.0, 0.0, 0.0, 0.0, 0.0, 0.0, 0.0, 0.0, 0.0, 0.0, 1.7426781678855376E9, 0.0, 2025-03-22 18:16:07.885
173.0, -180290.1989567517, -61872.690841280324, -178055.76211878803, -178138.97766339514, -177986.33760050984, -181147.18719091263, -178092.41897969475, -177619.00903213132, 0.042, 0.9420000000000001, 0.33, 192.0, 0.0, 0.0, 0.0, 0.0, 0.0, 0.0, 0.0, 0.0, 0.0, 1.7426781678855605E9, 0.0, 2025-03-22 18:16:07.885
174.0, -178529.57439775162, -59788.39067082294, -177873.2824770549, -177879.29509631338, -177997.82639715986, -181505.73152372023, -178726.64972861408, -178227.5576266715, 0.042, 0.9420000000000001, 0.33, 192.0, 0.0, 0.0, 0.0, 0.0, 0.0, 0.0, 0.0, 0.0, 0.0, 1.7426781678855834E9, 0.0, 2025-03-22 18:16:07.885
175.0, -177906.63127978222, -59200.60684688173, -177855.42343323512, -177729.27018752936, -177658.50456458385, -181692.0333137552, -179414.1446845704, -178716.3232226757, 0.042, 0.9420000000000001, 0.33, 192.0, 0.0, 0.0, 0.0, 0.0, 0.0, 0.0, 0.0, 0.0, 0.0, 1.7426781678856063E9, 0.0, 2025-03-22 18:16:07.885
176.0, -179571.92564868042, -61356.85728274075, -177987.70105692162, -177935.12975396274, -177623.0323461333, -181334.4948094481, -179101.53318661847, -178091.6366686388, 0.042, 0.9420000000000001, 0.33, 192.0, 0.0, 0.0, 0.0, 0.0, 0.0, 0.0, 0.0, 0.0, 0.0, 1.7426781678856292E9, 0.0, 2025-03-22 18:16:07.885
177.0, -180431.79725787608, -62256.22442438894, -178066.44625263766, -178073.35294167435, -177974.78174862644, -181111.8490829288, -178836.64266307864, -177588.49890094984, 0.046, 0.936, 0.328, 192.0, 1.0, 112.0, 29.0, 64.0, 10.0, 64.0, 0.0, 0.0, 0.0, 1.742678167885652E9, 0.0, 2025-03-22 18:16:07.885
178.0, -178846.23156144997, -60342.669229825646, -177904.4408088256, -177868.25333455246, -178099.8397588539, -181444.71126135724, -179131.19395151068, -178094.31887797345, 0.046, 0.936, 0.328, 192.0, 0.0, 0.0, 0.0, 0.0, 0.0, 0.0, 0.0, 0.0, 0.0, 1.7426781678856769E9, 0.0, 2025-03-22 18:16:07.885
179.0, -177826.00853753192, -59243.61160321374, -177862.15130831616, -177679.5375561163, -177801.64513607565, -181732.17704679695, -179375.54322189608, -178739.16670550904, 0.046, 0.936, 0.328, 192.0, 0.0, 0.0, 0.0, 0.0, 0.0, 0.0, 0.0, 0.0, 0.0, 1.7426781678857107E9, 0.0, 2025-03-22 18:16:07.885
180.0, -179254.01678729258, -61161.033649567806, -177986.0693795764, -177850.86367736623, -177618.38318328658, -181450.41095619334, -179047.1066888698, -178275.36800806143, 0.046, 0.936, 0.328, 192.0, 0.0, 0.0, 0.0, 0.0, 0.0, 0.0, 0.0, 0.0, 0.0, 1.7426781678857331E9, 0.0, 2025-03-22 18:16:07.885
181.0, -180522.99237525373, -62576.30140498894, -178107.95344209118, -178043.75923201552, -177897.86939595573, -181149.73528978054, -178703.11334170264, -177624.8651891786, 0.046, 0.936, 0.328, 192.0, 0.0, 0.0, 0.0, 0.0, 0.0, 0.0, 0.0, 0.0, 0.0, 1.742678167885756E9, 0.0, 2025-03-22 18:16:07.885
182.0, -179201.06550467797, -60942.835920195095, -177960.32016996387, -177884.65951498266, -178104.39951472278, -181412.3235836415, -178929.5365130349, -177978.04510331692, 0.046, 0.936, 0.328, 192.0, 0.0, 0.0, 0.0, 0.0, 0.0, 0.0, 0.0, 0.0, 0.0, 1.7426781678857784E9, 0.0, 2025-03-22 18:16:07.885
183.0, -177861.36899726023, -59430.96392523813, -177861.6819216826, -177659.01865470633, -177856.85394488025, -181761.8601634336, -179237.90117954032, -178714.60213835267, 0.046, 0.936, 0.328, 192.0, 0.0, 0.0, 0.0, 0.0, 0.0, 0.0, 0.0, 0.0, 0.0, 1.7426781678858013E9, 0.0, 2025-03-22 18:16:07.885
184.0, -178937.27021661642, -60952.35776333306, -177960.9013153197, -177770.7103217495, -177599.00422084384, -181566.64002736093, -178988.9474497971, -178441.9555594868, 0.046, 0.936, 0.328, 192.0, 0.0, 0.0, 0.0, 0.0, 0.0, 0.0, 0.0, 0.0, 0.0, 1.7426781678858237E9, 0.0, 2025-03-22 18:16:07.885
185.0, -180504.842758756, -62767.09589565944, -178110.05450606998, -177995.23359480305, -177814.18446471507, -181203.44653170664, -178385.0033146147, -177696.5025301579, 0.046, 0.936, 0.328, 192.0, 0.0, 0.0, 0.0, 0.0, 0.0, 0.0, 0.0, 0.0, 0.0, 1.7426781678858464E9, 0.0, 2025-03-22 18:16:07.885
186.0, -179541.4155174989, -61525.098863255844, -177985.018847587, -177872.14253808768, -178069.3296276724, -181353.47144049066, -178403.9575939128, -177845.4322034636, 0.046, 0.936, 0.328, 192.0, 0.0, 0.0, 0.0, 0.0, 0.0, 0.0, 0.0, 0.0, 0.0, 1.7426781678858647E9, 0.0, 2025-03-22 18:16:07.885
187.0, -177954.77693733896, -59673.837980489494, -177862.30777052735, -177542.87899051656, -177862.10660482725, -181721.35880248056, -179271.38409273437, -178594.48386364983, 0.048, 0.9460000000000001, 0.328, 192.0, 1.0, 128.0, 29.0, 144.0, 10.0, 64.0, 0.0, 0.0, 0.0, 1.7426781678858786E9, 0.0, 2025-03-22 18:16:07.885
188.0, -178581.2963344212, -60667.753001183635, -177905.67015477063, -177709.6006524087, -177569.23169722935, -181612.84108315007, -179406.7909606446, -178521.05838311417, 0.048, 0.9460000000000001, 0.328, 192.0, 0.0, 0.0, 0.0, 0.0, 0.0, 0.0, 0.0, 0.0, 0.0, 1.7426781678858929E9, 0.0, 2025-03-22 18:16:07.885
189.0, -180327.79459092554, -62763.631375268866, -178058.71254905613, -178165.57623929696, -177775.40418808511, -181209.59326143184, -178964.98637974102, -177741.74246093543, 0.048, 0.9460000000000001, 0.328, 192.0, 0.0, 0.0, 0.0, 0.0, 0.0, 0.0, 0.0, 0.0, 0.0, 1.7426781678859067E9, 0.0, 2025-03-22 18:16:07.885
190.0, -179843.07466066774, -62065.18406452943, -177998.04991460443, -178141.01167214056, -178102.72313388862, -181272.5804773069, -178992.5907841433, -177727.14677180612, 0.048, 0.9460000000000001, 0.328, 192.0, 0.0, 0.0, 0.0, 0.0, 0.0, 0.0, 0.0, 0.0, 0.0, 1.74267816788592E9, 0.0, 2025-03-22 18:16:07.885
191.0, -178125.18663706622, -60047.00035417084, -177868.29803804136, -177882.9384306596, -177994.29482153594, -181677.5270316037, -179360.0311112441, -178477.78540584867, 0.048, 0.9460000000000001, 0.328, 192.0, 0.0, 0.0, 0.0, 0.0, 0.0, 0.0, 0.0, 0.0, 0.0, 1.7426781678859339E9, 0.0, 2025-03-22 18:16:07.885
192.0, -178307.39805786588, -60471.9740714996, -177908.1959018941, -177854.99875009045, -177652.00020694736, -181698.82824406962, -179330.70562251876, -178647.2563323088, 0.048, 0.9460000000000001, 0.328, 192.0, 0.0, 0.0, 0.0, 0.0, 0.0, 0.0, 0.0, 0.0, 0.0, 1.7426781678859475E9, 0.0, 2025-03-22 18:16:07.885
193.0, -180126.49478036104, -62726.862755639886, -178071.81067130694, -178104.86890135633, -177707.5889954077, -181297.9944107526, -178886.93408810307, -177884.8383289383, 0.048, 0.9460000000000001, 0.328, 192.0, 0.0, 0.0, 0.0, 0.0, 0.0, 0.0, 0.0, 0.0, 0.0, 1.7426781678859687E9, 0.0, 2025-03-22 18:16:07.885
194.0, -180152.89219056276, -62622.03307414449, -178065.21690669263, -178137.7483174501, -178049.8836099963, -181250.6757677407, -178802.93623244003, -177669.50162285587, 0.048, 0.9460000000000001, 0.328, 192.0, 0.0, 0.0, 0.0, 0.0, 0.0, 0.0, 0.0, 0.0, 0.0, 1.7426781678859828E9, 0.0, 2025-03-22 18:16:07.885
195.0, -178381.42703550187, -60538.55991823196, -177899.50107330098, -177888.0793318843, -178027.3754033298, -181649.54264754566, -179164.11807109334, -178365.4008347274, 0.048, 0.9460000000000001, 0.328, 192.0, 0.0, 0.0, 0.0, 0.0, 0.0, 0.0, 0.0, 0.0, 0.0, 1.7426781678859963E9, 0.0, 2025-03-22 18:16:07.885
196.0, -178081.60073537836, -60357.354325932785, -177903.41262858067, -177794.09024644975, -177686.690114342, -181785.24008813384, -179251.51339191358, -178747.77212712434, 0.048, 0.9460000000000001, 0.328, 192.0, 0.0, 0.0, 0.0, 0.0, 0.0, 0.0, 0.0, 0.0, 0.0, 1.74267816788601E9, 0.0, 2025-03-22 18:16:07.886
197.0, -179864.62174232266, -62614.74640545207, -178064.74752005906, -178029.99055743107, -177650.18971564647, -181407.69677253923, -178827.61255831868, -178051.783508275, 0.044, 0.9420000000000001, 0.332, 192.0, 1.0, 96.0, 29.0, 112.0, 10.0, 96.0, 0.0, 0.0, 0.0, 1.7426781678860238E9, 0.0, 2025-03-22 18:16:07.886
198.0, -180407.76913258663, -63123.650923210495, -178113.02728808252, -178130.50635224656, -177987.92457436616, -181251.9274654302, -178633.3088437687, -177652.64840753656, 0.044, 0.9420000000000001, 0.332, 192.0, 0.0, 0.0, 0.0, 0.0, 0.0, 0.0, 0.0, 0.0, 0.0, 1.7426781678860388E9, 0.0, 2025-03-22 18:16:07.886
199.0, -178702.93452774698, -61091.385613845065, -177939.95773076508, -177900.5963087793, -178055.1362699433, -181619.0101646197, -178962.86296401775, -178248.25534203713, 0.044, 0.9420000000000001, 0.332, 192.0, 0.0, 0.0, 0.0, 0.0, 0.0, 0.0, 0.0, 0.0, 0.0, 1.7426781678860526E9, 0.0, 2025-03-22 18:16:07.886
200.0, -177949.0995942473, -60336.164872189154, -177909.0452681834, -177743.88822840314, -177731.21478929697, -181849.25548425384, -179147.19780054069, -178801.48336905043, 0.044, 0.9420000000000001, 0.332, 192.0, 0.0, 0.0, 0.0, 0.0, 0.0, 0.0, 0.0, 0.0, 0.0, 1.7426781678860664E9, 0.0, 2025-03-22 18:16:07.886
201.0, -179559.7439479523, -62440.46985393404, -178051.64939780824, -177946.97617852406, -177602.24522378985, -181518.87434945995, -178729.62251062662, -178223.64607139185, 0.044, 0.9420000000000001, 0.332, 192.0, 0.0, 0.0, 0.0, 0.0, 0.0, 0.0, 0.0, 0.0, 0.0, 1.7426781678860803E9, 0.0, 2025-03-22 18:16:07.886
202.0, -180556.78821287016, -63509.37497727573, -178138.73179420613, -178098.05161929748, -177903.05500066938, -181261.7398812461, -178156.38967232584, -177646.34521560016, 0.044, 0.9420000000000001, 0.332, 192.0, 0.0, 0.0, 0.0, 0.0, 0.0, 0.0, 0.0, 0.0, 0.0, 1.742678167886094E9, 0.0, 2025-03-22 18:16:07.886
203.0, -179017.5576826999, -61643.16077746878, -177957.68266411815, -177882.69256147058, -178033.6785952662, -181550.32325390854, -178563.5937528126, -178084.528813902, 0.044, 0.9420000000000001, 0.332, 192.0, 0.0, 0.0, 0.0, 0.0, 0.0, 0.0, 0.0, 0.0, 0.0, 1.7426781678861077E9, 0.0, 2025-03-22 18:16:07.886
204.0, -177865.21349730654, -60377.18032326464, -177887.31937257285, -177664.04779720877, -177738.92614113406, -181844.80748710723, -179399.2807745076, -178749.60497016966, 0.044, 0.9420000000000001, 0.332, 192.0, 0.0, 0.0, 0.0, 0.0, 0.0, 0.0, 0.0, 0.0, 0.0, 1.7426781678861215E9, 0.0, 2025-03-22 18:16:07.886
205.0, -179182.82648120244, -62172.11481000362, -177993.19958605763, -177809.93763326856, -177592.94689809644, -181580.63221938995, -179256.5648861605, -178335.42714541283, 0.044, 0.9420000000000001, 0.332, 192.0, 0.0, 0.0, 0.0, 0.0, 0.0, 0.0, 0.0, 0.0, 0.0, 1.742678167886135E9, 0.0, 2025-03-22 18:16:07.886
206.0, -180562.7114251508, -63731.439558439204, -178123.08557308742, -178012.60090024484, -177905.8489687263, -181254.5873230204, -178884.721265402, -177656.20233490496, 0.044, 0.9420000000000001, 0.332, 192.0, 0.0, 0.0, 0.0, 0.0, 0.0, 0.0, 0.0, 0.0, 0.0, 1.742678167886149E9, 0.0, 2025-03-22 18:16:07.886
207.0, -179350.86689601743, -62217.913534392545, -177988.88569937774, -177865.95110487356, -178138.82120118395, -181486.12904383292, -179081.34956137533, -177951.33476869285, 0.044, 0.9480000000000001, 0.334, 192.0, 1.0, 96.0, 29.0, 160.0, 10.0, 112.0, 0.0, 0.0, 0.0, 1.7426781678861628E9, 0.0, 2025-03-22 18:16:07.886
208.0, -177910.0510966839, -60578.390726851314, -177893.71197148706, -177567.2200402284, -177906.22894838202, -181846.66268189703, -179402.2982600091, -178697.41364686654, 0.044, 0.9480000000000001, 0.334, 192.0, 0.0, 0.0, 0.0, 0.0, 0.0, 0.0, 0.0, 0.0, 0.0, 1.7426781678861852E9, 0.0, 2025-03-22 18:16:07.886
209.0, -178844.08579398226, -61935.58865017756, -177965.5504781664, -177824.53332239788, -177614.53868324027, -181672.2296681678, -179177.05973113296, -178481.94283031736, 0.044, 0.9480000000000001, 0.334, 192.0, 0.0, 0.0, 0.0, 0.0, 0.0, 0.0, 0.0, 0.0, 0.0, 1.7426781678861992E9, 0.0, 2025-03-22 18:16:07.886
210.0, -180491.27524987166, -63861.70552512474, -178118.8387416409, -178242.5779989455, -177804.23793843246, -181294.88751827332, -178755.10349930567, -177726.29740551682, 0.044, 0.9480000000000001, 0.334, 192.0, 0.0, 0.0, 0.0, 0.0, 0.0, 0.0, 0.0, 0.0, 0.0, 1.7426781678862135E9, 0.0, 2025-03-22 18:16:07.886
211.0, -179686.7018564584, -62798.85772453043, -178026.10135389585, -178167.0067509421, -178097.11284603036, -181431.81430480652, -178857.9215238001, -177839.4866394385, 0.044, 0.9480000000000001, 0.334, 192.0, 0.0, 0.0, 0.0, 0.0, 0.0, 0.0, 0.0, 0.0, 0.0, 1.7426781678862271E9, 0.0, 2025-03-22 18:16:07.886
212.0, -178049.01189196252, -60899.38412897398, -177906.31835535984, -177913.001526952, -177940.58357960984, -181830.54707414474, -179218.54456884201, -178610.4653609354, 0.044, 0.9480000000000001, 0.334, 192.0, 0.0, 0.0, 0.0, 0.0, 0.0, 0.0, 0.0, 0.0, 0.0, 1.7426781678862412E9, 0.0, 2025-03-22 18:16:07.886
213.0, -178543.45483105836, -61728.1197581434, -177967.6515421452, -177935.39797489622, -177618.1149623531, -181779.406282831, -179113.8713495578, -178632.4147739905, 0.044, 0.9480000000000001, 0.334, 192.0, 0.0, 0.0, 0.0, 0.0, 0.0, 0.0, 0.0, 0.0, 0.0, 1.7426781678862553E9, 0.0, 2025-03-22 18:16:07.886
214.0, -180347.48647779066, -63898.6306069649, -178134.32850054844, -178186.5198238516, -177729.82898114074, -181380.18177511476, -178539.11859263404, -177852.36124424473, 0.044, 0.9480000000000001, 0.334, 192.0, 0.0, 0.0, 0.0, 0.0, 0.0, 0.0, 0.0, 0.0, 0.0, 1.742678167886269E9, 0.0, 2025-03-22 18:16:07.886
215.0, -180011.80797956086, -63370.0565540858, -178076.14690973127, -178157.1943351262, -178044.54154307148, -181391.1564816423, -178306.30282238757, -177750.86197267318, 0.044, 0.9480000000000001, 0.334, 192.0, 0.0, 0.0, 0.0, 0.0, 0.0, 0.0, 0.0, 0.0, 0.0, 1.7426781678862836E9, 0.0, 2025-03-22 18:16:07.886
216.0, -178235.4254407198, -61293.11010755422, -177913.13563741872, -177876.4340730231, -177940.58357960984, -181773.17014612796, -179088.09978820084, -178463.01090276372, 0.044, 0.9480000000000001, 0.334, 192.0, 0.0, 0.0, 0.0, 0.0, 0.0, 0.0, 0.0, 0.0, 0.0, 1.7426781678862987E9, 0.0, 2025-03-22 18:16:07.886
217.0, -178239.53816169957, -61505.205810690626, -177934.83918128483, -177814.13976122616, -177612.5717297282, -181822.8133705632, -179514.95105206384, -178694.66438229854, 0.048, 0.9460000000000001, 0.334, 192.0, 1.0, 128.0, 29.0, 144.0, 10.0, 112.0, 0.0, 0.0, 0.0, 1.7426781678863137E9, 0.0, 2025-03-22 18:16:07.886
218.0, -180063.73108193054, -63766.93412863423, -178090.36261920485, -178055.65036006575, -177720.1953792805, -181420.21374943422, -179096.25817492703, -177943.8469343003, 0.048, 0.9460000000000001, 0.334, 192.0, 0.0, 0.0, 0.0, 0.0, 0.0, 0.0, 0.0, 0.0, 0.0, 1.742678167886331E9, 0.0, 2025-03-22 18:16:07.886
219.0, -180267.35547391837, -63866.64526064936, -178103.05841005547, -178111.86499737084, -178081.71249410065, -181335.52298969307, -178973.41298740066, -177664.51718384234, 0.048, 0.9460000000000001, 0.334, 192.0, 0.0, 0.0, 0.0, 0.0, 0.0, 0.0, 0.0, 0.0, 0.0, 1.7426781678863454E9, 0.0, 2025-03-22 18:16:07.886
220.0, -178506.66385968495, -61785.49668616017, -177934.72742256254, -177868.00746536345, -178091.8378343389, -181727.55023569468, -179328.7163172622, -178330.5544651216, 0.048, 0.9460000000000001, 0.334, 192.0, 0.0, 0.0, 0.0, 0.0, 0.0, 0.0, 0.0, 0.0, 0.0, 1.7426781678863685E9, 0.0, 2025-03-22 18:16:07.886
221.0, -178050.84473500785, -61406.99224555401, -177926.68079455863, -177752.22542908497, -177754.17003085258, -181896.79764471028, -179449.54984778762, -178774.37070302616, 0.048, 0.9460000000000001, 0.334, 192.0, 0.0, 0.0, 0.0, 0.0, 0.0, 0.0, 0.0, 0.0, 0.0, 1.7426781678863826E9, 0.0, 2025-03-22 18:16:07.886
222.0, -179784.49073845037, -63626.05108333244, -178082.1818807342, -177979.49796670652, -177684.92432653002, -181533.47003858926, -179040.13294459975, -178115.53068346152, 0.048, 0.9460000000000001, 0.334, 192.0, 0.0, 0.0, 0.0, 0.0, 0.0, 0.0, 0.0, 0.0, 0.0, 1.742678167886397E9, 0.0, 2025-03-22 18:16:07.886
223.0, -180480.65817125537, -64322.26321962634, -178147.91836117726, -178100.82323560992, -178012.51149326703, -181347.0117863431, -178812.9051104671, -177667.55702108826, 0.048, 0.9460000000000001, 0.334, 192.0, 0.0, 0.0, 0.0, 0.0, 0.0, 0.0, 0.0, 0.0, 0.0, 1.74267816788642E9, 0.0, 2025-03-22 18:16:07.886
224.0, -178830.54063684234, -62350.884062157165, -177976.77105388299, -177880.4797387695, -178107.1934827797, -181693.0391422557, -179125.65071888576, -178217.92402481128, 0.048, 0.9460000000000001, 0.334, 192.0, 0.0, 0.0, 0.0, 0.0, 0.0, 0.0, 0.0, 0.0, 0.0, 1.7426781678864348E9, 0.0, 2025-03-22 18:16:07.886
225.0, -177937.14141096373, -61441.61509771527, -177933.94511150662, -177707.72310587444, -177801.22045293098, -181947.75962206838, -179337.0758696885, -178807.78656098683, 0.048, 0.9460000000000001, 0.334, 192.0, 0.0, 0.0, 0.0, 0.0, 0.0, 0.0, 0.0, 0.0, 0.0, 1.742678167886449E9, 0.0, 2025-03-22 18:16:07.886
226.0, -179467.67711254087, -63450.768703313915, -178066.49095612657, -177897.55647153337, -177646.34521560016, -181643.95471143184, -178982.57720262735, -178286.32036284453, 0.048, 0.9460000000000001, 0.334, 192.0, 0.0, 0.0, 0.0, 0.0, 0.0, 0.0, 0.0, 0.0, 0.0, 1.7426781678864634E9, 0.0, 2025-03-22 18:16:07.886
227.0, -180592.66276272092, -64677.544197743446, -178177.4003121138, -178074.53758413048, -177936.49321037452, -181374.77265295657, -178669.7198354864, -177690.1993382215, 0.038, 0.9420000000000001, 0.328, 192.0, 1.0, 48.0, 29.0, 112.0, 10.0, 64.0, 0.0, 0.0, 0.0, 1.7426781678864772E9, 0.0, 2025-03-22 18:16:07.886
228.0, -179180.72541722364, -62946.60275538001, -178023.84382770586, -177895.477759299, -178117.16236080675, -181659.71269127284, -178924.6861844881, -178098.25278499757, 0.038, 0.9420000000000001, 0.328, 192.0, 0.0, 0.0, 0.0, 0.0, 0.0, 0.0, 0.0, 0.0, 0.0, 1.7426781678864925E9, 0.0, 2025-03-22 18:16:07.886
229.0, -177933.98981499553, -61583.79454419548, -177919.68469854412, -177624.1722851005, -177856.31750301333, -181981.73427364044, -179207.21223440318, -178793.48144453543, 0.038, 0.9420000000000001, 0.328, 192.0, 0.0, 0.0, 0.0, 0.0, 0.0, 0.0, 0.0, 0.0, 0.0, 1.742678167886506E9, 0.0, 2025-03-22 18:16:07.886
230.0, -179125.13662876328, -63230.64872391805, -178013.5620252564, -177913.247396141, -177635.5269712838, -181746.7950876707, -178900.50159698745, -178438.78161177417, 0.038, 0.9420000000000001, 0.328, 192.0, 0.0, 0.0, 0.0, 0.0, 0.0, 0.0, 0.0, 0.0, 0.0, 1.74267816788652E9, 0.0, 2025-03-22 18:16:07.886
231.0, -180577.8212044026, -64889.304624713026, -178148.7006722332, -178274.09395862746, -177893.5778610203, -181400.54421431356, -178261.3311125435, -177725.55979794977, 0.038, 0.9420000000000001, 0.328, 192.0, 0.0, 0.0, 0.0, 0.0, 0.0, 0.0, 0.0, 0.0, 0.0, 1.7426781678865337E9, 0.0, 2025-03-22 18:16:07.886
232.0, -179482.0045807367, -63496.25450328046, -178011.63977523326, -178130.1487243353, -178122.1915033092, -181576.47479492126, -178409.76904747117, -177936.56026560787, 0.038, 0.9420000000000001, 0.328, 192.0, 0.0, 0.0, 0.0, 0.0, 0.0, 0.0, 0.0, 0.0, 0.0, 1.7426781678865473E9, 0.0, 2025-03-22 18:16:07.886
233.0, -177976.63694341623, -61770.632776097395, -177921.2940241449, -177864.49824148396, -177900.86452971277, -181924.60321481267, -179281.48708122817, -178664.48952728388, 0.038, 0.9420000000000001, 0.328, 192.0, 0.0, 0.0, 0.0, 0.0, 0.0, 0.0, 0.0, 0.0, 0.0, 1.7426781678865612E9, 0.0, 2025-03-22 18:16:07.886
234.0, -178753.76239463835, -62952.43656068284, -177991.05381858992, -177924.8479515133, -177638.41034631853, -181793.19730915994, -179388.8872133359, -178522.51124650374, 0.038, 0.9420000000000001, 0.328, 192.0, 0.0, 0.0, 0.0, 0.0, 0.0, 0.0, 0.0, 0.0, 0.0, 1.7426781678865747E9, 0.0, 2025-03-22 18:16:07.886
235.0, -180437.51930445665, -64943.06057012804, -178141.99514889662, -178164.72687300766, -177857.6809594251, -181414.8269790205, -178966.77451929744, -177771.6714467611, 0.038, 0.9420000000000001, 0.328, 192.0, 0.0, 0.0, 0.0, 0.0, 0.0, 0.0, 0.0, 0.0, 0.0, 1.7426781678865888E9, 0.0, 2025-03-22 18:16:07.886
236.0, -179797.70061942347, -64058.691449009355, -178068.90494452775, -178104.60068042288, -178164.9056869633, -181514.42635231334, -179036.19903757563, -177822.722831097, 0.038, 0.9420000000000001, 0.328, 192.0, 0.0, 0.0, 0.0, 0.0, 0.0, 0.0, 0.0, 0.0, 0.0, 1.7426781678866024E9, 0.0, 2025-03-22 18:16:07.886
237.0, -178136.51897150505, -62125.86905072559, -177930.1006114603, -177848.0250058204, -178036.7184325121, -181909.35932509415, -179397.090303551, -178575.1943081849, 0.04, 0.9420000000000001, 0.324, 192.0, 1.0, 64.0, 29.0, 112.0, 10.0, 32.0, 0.0, 0.0, 0.0, 1.7426781678866165E9, 0.0, 2025-03-22 18:16:07.886
238.0, -178477.85246108205, -62762.96082293521, -177974.6029346708, -177847.9355988426, -177711.9922890654, -181895.4788917874, -179327.6657852728, -178663.75191971683, 0.04, 0.9420000000000001, 0.324, 192.0, 0.0, 0.0, 0.0, 0.0, 0.0, 0.0, 0.0, 0.0, 0.0, 1.7426781678866887E9, 0.0, 2025-03-22 18:16:07.886
239.0, -180269.0989099859, -64947.77678820811, -178143.35860530837, -178100.51031118757, -177792.19034817105, -181504.12219811944, -178887.91756485912, -177907.52534956043, 0.04, 0.9420000000000001, 0.324, 192.0, 0.0, 0.0, 0.0, 0.0, 0.0, 0.0, 0.0, 0.0, 0.0, 1.7426781678867035E9, 0.0, 2025-03-22 18:16:07.886
240.0, -180119.29751864643, -64628.102139008304, -178120.06808758594, -178108.51223570257, -178120.47041898614, -181493.12513984743, -178844.57753236027, -177765.59177226922, 0.04, 0.9420000000000001, 0.324, 192.0, 0.0, 0.0, 0.0, 0.0, 0.0, 0.0, 0.0, 0.0, 0.0, 1.7426781683656473E9, 0.0, 2025-03-22 18:16:08.365
241.0, -178369.42414872936, -62587.7231464056, -177958.66614087418, -177853.12120355622, -178072.99531376307, -181886.85111842767, -179206.0946471804, -178472.1751179904, 0.04, 0.9420000000000001, 0.324, 192.0, 0.0, 0.0, 0.0, 0.0, 0.0, 0.0, 0.0, 0.0, 0.0, 1.7426781683657053E9, 0.0, 2025-03-22 18:16:08.365
242.0, -178223.89194058086, -62625.072911390416, -177974.22295501508, -177782.0650079328, -177738.34499577823, -181983.50006145242, -179249.79230759054, -178773.47663324795, 0.04, 0.9420000000000001, 0.324, 192.0, 0.0, 0.0, 0.0, 0.0, 0.0, 0.0, 0.0, 0.0, 0.0, 1.742678168365734E9, 0.0, 2025-03-22 18:16:08.365
243.0, -180017.1947499746, -64860.135598198845, -178136.42956452724, -178025.74372598456, -177731.43830674153, -181605.24149003526, -178762.1442988091, -178058.31021765593, 0.04, 0.9420000000000001, 0.324, 192.0, 0.0, 0.0, 0.0, 0.0, 0.0, 0.0, 0.0, 0.0, 0.0, 1.7426781683657613E9, 0.0, 2025-03-22 18:16:08.365
244.0, -180371.4698995912, -65136.04553175516, -178161.57527703946, -178095.280002985, -178054.95745598763, -181478.90943037384, -178327.38051740892, -177715.52386468934, 0.04, 0.9420000000000001, 0.324, 192.0, 0.0, 0.0, 0.0, 0.0, 0.0, 0.0, 0.0, 0.0, 0.0, 1.7426781683657742E9, 0.0, 2025-03-22 18:16:08.365
245.0, -178634.64994843604, -63080.020318033734, -177979.6544289177, -177816.77726707188, -178070.06723523943, -181826.38964967604, -178916.6172047397, -178315.82466552552, 0.04, 0.9420000000000001, 0.324, 192.0, 0.0, 0.0, 0.0, 0.0, 0.0, 0.0, 0.0, 0.0, 0.0, 1.7426781683657868E9, 0.0, 2025-03-22 18:16:08.365
246.0, -178003.10140885133, -62509.82731697885, -177954.1063850053, -177635.437564306, -177735.41691725457, -182002.92372738407, -179570.02575040172, -178781.85853741868, 0.04, 0.9420000000000001, 0.324, 192.0, 0.0, 0.0, 0.0, 0.0, 0.0, 0.0, 0.0, 0.0, 0.0, 1.7426781683657997E9, 0.0, 2025-03-22 18:16:08.365
247.0, -179652.30252174172, -64634.807662344894, -178072.90590678525, -178087.8368720814, -177689.66289635457, -181645.22876086578, -179229.63103409184, -178153.26042810208, 0.042, 0.9440000000000001, 0.334, 192.0, 1.0, 80.0, 29.0, 128.0, 10.0, 112.0, 0.0, 0.0, 0.0, 1.7426781683658123E9, 0.0, 2025-03-22 18:16:08.365
248.0, -180487.47545331425, -65497.361480875195, -178150.75703272308, -178303.01711595265, -178032.15867664322, -181427.56747336002, -178970.01552224346, -177658.59397156167, 0.042, 0.9440000000000001, 0.334, 192.0, 0.0, 0.0, 0.0, 0.0, 0.0, 0.0, 0.0, 0.0, 0.0, 1.7426781683658266E9, 0.0, 2025-03-22 18:16:08.365
249.0, -178925.51319903292, -63604.32518772187, -177989.4221412447, -178095.25765124056, -178154.8474019584, -181751.73482319532, -179264.1644792753, -178159.80948922748, 0.042, 0.9440000000000001, 0.334, 192.0, 0.0, 0.0, 0.0, 0.0, 0.0, 0.0, 0.0, 0.0, 0.0, 1.7426781683658388E9, 0.0, 2025-03-22 18:16:08.365
250.0, -177935.5991405963, -62541.723256316574, -177946.50679189048, -177905.3348786038, -177867.22515430753, -182029.58935851924, -179500.4224181679, -178784.38428454212, 0.042, 0.9440000000000001, 0.334, 192.0, 0.0, 0.0, 0.0, 0.0, 0.0, 0.0, 0.0, 0.0, 0.0, 1.742678168365851E9, 0.0, 2025-03-22 18:16:08.365
251.0, -179341.9261982353, -64440.07926465026, -178067.96617126063, -178078.22562196563, -177686.444245153, -181754.5958464856, -179169.59424848488, -178322.91016851785, 0.042, 0.9440000000000001, 0.334, 192.0, 0.0, 0.0, 0.0, 0.0, 0.0, 0.0, 0.0, 0.0, 0.0, 1.7426781683658636E9, 0.0, 2025-03-22 18:16:08.365
252.0, -180582.4256637604, -65819.76304289854, -178192.73360881014, -178272.64109523786, -177957.1462222512, -181464.85018311147, -178834.31808165528, -177703.43157093902, 0.042, 0.9440000000000001, 0.334, 192.0, 0.0, 0.0, 0.0, 0.0, 0.0, 0.0, 0.0, 0.0, 0.0, 1.742678168365876E9, 0.0, 2025-03-22 18:16:08.365
253.0, -179280.6153631944, -64201.586151312134, -178050.21888616311, -178110.52389270352, -178159.3401025939, -181719.54831117968, -179061.3671018323, -178054.64453156525, 0.042, 0.9440000000000001, 0.334, 192.0, 0.0, 0.0, 0.0, 0.0, 0.0, 0.0, 0.0, 0.0, 0.0, 1.742678168365928E9, 0.0, 2025-03-22 18:16:08.365
254.0, -177968.9032398347, -62722.01242709308, -177949.7030913476, -177883.6760382266, -177922.0986869453, -182060.25595191194, -179364.61321885744, -178769.22980180144, 0.042, 0.9440000000000001, 0.334, 192.0, 0.0, 0.0, 0.0, 0.0, 0.0, 0.0, 0.0, 0.0, 0.0, 1.7426781683659403E9, 0.0, 2025-03-22 18:16:08.365
255.0, -179029.87349389476, -64233.32562843867, -178045.25679889403, -177998.80987391592, -177669.4345676225, -181872.59070546518, -179119.23576822708, -178495.84561536857, 0.042, 0.9440000000000001, 0.334, 192.0, 0.0, 0.0, 0.0, 0.0, 0.0, 0.0, 0.0, 0.0, 0.0, 1.7426781683659532E9, 0.0, 2025-03-22 18:16:08.365
0.0, -180570.2216112878, -66016.63720806089, -178197.13690246784, -178227.82584760498, -177876.94816314557, -181521.57891053904, -178721.8888070451, -177776.58883054124, 0.042, 0.9440000000000001, 0.334, 192.0, 0.0, 0.0, 0.0, 0.0, 0.0, 0.0, 0.0, 0.0, 0.0, 1.7426781683659656E9, 0.0, 2025-03-22 18:16:08.365
1.0, -179635.18108548893, -64798.198914313194, -178093.00012505057, -178124.11375333235, -178144.56559950896, -181687.07122648612, -178860.38021569018, -177949.18900122514, 0.046, 0.9380000000000001, 0.33, 192.0, 1.0, 112.0, 29.0, 80.0, 10.0, 80.0, 0.0, 0.0, 0.0, 1.7426781683659775E9, 0.0, 2025-03-22 18:16:08.365
2.0, -178068.94964801666, -63012.629808500984, -177963.13648976522, -177874.10949159975, -177970.42315845768, -182066.82736478178, -179205.4017431023, -178704.2756324143, 0.046, 0.9380000000000001, 0.33, 192.0, 0.0, 0.0, 0.0, 0.0, 0.0, 0.0, 0.0, 0.0, 0.0, 1.7426781683659909E9, 0.0, 2025-03-22 18:16:08.365
3.0, -178711.04821098427, -64024.40387301492, -178021.67570849368, -177920.2434921555, -177681.81743405075, -181980.37081722866, -179058.8637064533, -178643.94827412945, 0.046, 0.9380000000000001, 0.33, 192.0, 0.0, 0.0, 0.0, 0.0, 0.0, 0.0, 0.0, 0.0, 0.0, 1.7426781683660033E9, 0.0, 2025-03-22 18:16:08.366
4.0, -180448.4940109842, -66087.82751415104, -178187.2574314186, -178165.5091840636, -177854.9316948571, -181593.9091555964, -178444.48130661028, -177877.7304742015, 0.046, 0.9380000000000001, 0.33, 192.0, 0.0, 0.0, 0.0, 0.0, 0.0, 0.0, 0.0, 0.0, 0.0, 1.7426781683660152E9, 0.0, 2025-03-22 18:16:08.366
5.0, -179943.47869676098, -65357.73013326289, -178114.07782007192, -178109.1380845473, -178155.56265778097, -181639.3279003296, -178318.10454345998, -177842.3253109843, 0.046, 0.9380000000000001, 0.33, 192.0, 0.0, 0.0, 0.0, 0.0, 0.0, 0.0, 0.0, 0.0, 0.0, 1.7426781683660276E9, 0.0, 2025-03-22 18:16:08.366
6.0, -178237.79472563206, -63364.40156273861, -177964.2987804769, -177828.4225259331, -178030.772868487, -182010.63507922116, -179136.5807219244, -178558.43049984344, 0.046, 0.9380000000000001, 0.33, 192.0, 0.0, 0.0, 0.0, 0.0, 0.0, 0.0, 0.0, 0.0, 0.0, 1.74267816836604E9, 0.0, 2025-03-22 18:16:08.366
7.0, -178403.6670212349, -63788.72707947816, -177992.52903372396, -177793.44204586055, -177703.7891988503, -182024.42610555008, -179507.88790081596, -178708.433056883, 0.046, 0.9380000000000001, 0.33, 192.0, 0.0, 0.0, 0.0, 0.0, 0.0, 0.0, 0.0, 0.0, 0.0, 1.7426781683660522E9, 0.0, 2025-03-22 18:16:08.366
8.0, -180194.84641490536, -65996.69945200675, -178150.13118387834, -178041.38994710328, -177798.82881627427, -181631.41538279242, -179087.76451203402, -177958.12969900726, 0.046, 0.9380000000000001, 0.33, 192.0, 0.0, 0.0, 0.0, 0.0, 0.0, 0.0, 0.0, 0.0, 0.0, 1.7426781683660643E9, 0.0, 2025-03-22 18:16:08.366
9.0, -180214.51595002605, -65873.63074703583, -178147.06899488796, -178072.86120329634, -178139.91643666226, -181585.14727176994, -179009.01931631798, -177756.51696402038, 0.046, 0.9380000000000001, 0.33, 192.0, 0.0, 0.0, 0.0, 0.0, 0.0, 0.0, 0.0, 0.0, 0.0, 1.7426781683660762E9, 0.0, 2025-03-22 18:16:08.366
10.0, -178482.72514137332, -63827.12737645238, -177985.97997259855, -177798.56059534082, -178120.4033637528, -181971.6089334022, -179365.21671595774, -178435.45120185034, 0.046, 0.9380000000000001, 0.33, 192.0, 0.0, 0.0, 0.0, 0.0, 0.0, 0.0, 0.0, 0.0, 0.0, 1.7426781683660884E9, 0.0, 2025-03-22 18:16:08.366
11.0, -178183.94937323921, -63656.76238021402, -177985.6223446873, -177689.193509721, -177781.23799338794, -182093.51534766142, -179435.64706273642, -178790.1063311227, 0.044, 0.9420000000000001, 0.338, 192.0, 1.0, 96.0, 29.0, 112.0, 10.0, 144.0, 0.0, 0.0, 0.0, 1.7426781683661077E9, 0.0, 2025-03-22 18:16:08.366
12.0, -179917.39421098164, -65867.64047952181, -178128.2488260566, -178174.74045452362, -177734.16521956507, -181717.93898557892, -179007.56645292838, -178098.6774681422, 0.044, 0.9420000000000001, 0.338, 192.0, 0.0, 0.0, 0.0, 0.0, 0.0, 0.0, 0.0, 0.0, 0.0, 1.7426781683661208E9, 0.0, 2025-03-22 18:16:08.366
13.0, -180439.8885893689, -66347.62183995507, -178178.7637685256, -178332.27554944463, -178059.85248802335, -181567.7129110948, -178820.23648264844, -177720.5530071918, 0.044, 0.9420000000000001, 0.338, 192.0, 0.0, 0.0, 0.0, 0.0, 0.0, 0.0, 0.0, 0.0, 0.0, 1.7426781683661332E9, 0.0, 2025-03-22 18:16:08.366
14.0, -178768.38043551214, -64354.203862452974, -178010.87981592177, -178101.40438096577, -178126.72890743363, -181922.50215083387, -179148.42714648572, -178305.3864008649, 0.044, 0.9420000000000001, 0.338, 192.0, 0.0, 0.0, 0.0, 0.0, 0.0, 0.0, 0.0, 0.0, 0.0, 1.7426781683661456E9, 0.0, 2025-03-22 18:16:08.366
15.0, -178018.6135195033, -63630.856708390325, -177978.08980680583, -177944.8527628008, -177818.29718569486, -182147.2936448209, -179327.26345387264, -178838.65432007963, 0.044, 0.9420000000000001, 0.338, 192.0, 0.0, 0.0, 0.0, 0.0, 0.0, 0.0, 0.0, 0.0, 0.0, 1.7426781683661575E9, 0.0, 2025-03-22 18:16:08.366
16.0, -179604.46978860736, -65701.25409379651, -178111.2391485261, -178144.99028265363, -177718.94368159102, -181824.2215304639, -178922.54041702038, -178267.29902831305, 0.044, 0.9420000000000001, 0.338, 192.0, 0.0, 0.0, 0.0, 0.0, 0.0, 0.0, 0.0, 0.0, 0.0, 1.7426781683661697E9, 0.0, 2025-03-22 18:16:08.366
17.0, -180573.84259388957, -66732.38476900873, -178201.38373391435, -178296.0880751715, -178029.99055743107, -181575.06663502057, -178369.4465004738, -177714.0039460664, 0.044, 0.9420000000000001, 0.338, 192.0, 0.0, 0.0, 0.0, 0.0, 0.0, 0.0, 0.0, 0.0, 0.0, 1.742678168366182E9, 0.0, 2025-03-22 18:16:08.366
18.0, -179071.04540718143, -64895.80898234952, -178032.44924932116, -178079.72318884413, -178157.7978322265, -181854.48579245637, -178721.2406064559, -178145.97375940965, 0.044, 0.9420000000000001, 0.338, 192.0, 0.0, 0.0, 0.0, 0.0, 0.0, 0.0, 0.0, 0.0, 0.0, 1.7426781683661942E9, 0.0, 2025-03-22 18:16:08.366
19.0, -177954.82164082787, -63673.23561587759, -177982.33663825234, -177861.05607283785, -177870.95789563155, -182138.19648482758, -179543.44952624437, -178787.53588051032, 0.044, 0.9420000000000001, 0.338, 192.0, 0.0, 0.0, 0.0, 0.0, 0.0, 0.0, 0.0, 0.0, 0.0, 1.7426781683662062E9, 0.0, 2025-03-22 18:16:08.366
20.0, -179244.76316508808, -65448.90289889609, -178082.11482550084, -178011.68447872216, -177694.31205920127, -181887.11933936112, -179391.21179475926, -178381.3599802685, 0.044, 0.9420000000000001, 0.338, 192.0, 0.0, 0.0, 0.0, 0.0, 0.0, 0.0, 0.0, 0.0, 0.0, 1.7426781683662183E9, 0.0, 2025-03-22 18:16:08.366
21.0, -180585.9795911288, -66962.96536480969, -178211.75494334163, -178216.89584456634, -177977.68747540563, -181573.14438499743, -179030.52169448396, -177727.30323401728, 0.044, 0.9420000000000001, 0.336, 192.0, 1.0, 96.0, 29.0, 112.0, 10.0, 128.0, 0.0, 0.0, 0.0, 1.7426781683662305E9, 0.0, 2025-03-22 18:16:08.366
22.0, -179397.76085588467, -65465.554948515295, -178081.86895631184, -178072.74944457406, -178203.4624461487, -181797.33238188416, -179231.03919399253, -178023.68736549467, 0.044, 0.9420000000000001, 0.336, 192.0, 0.0, 0.0, 0.0, 0.0, 0.0, 0.0, 0.0, 0.0, 0.0, 1.7426781683662431E9, 0.0, 2025-03-22 18:16:08.366
23.0, -178004.39781002974, -63877.08352530999, -177982.73896965254, -177835.99976730344, -177985.59999294282, -182151.11579312276, -179550.51267749222, -178752.22012427094, 0.044, 0.9420000000000001, 0.336, 192.0, 0.0, 0.0, 0.0, 0.0, 0.0, 0.0, 0.0, 0.0, 0.0, 1.7426781683662553E9, 0.0, 2025-03-22 18:16:08.366
24.0, -178926.9213589336, -65230.90633522348, -178067.04974973795, -177928.29012015942, -177714.22746351094, -181996.41936974757, -179335.7794685101, -178547.03111017123, 0.044, 0.9420000000000001, 0.336, 192.0, 0.0, 0.0, 0.0, 0.0, 0.0, 0.0, 0.0, 0.0, 0.0, 1.7426781683662674E9, 0.0, 2025-03-22 18:16:08.366
25.0, -180536.9175120494, -67116.67831142883, -178224.40603070334, -178165.77740499706, -177899.70223900108, -181634.90225492744, -178924.64148099918, -177816.53139788288, 0.044, 0.9420000000000001, 0.336, 192.0, 0.0, 0.0, 0.0, 0.0, 0.0, 0.0, 0.0, 0.0, 0.0, 1.7426781683662794E9, 0.0, 2025-03-22 18:16:08.366
26.0, -179747.85622928815, -66057.76441785865, -178135.42373602674, -178082.29363945647, -178184.4634633617, -181763.98357915683, -179029.94054912814, -177934.01216673997, 0.044, 0.9420000000000001, 0.336, 192.0, 0.0, 0.0, 0.0, 0.0, 0.0, 0.0, 0.0, 0.0, 0.0, 1.7426781683662982E9, 0.0, 2025-03-22 18:16:08.366
27.0, -178145.43731754273, -64195.68529077593, -177997.3123070374, -177828.1319532552, -178032.9633394436, -182150.4452407891, -179385.73561736773, -178684.29317287126, 0.044, 0.9420000000000001, 0.336, 192.0, 0.0, 0.0, 0.0, 0.0, 0.0, 0.0, 0.0, 0.0, 0.0, 1.7426781683663104E9, 0.0, 2025-03-22 18:16:08.366
28.0, -178634.89581762505, -65020.5987716435, -178047.6707872952, -177851.86950586672, -177721.04474556982, -182104.06537104433, -179281.35297076142, -178700.83346376818, 0.044, 0.9420000000000001, 0.336, 192.0, 0.0, 0.0, 0.0, 0.0, 0.0, 0.0, 0.0, 0.0, 0.0, 1.7426781683663225E9, 0.0, 2025-03-22 18:16:08.366
29.0, -180399.6778010938, -67155.16801538087, -178220.33801321246, -178104.66773565623, -177829.9647963005, -181717.93898557892, -178844.19755270454, -177937.29787317492, 0.044, 0.9420000000000001, 0.336, 192.0, 0.0, 0.0, 0.0, 0.0, 0.0, 0.0, 0.0, 0.0, 0.0, 1.742678168366335E9, 0.0, 2025-03-22 18:16:08.366
30.0, -180083.69118972914, -66637.83688996278, -178183.07765520547, -178090.74259886058, -178152.16519262377, -181742.45884924638, -178841.29182592535, -177856.47396522452, 0.044, 0.9420000000000001, 0.336, 192.0, 0.0, 0.0, 0.0, 0.0, 0.0, 0.0, 0.0, 0.0, 0.0, 1.7426781683663468E9, 0.0, 2025-03-22 18:16:08.366
31.0, -178370.094701063, -64625.01759827347, -178020.04403114846, -177800.16992094158, -178076.03515100898, -182134.77666792594, -179204.37356285736, -178581.63161058805, 0.046, 0.9500000000000001, 0.342, 192.0, 1.0, 112.0, 29.0, 176.0, 10.0, 176.0, 0.0, 0.0, 0.0, 1.7426781683663592E9, 0.0, 2025-03-22 18:16:08.366
32.0, -178375.9508581103, -64848.57974631545, -178022.72624048308, -177770.88913570513, -177741.4965917464, -182184.01756096096, -179198.15977789878, -178800.52224403888, 0.046, 0.9500000000000001, 0.342, 192.0, 0.0, 0.0, 0.0, 0.0, 0.0, 0.0, 0.0, 0.0, 0.0, 1.742678168366372E9, 0.0, 2025-03-22 18:16:08.366
33.0, -180151.99812078456, -67065.09048522598, -178177.08738769143, -178252.01043510562, -177804.55086285484, -181786.49178582334, -178644.97645437438, -178054.9351042432, 0.046, 0.9500000000000001, 0.342, 192.0, 0.0, 0.0, 0.0, 0.0, 0.0, 0.0, 0.0, 0.0, 0.0, 1.742678168366384E9, 0.0, 2025-03-22 18:16:08.366
34.0, -180327.30285254752, -67127.69772144529, -178178.42849235877, -178326.17352320833, -178136.38486103833, -181688.97112476482, -178271.14352835936, -177774.1077869067, 0.046, 0.9500000000000001, 0.342, 192.0, 0.0, 0.0, 0.0, 0.0, 0.0, 0.0, 0.0, 0.0, 0.0, 1.742678168366396E9, 0.0, 2025-03-22 18:16:08.366
35.0, -178581.18457569892, -65058.08264709505, -178010.20926358813, -178055.47154611012, -178119.91162537475, -182043.80506799283, -178942.746394008, -178401.3200880671, 0.046, 0.9500000000000001, 0.342, 192.0, 0.0, 0.0, 0.0, 0.0, 0.0, 0.0, 0.0, 0.0, 0.0, 1.7426781683664083E9, 0.0, 2025-03-22 18:16:08.366
36.0, -178127.33240453393, -64684.40618329123, -178007.43764727566, -177925.87613175824, -177790.89394699264, -182195.59576458883, -179571.09863413556, -178815.38615410164, 0.046, 0.9500000000000001, 0.342, 192.0, 0.0, 0.0, 0.0, 0.0, 0.0, 0.0, 0.0, 0.0, 0.0, 1.7426781683664205E9, 0.0, 2025-03-22 18:16:08.366
37.0, -179818.77831444482, -66861.75666591605, -178142.30807331897, -178147.00193965458, -177787.54118532434, -181835.28564396926, -179226.83706603493, -178162.55875379549, 0.046, 0.9500000000000001, 0.342, 192.0, 0.0, 0.0, 0.0, 0.0, 0.0, 0.0, 0.0, 0.0, 0.0, 1.742678168366433E9, 0.0, 2025-03-22 18:16:08.366
38.0, -180504.5074825892, -67540.0427031568, -178208.60334737343, -178268.10369111344, -178130.08166910193, -181649.76616499023, -179000.41389470268, -177731.48301023044, 0.046, 0.9500000000000001, 0.342, 192.0, 0.0, 0.0, 0.0, 0.0, 0.0, 0.0, 0.0, 0.0, 0.0, 1.7426781683664448E9, 0.0, 2025-03-22 18:16:08.366
39.0, -178880.0273990664, -65585.89674066266, -178048.2295809066, -178048.2742843955, -178224.0707545365, -181989.06564582177, -179313.6735932438, -178273.64692373836, 0.046, 0.9500000000000001, 0.342, 192.0, 0.0, 0.0, 0.0, 0.0, 0.0, 0.0, 0.0, 0.0, 0.0, 1.742678168366457E9, 0.0, 2025-03-22 18:16:08.366
40.0, -177990.89735637873, -64682.46158152361, -178012.84676943385, -177873.32718054383, -177920.53406483342, -182241.5733029334, -179523.8246946126, -178855.0605005098, 0.046, 0.9500000000000001, 0.342, 192.0, 0.0, 0.0, 0.0, 0.0, 0.0, 0.0, 0.0, 0.0, 0.0, 1.7426781683664691E9, 0.0, 2025-03-22 18:16:08.366
41.0, -179499.7295140898, -66675.96896600354, -178137.9494831502, -178061.46181362413, -177766.23997285843, -181942.685776077, -179169.48248976262, -178339.74103209272, 0.044, 0.9480000000000001, 0.338, 192.0, 1.0, 96.0, 29.0, 160.0, 10.0, 144.0, 0.0, 0.0, 0.0, 1.7426781683664875E9, 0.0, 2025-03-22 18:16:08.366
42.0, -180619.88718746748, -67897.55885571943, -178249.2164670487, -178238.95701634372, -178052.61052281983, -181673.7719385352, -178855.3063696988, -177755.82405994227, 0.044, 0.9480000000000001, 0.338, 192.0, 0.0, 0.0, 0.0, 0.0, 0.0, 0.0, 0.0, 0.0, 0.0, 1.7426781683665001E9, 0.0, 2025-03-22 18:16:08.366
43.0, -179225.54066485653, -66175.11107624901, -178099.16920652022, -178061.35005490185, -178230.3739464729, -181952.20761921498, -179108.19400646616, -178158.13310839335, 0.044, 0.9480000000000001, 0.338, 192.0, 0.0, 0.0, 0.0, 0.0, 0.0, 0.0, 0.0, 0.0, 0.0, 1.7426781683665123E9, 0.0, 2025-03-22 18:16:08.366
44.0, -178011.34920255534, -64818.8519261899, -178012.08681012236, -177846.34862498625, -177974.7146933931, -182277.53725976197, -179396.4868064507, -178852.60180861971, 0.044, 0.9480000000000001, 0.338, 192.0, 0.0, 0.0, 0.0, 0.0, 0.0, 0.0, 0.0, 0.0, 0.0, 1.7426781683665247E9, 0.0, 2025-03-22 18:16:08.366
45.0, -179192.72830399615, -66471.5399112153, -178118.2352445406, -177982.18017604115, -177746.5927894822, -182060.09948970075, -179116.39709668126, -178514.4422667554, 0.044, 0.9480000000000001, 0.338, 192.0, 0.0, 0.0, 0.0, 0.0, 0.0, 0.0, 0.0, 0.0, 0.0, 1.7426781683665369E9, 0.0, 2025-03-22 18:16:08.366
46.0, -180642.99889123428, -68134.01796031212, -178259.56532473152, -178197.1145507234, -177975.63111491574, -181722.47638970334, -178522.17597033692, -177819.39242117316, 0.044, 0.9480000000000001, 0.338, 192.0, 0.0, 0.0, 0.0, 0.0, 0.0, 0.0, 0.0, 0.0, 0.0, 1.7426781683665488E9, 0.0, 2025-03-22 18:16:08.366
47.0, -179561.80030844215, -66754.42358904166, -178126.32657603343, -178052.76698503102, -178201.45078914773, -181897.80347321075, -178595.6014508726, -178031.8234004764, 0.044, 0.9480000000000001, 0.338, 192.0, 0.0, 0.0, 0.0, 0.0, 0.0, 0.0, 0.0, 0.0, 0.0, 1.7426781683665612E9, 0.0, 2025-03-22 18:16:08.366
48.0, -178054.3763106318, -65023.169222255856, -178022.88270269427, -177732.13121081964, -177977.016923072, -182244.34491924584, -179461.79860374914, -178756.31049350626, 0.044, 0.9480000000000001, 0.338, 192.0, 0.0, 0.0, 0.0, 0.0, 0.0, 0.0, 0.0, 0.0, 0.0, 1.742678168366573E9, 0.0, 2025-03-22 18:16:08.366
49.0, -178814.78265700134, -66184.23058798678, -178075.11872948633, -177915.9519572201, -177716.01560306735, -182103.50657743294, -179526.68571790287, -178606.19617774442, 0.044, 0.9480000000000001, 0.338, 192.0, 0.0, 0.0, 0.0, 0.0, 0.0, 0.0, 0.0, 0.0, 0.0, 1.7426781683665855E9, 0.0, 2025-03-22 18:16:08.366
50.0, -180491.76698824967, -68174.20639684277, -178221.58971090196, -178338.2434652142, -177944.8527628008, -181718.36366872356, -179093.28539291446, -177850.0813663103, 0.044, 0.9480000000000001, 0.338, 192.0, 0.0, 0.0, 0.0, 0.0, 0.0, 0.0, 0.0, 0.0, 0.0, 1.7426781683665977E9, 0.0, 2025-03-22 18:16:08.366
51.0, -179861.00075972092, -67298.01801419473, -178149.28181758904, -178286.49917680016, -178249.4176327488, -181814.23030069238, -179157.70312043466, -177904.12788440322, 0.042, 0.9440000000000001, 0.332, 192.0, 1.0, 80.0, 29.0, 128.0, 10.0, 96.0, 0.0, 0.0, 0.0, 1.7426781683666098E9, 0.0, 2025-03-22 18:16:08.366
52.0, -178206.83755956145, -65365.08385718869, -178025.2072841176, -178030.63875802027, -178118.52581721853, -182211.510206641, -179521.07543004458, -178655.34766380163, 0.042, 0.9440000000000001, 0.332, 192.0, 0.0, 0.0, 0.0, 0.0, 0.0, 0.0, 0.0, 0.0, 0.0, 1.7426781683666224E9, 0.0, 2025-03-22 18:16:08.366
53.0, -178530.9378541634, -65989.99392867017, -178068.56966836093, -178028.2247696191, -177794.24670866094, -182200.82607279136, -179456.56829554657, -178748.73325213592, 0.042, 0.9440000000000001, 0.332, 192.0, 0.0, 0.0, 0.0, 0.0, 0.0, 0.0, 0.0, 0.0, 0.0, 1.7426781683666346E9, 0.0, 2025-03-22 18:16:08.366
54.0, -180322.34076527844, -68175.97218465473, -178234.28550175257, -178278.56430751854, -177882.5808027483, -181806.38483838856, -179015.76954314345, -177988.55042321092, 0.042, 0.9440000000000001, 0.332, 192.0, 0.0, 0.0, 0.0, 0.0, 0.0, 0.0, 0.0, 0.0, 0.0, 1.7426781683666468E9, 0.0, 2025-03-22 18:16:08.366
55.0, -180182.79882464395, -67867.7192768716, -178211.28555670806, -178288.06379891204, -178212.82782707547, -181792.57146031517, -178968.54030710942, -177840.40306096114, 0.042, 0.9440000000000001, 0.332, 192.0, 0.0, 0.0, 0.0, 0.0, 0.0, 0.0, 0.0, 0.0, 0.0, 1.742678168366659E9, 0.0, 2025-03-22 18:16:08.366
56.0, -178447.1635159449, -65825.19451680119, -178044.8768192383, -178033.49978131056, -178156.7473002371, -182187.750302285, -179329.14100040687, -178548.12634564954, 0.042, 0.9440000000000001, 0.332, 192.0, 0.0, 0.0, 0.0, 0.0, 0.0, 0.0, 0.0, 0.0, 0.0, 1.742678168366677E9, 0.0, 2025-03-22 18:16:08.366
57.0, -178300.80429325157, -65847.23333683412, -178049.34716812934, -177961.43775718662, -177820.3758979292, -182287.5284895335, -179379.27596322013, -178857.13921274416, 0.042, 0.9440000000000001, 0.332, 192.0, 0.0, 0.0, 0.0, 0.0, 0.0, 0.0, 0.0, 0.0, 0.0, 1.7426781683666892E9, 0.0, 2025-03-22 18:16:08.366
58.0, -180078.52793675996, -68084.66530855482, -178214.88418756536, -178203.30598393752, -177820.88998805167, -181905.31365934774, -178950.994187712, -178141.61516924086, 0.042, 0.9440000000000001, 0.332, 192.0, 0.0, 0.0, 0.0, 0.0, 0.0, 0.0, 0.0, 0.0, 0.0, 1.7426781683667014E9, 0.0, 2025-03-22 18:16:08.366
59.0, -180454.66309245385, -68389.3419372251, -178248.2329902927, -178283.2805255986, -178156.92611419276, -181785.3071433672, -178790.86629043418, -177806.54016811136, 0.042, 0.9440000000000001, 0.332, 192.0, 0.0, 0.0, 0.0, 0.0, 0.0, 0.0, 0.0, 0.0, 0.0, 1.7426781683667135E9, 0.0, 2025-03-22 18:16:08.366
60.0, -178748.66619690254, -66357.90364240452, -178076.16926147573, -178048.2742843955, -178187.27978316305, -182162.0010926725, -179131.7303933776, -178435.09357393906, 0.042, 0.9440000000000001, 0.332, 192.0, 0.0, 0.0, 0.0, 0.0, 0.0, 0.0, 0.0, 0.0, 0.0, 1.7426781683667257E9, 0.0, 2025-03-22 18:16:08.366
61.0, -178154.17684962475, -65796.36076645384, -178046.59790356134, -177912.5544920629, -177862.66539843864, -182363.01033055907, -179287.5220522311, -178930.40823106866, 0.04, 0.9380000000000001, 0.33, 192.0, 1.0, 64.0, 29.0, 80.0, 10.0, 80.0, 0.0, 0.0, 0.0, 1.742678168366738E9, 0.0, 2025-03-22 18:16:08.366
62.0, -179801.03102934733, -67934.93097244871, -178194.1641204553, -178126.3489277779, -177774.37600784018, -182018.39113454716, -178843.3034829263, -178314.081229458, 0.04, 0.9380000000000001, 0.33, 192.0, 0.0, 0.0, 0.0, 0.0, 0.0, 0.0, 0.0, 0.0, 0.0, 1.7426781683667507E9, 0.0, 2025-03-22 18:16:08.366
63.0, -180638.46148710986, -68809.19710507359, -178266.31555155703, -178257.8889438974, -178081.37721793383, -181792.30323938173, -178294.54580480407, -177790.29044989235, 0.04, 0.9380000000000001, 0.33, 192.0, 0.0, 0.0, 0.0, 0.0, 0.0, 0.0, 0.0, 0.0, 0.0, 1.742678168366763E9, 0.0, 2025-03-22 18:16:08.366
64.0, -179056.33795932986, -66893.31732908695, -178086.07108426944, -178030.95168244265, -178171.72296902217, -182095.90698431814, -178759.43973773002, -178267.20962133523, 0.04, 0.9380000000000001, 0.33, 192.0, 0.0, 0.0, 0.0, 0.0, 0.0, 0.0, 0.0, 0.0, 0.0, 1.7426781683667753E9, 0.0, 2025-03-22 18:16:08.366
65.0, -178037.0760604234, -65789.83405707289, -178037.59015054588, -177826.65673812112, -177864.02885485042, -182362.65270264779, -179566.3824160555, -178889.88451837117, 0.04, 0.9380000000000001, 0.33, 192.0, 0.0, 0.0, 0.0, 0.0, 0.0, 0.0, 0.0, 0.0, 0.0, 1.7426781683667874E9, 0.0, 2025-03-22 18:16:08.366
66.0, -179430.48380976723, -67668.31936458581, -178144.87852393134, -177987.38813249924, -177753.47712677447, -182074.33755091878, -179376.19142248528, -178419.58146328706, 0.04, 0.9380000000000001, 0.33, 192.0, 0.0, 0.0, 0.0, 0.0, 0.0, 0.0, 0.0, 0.0, 0.0, 1.7426781683667996E9, 0.0, 2025-03-22 18:16:08.366
67.0, -180683.27673474274, -69066.37627677635, -178264.25919106713, -178177.44501560272, -178077.48801439858, -181774.37714032855, -179027.21363630457, -177779.22633638696, 0.04, 0.9380000000000001, 0.33, 192.0, 0.0, 0.0, 0.0, 0.0, 0.0, 0.0, 0.0, 0.0, 0.0, 1.742678168366812E9, 0.0, 2025-03-22 18:16:08.366
68.0, -179387.97079181325, -67458.92822252848, -178125.23134055512, -178017.85356019184, -178275.23389759468, -182034.88672195515, -179247.73594710065, -178128.6958609457, 0.04, 0.9380000000000001, 0.33, 192.0, 0.0, 0.0, 0.0, 0.0, 0.0, 0.0, 0.0, 0.0, 0.0, 1.7426781683668244E9, 0.0, 2025-03-22 18:16:08.366
69.0, -178031.08579290938, -65948.08440781647, -178042.70870002612, -177733.94170212053, -178022.05568814944, -182380.6011534454, -179554.3348257941, -178857.3627301887, 0.04, 0.9380000000000001, 0.33, 192.0, 0.0, 0.0, 0.0, 0.0, 0.0, 0.0, 0.0, 0.0, 0.0, 1.7426781683668363E9, 0.0, 2025-03-22 18:16:08.366
70.0, -179084.2329364101, -67436.97880947338, -178124.4490294992, -178009.3151938099, -177763.714225735, -182175.9038777237, -179304.41997103931, -178576.96009599688, 0.04, 0.9380000000000001, 0.33, 192.0, 0.0, 0.0, 0.0, 0.0, 0.0, 0.0, 0.0, 0.0, 0.0, 1.7426781683668487E9, 0.0, 2025-03-22 18:16:08.366
71.0, -180645.4799348688, -69242.03863645061, -178269.19892659175, -178387.6631722049, -177982.9624870971, -181815.7725710598, -178896.0759515853, -177843.1299737847, 0.042, 0.9380000000000001, 0.328, 192.0, 1.0, 80.0, 29.0, 80.0, 10.0, 64.0, 0.0, 0.0, 0.0, 1.7426781683668692E9, 0.0, 2025-03-22 18:16:08.366
72.0, -179719.20129289644, -68043.09106386793, -178162.4469950732, -178290.74600824667, -178245.23785653568, -181983.18713703004, -179022.74328741353, -178013.80789444543, 0.042, 0.9380000000000001, 0.328, 192.0, 0.0, 0.0, 0.0, 0.0, 0.0, 0.0, 0.0, 0.0, 0.0, 1.742678168366882E9, 0.0, 2025-03-22 18:16:08.366
73.0, -178155.2944368475, -66236.19839384538, -178045.50266808303, -178043.08867968188, -178056.3879676328, -182372.21924927464, -179372.79395732807, -178781.67972346305, 0.042, 0.9380000000000001, 0.328, 192.0, 0.0, 0.0, 0.0, 0.0, 0.0, 0.0, 0.0, 0.0, 0.0, 1.7426781683668947E9, 0.0, 2025-03-22 18:16:08.366
74.0, -178785.43481653152, -67227.3641499715, -178105.9864885791, -178085.31112495795, -177755.62289424217, -182284.68981798767, -179239.66696735227, -178732.17060949453, 0.042, 0.9380000000000001, 0.328, 192.0, 0.0, 0.0, 0.0, 0.0, 0.0, 0.0, 0.0, 0.0, 0.0, 1.7426781683669074E9, 0.0, 2025-03-22 18:16:08.366
75.0, -180532.17894222485, -69315.82174489758, -178272.95401966025, -178330.33094767702, -177903.36792509173, -181889.6897899735, -178651.8160881777, -177954.91104780568, 0.042, 0.9380000000000001, 0.328, 192.0, 0.0, 0.0, 0.0, 0.0, 0.0, 0.0, 0.0, 0.0, 0.0, 1.7426781683669195E9, 0.0, 2025-03-22 18:16:08.366
76.0, -180047.23549452252, -68614.02167248985, -178199.32737342446, -178280.91124068634, -178200.73553332515, -181938.37188939715, -178476.10902501454, -177916.6001578093, 0.042, 0.9380000000000001, 0.328, 192.0, 0.0, 0.0, 0.0, 0.0, 0.0, 0.0, 0.0, 0.0, 0.0, 1.7426781683669322E9, 0.0, 2025-03-22 18:16:08.366
77.0, -178322.10550571748, -66595.54738945335, -178049.45892685163, -178004.64367921875, -178062.60175259135, -182323.49244636207, -179289.6231162099, -178644.88704739657, 0.042, 0.9380000000000001, 0.328, 192.0, 0.0, 0.0, 0.0, 0.0, 0.0, 0.0, 0.0, 0.0, 0.0, 1.7426781683669446E9, 0.0, 2025-03-22 18:16:08.366
78.0, -178472.7786150907, -66993.58725471345, -178078.8291190659, -177966.3551409668, -177750.0573098728, -182338.71398433615, -179653.53186768675, -178808.72533425395, 0.042, 0.9380000000000001, 0.328, 192.0, 0.0, 0.0, 0.0, 0.0, 0.0, 0.0, 0.0, 0.0, 0.0, 1.7426781683669567E9, 0.0, 2025-03-22 18:16:08.366
79.0, -180278.46429091267, -69214.61304600394, -178234.53137094158, -178207.35164968393, -177898.65170701168, -181931.66636606056, -179226.43473463473, -178043.49101108208, 0.042, 0.9380000000000001, 0.328, 192.0, 0.0, 0.0, 0.0, 0.0, 0.0, 0.0, 0.0, 0.0, 0.0, 1.7426781683669727E9, 0.0, 2025-03-22 18:16:08.366
80.0, -180319.03270709905, -69125.92132400529, -178227.19999876025, -178242.2203710342, -178246.9812926032, -181881.03966486928, -179130.9704340661, -177821.94052004107, 0.042, 0.9380000000000001, 0.328, 192.0, 0.0, 0.0, 0.0, 0.0, 0.0, 0.0, 0.0, 0.0, 0.0, 1.7426781683669853E9, 0.0, 2025-03-22 18:16:08.366
81.0, -178571.68508430544, -67065.04578173706, -178072.81649980744, -177995.59122271434, -178211.77729508607, -182280.80061445246, -179486.34081916104, -178514.71048768886, 0.058, 0.9400000000000001, 0.34400000000000003, 192.0, 1.0, 208.0, 29.0, 96.0, 10.0, 192.0, 0.0, 0.0, 0.0, 1.742678168366999E9, 0.0, 2025-03-22 18:16:08.366
82.0, -178259.5206212426, -66867.56811947442, -178077.35390393186, -177898.2940791004, -177873.0813113548, -182416.92273818527, -179578.54176503918, -178899.22754755348, 0.058, 0.9400000000000001, 0.34400000000000003, 192.0, 0.0, 0.0, 0.0, 0.0, 0.0, 0.0, 0.0, 0.0, 0.0, 1.7426781683670115E9, 0.0, 2025-03-22 18:16:08.367
83.0, -180014.22196796205, -69093.33248058945, -178232.67617615178, -178130.61811096885, -177849.96960758802, -182037.05484116732, -179160.56414372494, -178206.30111769453, 0.058, 0.9400000000000001, 0.34400000000000003, 192.0, 0.0, 0.0, 0.0, 0.0, 0.0, 0.0, 0.0, 0.0, 0.0, 1.7426781683670235E9, 0.0, 2025-03-22 18:16:08.367
84.0, -180567.0253118307, -69615.7374519989, -178284.9792581772, -178235.4701442087, -178187.12332095188, -181883.45365327047, -178960.44897561657, -177805.48963612196, 0.058, 0.9400000000000001, 0.34400000000000003, 192.0, 0.0, 0.0, 0.0, 0.0, 0.0, 0.0, 0.0, 0.0, 0.0, 1.742678168367036E9, 0.0, 2025-03-22 18:16:08.367
85.0, -178886.66586716962, -67614.94339882654, -178111.70853515968, -178012.44443803365, -178241.572170445, -182251.9668641051, -179286.09154058594, -178399.4201897884, 0.058, 0.9400000000000001, 0.34400000000000003, 192.0, 0.0, 0.0, 0.0, 0.0, 0.0, 0.0, 0.0, 0.0, 0.0, 1.7426781683670485E9, 0.0, 2025-03-22 18:16:08.367
86.0, -178111.66383167074, -66849.88788961028, -178071.34128467337, -177856.8315931358, -177920.48936134452, -182487.3754367084, -179479.67999931338, -178959.37609188273, 0.058, 0.9400000000000001, 0.34400000000000003, 192.0, 0.0, 0.0, 0.0, 0.0, 0.0, 0.0, 0.0, 0.0, 0.0, 1.7426781683670688E9, 0.0, 2025-03-22 18:16:08.367
87.0, -179709.88061545856, -68920.79936513894, -178214.43715267626, -178055.1362699433, -177805.98137449997, -182157.2401711035, -179109.98214602258, -178388.4007797719, 0.058, 0.9400000000000001, 0.34400000000000003, 192.0, 0.0, 0.0, 0.0, 0.0, 0.0, 0.0, 0.0, 0.0, 0.0, 1.7426781683670814E9, 0.0, 2025-03-22 18:16:08.367
88.0, -180715.84322641412, -70002.17676188669, -178310.0802672005, -178215.62179513238, -178115.77655265052, -181905.20190062546, -178811.8098749888, -177818.1630752281, 0.058, 0.9400000000000001, 0.34400000000000003, 192.0, 0.0, 0.0, 0.0, 0.0, 0.0, 0.0, 0.0, 0.0, 0.0, 1.742678168367094E9, 0.0, 2025-03-22 18:16:08.367
89.0, -179225.6524235788, -68190.5455220396, -178148.27598908855, -178026.4589818071, -178255.65376945183, -182216.02525902097, -179079.0696834409, -178275.85974643944, 0.058, 0.9400000000000001, 0.34400000000000003, 192.0, 0.0, 0.0, 0.0, 0.0, 0.0, 0.0, 0.0, 0.0, 0.0, 1.742678168367106E9, 0.0, 2025-03-22 18:16:08.367
90.0, -178069.75431081705, -66937.03734124152, -178067.02739799352, -177769.39156882663, -177966.57865841137, -182527.11683834993, -179348.69877680528, -178958.12439419323, 0.058, 0.9400000000000001, 0.34400000000000003, 192.0, 0.0, 0.0, 0.0, 0.0, 0.0, 0.0, 0.0, 0.0, 0.0, 1.7426781683671188E9, 0.0, 2025-03-22 18:16:08.367
91.0, -179366.20019271376, -68691.40341179412, -178168.4596143317, -178072.81649980744, -177794.33611563875, -182255.78901240695, -179016.61890943276, -178541.97961592433, 0.054, 0.9480000000000001, 0.34800000000000003, 192.0, 1.0, 176.0, 29.0, 160.0, 10.0, 224.0, 0.0, 0.0, 0.0, 1.7426781683671315E9, 0.0, 2025-03-22 18:16:08.367
92.0, -180736.29507259073, -70238.41234903483, -178292.824720481, -178411.84775970553, -178093.69302912868, -181920.26697638835, -178378.0072186002, -177845.6780726526, 0.054, 0.9480000000000001, 0.34800000000000003, 192.0, 0.0, 0.0, 0.0, 0.0, 0.0, 0.0, 0.0, 0.0, 0.0, 1.7426781683671443E9, 0.0, 2025-03-22 18:16:08.367
93.0, -179529.3232237486, -68730.42955761308, -178147.2478088436, -178255.1843828183, -178290.9248222023, -182131.66977544664, -178587.62187810207, -178114.92718636122, 0.054, 0.9480000000000001, 0.34800000000000003, 192.0, 0.0, 0.0, 0.0, 0.0, 0.0, 0.0, 0.0, 0.0, 0.0, 1.7426781683671567E9, 0.0, 2025-03-22 18:16:08.367
94.0, -178086.54047090298, -67083.37421219042, -178071.98948526257, -178001.08975185035, -178035.55614180042, -182479.14999474885, -179467.47594684077, -178847.3044451838, 0.054, 0.9480000000000001, 0.34800000000000003, 192.0, 0.0, 0.0, 0.0, 0.0, 0.0, 0.0, 0.0, 0.0, 0.0, 1.742678168367169E9, 0.0, 2025-03-22 18:16:08.367
95.0, -178999.0504382909, -68412.58775145862, -178148.41009955527, -178083.25476446806, -177766.17291762508, -182314.10471369085, -179525.27755800218, -178647.41279452, 0.054, 0.9480000000000001, 0.34800000000000003, 192.0, 0.0, 0.0, 0.0, 0.0, 0.0, 0.0, 0.0, 0.0, 0.0, 1.7426781683671815E9, 0.0, 2025-03-22 18:16:08.367
96.0, -180638.4391353654, -70335.28480950413, -178299.3290781175, -178317.2328254262, -177967.53978342292, -181936.96372949646, -179107.23288145458, -177890.225099352, 0.054, 0.9480000000000001, 0.34800000000000003, 192.0, 0.0, 0.0, 0.0, 0.0, 0.0, 0.0, 0.0, 0.0, 0.0, 1.742678168367194E9, 0.0, 2025-03-22 18:16:08.367
97.0, -179860.19609692052, -69304.5564656921, -178206.92696653926, -178240.4769349667, -178248.61296994842, -182072.46000438454, -179196.97513544266, -177996.6641064482, 0.054, 0.9480000000000001, 0.34800000000000003, 192.0, 0.0, 0.0, 0.0, 0.0, 0.0, 0.0, 0.0, 0.0, 0.0, 1.742678168367206E9, 0.0, 2025-03-22 18:16:08.367
98.0, -178233.90552209681, -67415.63289351856, -178077.06333125394, -177989.7574174115, -178078.96322953264, -182474.63494236887, -179555.5418199947, -178768.8945256346, 0.054, 0.9480000000000001, 0.34800000000000003, 192.0, 0.0, 0.0, 0.0, 0.0, 0.0, 0.0, 0.0, 0.0, 0.0, 1.7426781683672183E9, 0.0, 2025-03-22 18:16:08.367
99.0, -178708.20953943845, -68210.05859494908, -178129.52287549054, -178004.57662398537, -177788.1670341691, -182420.63312776486, -179459.09404267004, -178794.46492129148, 0.054, 0.9480000000000001, 0.34800000000000003, 192.0, 0.0, 0.0, 0.0, 0.0, 0.0, 0.0, 0.0, 0.0, 0.0, 1.7426781683672304E9, 0.0, 2025-03-22 18:16:08.367
100.0, -180488.07895041455, -70359.98348712725, -178296.1327786604, -178249.48468798219, -177974.513527693, -182016.5135880129, -179015.8589501213, -178012.10916186683, 0.054, 0.9480000000000001, 0.34800000000000003, 192.0, 0.0, 0.0, 0.0, 0.0, 0.0, 0.0, 0.0, 0.0, 0.0, 1.742678168367243E9, 0.0, 2025-03-22 18:16:08.367
101.0, -180191.47130149262, -69876.06821966985, -178255.96669387422, -178239.98519658868, -178306.61574680996, -182042.10633541422, -178997.3517057123, -177924.71384104656, 0.052000000000000005, 0.9500000000000001, 0.34600000000000003, 192.0, 1.0, 160.0, 29.0, 176.0, 10.0, 208.0, 0.0, 0.0, 0.0, 1.7426781683672628E9, 0.0, 2025-03-22 18:16:08.367
102.0, -178456.75241431623, -67844.42875914917, -178096.2411279966, -177988.14809181073, -178213.78895208705, -182452.6184740804, -179361.46162288924, -178665.36124531762, 0.052000000000000005, 0.9500000000000001, 0.34600000000000003, 192.0, 0.0, 0.0, 0.0, 0.0, 0.0, 0.0, 0.0, 0.0, 0.0, 1.7426781683672752E9, 0.0, 2025-03-22 18:16:08.367
103.0, -178463.59204811955, -68047.62846799237, -178111.2391485261, -177936.51556211896, -177876.05409336736, -182517.61734695642, -179381.44408243228, -178915.94665240607, 0.052000000000000005, 0.9500000000000001, 0.34600000000000003, 192.0, 0.0, 0.0, 0.0, 0.0, 0.0, 0.0, 0.0, 0.0, 0.0, 1.7426781683672876E9, 0.0, 2025-03-22 18:16:08.367
104.0, -180266.19318320672, -70291.9894804942, -178279.10074938546, -178177.5120708361, -177913.6050240523, -182115.6882781611, -178872.2713437404, -178167.99022769812, 0.052000000000000005, 0.9500000000000001, 0.34600000000000003, 192.0, 0.0, 0.0, 0.0, 0.0, 0.0, 0.0, 0.0, 0.0, 0.0, 1.742678168844937E9, 0.0, 2025-03-22 18:16:08.844
105.0, -180470.04109263912, -70399.3672608575, -178280.79948196406, -178225.1212865259, -178241.2145425337, -182017.43000953557, -178461.69214984085, -177869.01329386394, 0.052000000000000005, 0.9500000000000001, 0.34600000000000003, 192.0, 0.0, 0.0, 0.0, 0.0, 0.0, 0.0, 0.0, 0.0, 0.0, 1.7426781688450584E9, 0.0, 2025-03-22 18:16:08.845
106.0, -178708.61187083865, -68317.70459624584, -178110.0321543255, -177941.34353892133, -178209.16214098482, -182387.79841516, -179092.54778534744, -178508.94373761938, 0.052000000000000005, 0.9500000000000001, 0.34600000000000003, 192.0, 0.0, 0.0, 0.0, 0.0, 0.0, 0.0, 0.0, 0.0, 0.0, 1.7426781688450735E9, 0.0, 2025-03-22 18:16:08.845
107.0, -178222.2155597467, -67898.81055340893, -178096.71051463016, -177785.73069402346, -177860.56433445984, -182539.09737337797, -179712.58517653766, -178937.15845789414, 0.052000000000000005, 0.9500000000000001, 0.34600000000000003, 192.0, 0.0, 0.0, 0.0, 0.0, 0.0, 0.0, 0.0, 0.0, 0.0, 1.7426781688450863E9, 0.0, 2025-03-22 18:16:08.845
108.0, -179917.10363830373, -70072.80827436547, -178221.7685248576, -178253.0162636061, -177864.36413101724, -182154.11092687977, -179354.9349135083, -178264.30389455604, 0.052000000000000005, 0.9500000000000001, 0.34600000000000003, 192.0, 0.0, 0.0, 0.0, 0.0, 0.0, 0.0, 0.0, 0.0, 0.0, 1.7426781688450987E9, 0.0, 2025-03-22 18:16:08.845
109.0, -180623.10583866906, -70783.81726548877, -178284.71103724375, -178444.9730449883, -178220.87445507938, -181960.76833734137, -179116.3747449368, -177809.64706059065, 0.052000000000000005, 0.9500000000000001, 0.34600000000000003, 192.0, 0.0, 0.0, 0.0, 0.0, 0.0, 0.0, 0.0, 0.0, 0.0, 1.7426781688451111E9, 0.0, 2025-03-22 18:16:08.845
110.0, -178991.2943829649, -68831.05711115088, -178126.8406661559, -178231.558588929, -178301.2289763962, -182313.9929549686, -179422.48188525223, -178358.60590441298, 0.052000000000000005, 0.9500000000000001, 0.34600000000000003, 192.0, 0.0, 0.0, 0.0, 0.0, 0.0, 0.0, 0.0, 0.0, 0.0, 1.7426781688451235E9, 0.0, 2025-03-22 18:16:08.845
111.0, -178084.19353773518, -67896.88830338577, -178102.72313388862, -178057.99729323355, -177987.99162959954, -182578.12351919693, -179641.43957393643, -178962.14770819517, 0.048, 0.9460000000000001, 0.34, 192.0, 1.0, 128.0, 29.0, 144.0, 10.0, 160.0, 0.0, 0.0, 0.0, 1.7426781688451364E9, 0.0, 2025-03-22 18:16:08.845
112.0, -179597.87602399304, -69883.22077789555, -178224.98717605916, -178239.4264029773, -177844.8287063633, -182266.67431195668, -179293.2217470672, -178443.43077462088, 0.048, 0.9460000000000001, 0.34, 192.0, 0.0, 0.0, 0.0, 0.0, 0.0, 0.0, 0.0, 0.0, 0.0, 1.74267816884515E9, 0.0, 2025-03-22 18:16:08.845
113.0, -180736.0715551462, -71131.3421882799, -178334.13074423443, -178415.35698358502, -178143.11273611936, -181987.81394813227, -178970.57431585484, -177838.54786617134, 0.048, 0.9460000000000001, 0.34, 192.0, 0.0, 0.0, 0.0, 0.0, 0.0, 0.0, 0.0, 0.0, 0.0, 1.742678168845162E9, 0.0, 2025-03-22 18:16:08.845
114.0, -179338.95341622276, -69419.08680428109, -178181.87066100488, -178243.7179379127, -178309.3426596335, -182276.48672777257, -179213.06839145048, -178240.7675076446, 0.048, 0.9460000000000001, 0.34, 192.0, 0.0, 0.0, 0.0, 0.0, 0.0, 0.0, 0.0, 0.0, 0.0, 1.7426781688451743E9, 0.0, 2025-03-22 18:16:08.845
115.0, -178101.3820292213, -68033.14453758532, -178105.00301182308, -178028.33652834137, -178038.9312552132, -182613.43927543634, -179506.85972057102, -178955.46453660305, 0.048, 0.9460000000000001, 0.34, 192.0, 0.0, 0.0, 0.0, 0.0, 0.0, 0.0, 0.0, 0.0, 0.0, 1.7426781688452263E9, 0.0, 2025-03-22 18:16:08.845
116.0, -179280.92828761679, -69672.15325500409, -178213.23015847566, -178158.82601247146, -177817.20195021655, -182387.9548773712, -179242.59504587593, -178622.62470991907, 0.048, 0.9460000000000001, 0.34, 192.0, 0.0, 0.0, 0.0, 0.0, 0.0, 0.0, 0.0, 0.0, 0.0, 1.7426781688452387E9, 0.0, 2025-03-22 18:16:08.845
117.0, -180758.19978215694, -71364.58264167102, -178357.8459451015, -178377.4037214999, -178065.06044448144, -182040.80993423582, -178855.39577667665, -177912.5544920629, 0.048, 0.9460000000000001, 0.34, 192.0, 0.0, 0.0, 0.0, 0.0, 0.0, 0.0, 0.0, 0.0, 0.0, 1.742678168845251E9, 0.0, 2025-03-22 18:16:08.845
118.0, -179699.9117374315, -70019.49936383955, -178237.0124145761, -178258.89477239785, -178307.4874648437, -182242.9591110896, -179014.49549370952, -178142.97862565264, 0.048, 0.9460000000000001, 0.34, 192.0, 0.0, 0.0, 0.0, 0.0, 0.0, 0.0, 0.0, 0.0, 0.0, 1.7426781688452635E9, 0.0, 2025-03-22 18:16:08.845
119.0, -178180.2613354041, -68296.33632854657, -178114.7930758945, -178016.93713866916, -178093.9388983177, -182628.03496456565, -179354.30906466354, -178908.63763196918, 0.048, 0.9460000000000001, 0.34, 192.0, 0.0, 0.0, 0.0, 0.0, 0.0, 0.0, 0.0, 0.0, 0.0, 1.7426781688452756E9, 0.0, 2025-03-22 18:16:08.845
120.0, -178955.86686800324, -69457.04006636621, -178187.32448665198, -178078.56089813245, -177832.8705230797, -182500.09357930347, -179178.02085614455, -178782.37262754116, 0.048, 0.9460000000000001, 0.34, 192.0, 0.0, 0.0, 0.0, 0.0, 0.0, 0.0, 0.0, 0.0, 0.0, 1.7426781688452876E9, 0.0, 2025-03-22 18:16:08.845
121.0, -180657.5498768747, -71460.18105270638, -178346.06657577356, -178313.4330288688, -178051.96232223063, -182103.14894952168, -178546.96405493785, -177999.99451637204, 0.046, 0.9440000000000001, 0.342, 192.0, 1.0, 112.0, 29.0, 128.0, 10.0, 176.0, 0.0, 0.0, 0.0, 1.7426781688452997E9, 0.0, 2025-03-22 18:16:08.845
122.0, -180012.36677317225, -70577.17538799946, -178254.35736827343, -178239.64992042183, -178335.27068320164, -182183.7046365386, -178475.70669361434, -178019.23936834806, 0.046, 0.9440000000000001, 0.342, 192.0, 0.0, 0.0, 0.0, 0.0, 0.0, 0.0, 0.0, 0.0, 0.0, 1.7426781688453128E9, 0.0, 2025-03-22 18:16:08.845
123.0, -178306.0346014541, -68608.50079160939, -178114.45779972768, -177964.9469810661, -178169.37603585437, -182569.40633885938, -179313.00304091015, -178763.03836858732, 0.046, 0.9440000000000001, 0.342, 192.0, 0.0, 0.0, 0.0, 0.0, 0.0, 0.0, 0.0, 0.0, 0.0, 1.7426781688453252E9, 0.0, 2025-03-22 18:16:08.845
124.0, -178613.61695690357, -69203.90656040986, -178154.4450705582, -177952.72057684907, -177847.26504650892, -182552.6872340068, -179644.59116990463, -178858.99440753396, 0.046, 0.9440000000000001, 0.342, 192.0, 0.0, 0.0, 0.0, 0.0, 0.0, 0.0, 0.0, 0.0, 0.0, 1.7426781688453372E9, 0.0, 2025-03-22 18:16:08.845
125.0, -180426.32108048454, -71396.88091240895, -178315.6905550588, -178199.10385597992, -177979.54267019543, -182145.05847037537, -179221.4055921323, -178087.27807847, 0.046, 0.9440000000000001, 0.342, 192.0, 0.0, 0.0, 0.0, 0.0, 0.0, 0.0, 0.0, 0.0, 0.0, 1.7426781688453496E9, 0.0, 2025-03-22 18:16:08.845
126.0, -180294.1105120314, -71102.75430712156, -178293.00353443666, -178212.22432997517, -178318.9986132382, -182132.31797603585, -179168.38725428432, -177932.04521322792, 0.046, 0.9440000000000001, 0.342, 192.0, 0.0, 0.0, 0.0, 0.0, 0.0, 0.0, 0.0, 0.0, 0.0, 1.742678168845362E9, 0.0, 2025-03-22 18:16:08.845
127.0, -178554.78716549723, -69057.5473377165, -178133.05445111447, -177933.94511150662, -178254.8714583959, -182539.34324256697, -179527.71389814783, -178647.8598294091, 0.046, 0.9440000000000001, 0.342, 192.0, 0.0, 0.0, 0.0, 0.0, 0.0, 0.0, 0.0, 0.0, 0.0, 1.742678168845374E9, 0.0, 2025-03-22 18:16:08.845
128.0, -178391.03828561763, -69051.6017736914, -178145.86200068737, -177860.45257573755, -177905.6925065151, -182630.42660122237, -179569.4893085348, -178952.8940859907, 0.046, 0.9440000000000001, 0.342, 192.0, 0.0, 0.0, 0.0, 0.0, 0.0, 0.0, 0.0, 0.0, 0.0, 1.7426781688453865E9, 0.0, 2025-03-22 18:16:08.845
129.0, -180162.1234610228, -71276.06973362801, -178292.95883094775, -178338.91401754785, -177903.0326489249, -182228.7657533605, -179132.9373875782, -178224.85306559244, 0.046, 0.9440000000000001, 0.342, 192.0, 0.0, 0.0, 0.0, 0.0, 0.0, 0.0, 0.0, 0.0, 0.0, 1.7426781688453987E9, 0.0, 2025-03-22 18:16:08.845
130.0, -180539.75618359522, -71584.12147571104, -178323.98305225171, -178461.40157716293, -178240.78985938907, -182105.16060652264, -178969.65789433217, -177883.47487252654, 0.046, 0.9440000000000001, 0.342, 192.0, 0.0, 0.0, 0.0, 0.0, 0.0, 0.0, 0.0, 0.0, 0.0, 1.7426781688454173E9, 0.0, 2025-03-22 18:16:08.845
