%OpenBCI Raw EXG Data
%Number of channels = 8
%Sample Rate = 250 Hz
%Board = OpenBCI_GUI$BoardCytonSerial
Sample Index, EXG Channel 0, EXG Channel 1, EXG Channel 2, EXG Channel 3, EXG Channel 4, EXG Channel 5, EXG Channel 6, EXG Channel 7, Accel Channel 0, Accel Channel 1, Accel Channel 2, Not Used, Digital Channel 0 (D11), Digital Channel 1 (D12), Digital Channel 2 (D13), Digital Channel 3 (D17), Not Used, Digital Channel 4 (D18), Analog Channel 0, Analog Channel 1, Analog Channel 2, Timestamp, Marker Channel, Timestamp (Formatted)
162.0, -83907.59931893341, -84077.9419634273, -78264.9684864245, -79968.59609706356, -84810.87801586128, -84689.06100857985, -85507.24661436638, -102962.3497083604, 0.0, 0.0, 0.0, 192.0, 0.0, 0.0, 0.0, 0.0, 0.0, 0.0, 0.0, 0.0, 0.0, 1.7401449117966657E9, 0.0, 2025-02-21 10:35:11.796
163.0, -82178.51307135976, -82341.52434367232, -80037.50652521927, -81428.25441697294, -83417.42556302853, -83713.04973519442, -84631.37115614071, -104322.52041369921, 0.0, 0.0, 0.0, 192.0, 0.0, 0.0, 0.0, 0.0, 0.0, 0.0, 0.0, 0.0, 0.0, 1.7401449117966957E9, 0.0, 2025-02-21 10:35:11.796
164.0, -81966.842051368, -82147.91353320045, -80723.86154220838, -82000.41437153988, -82815.33662263592, -82782.05487514197, -83808.06700087393, -104880.84463844832, 0.0, 0.0, 0.0, 192.0, 0.0, 0.0, 0.0, 0.0, 0.0, 0.0, 0.0, 0.0, 0.0, 1.740144911796714E9, 0.0, 2025-02-21 10:35:11.796
165.0, -83595.39015238169, -83787.34693376385, -79103.91886281001, -80665.09880603538, -84066.5425737551, -83589.35518137875, -84533.55992240428, -103637.50650137741, 0.0, 0.0, 0.0, 192.0, 0.0, 0.0, 0.0, 0.0, 0.0, 0.0, 0.0, 0.0, 0.0, 1.740144911796744E9, 0.0, 2025-02-21 10:35:11.796
166.0, -84085.11687339746, -84260.57806737162, -78114.92122589603, -79844.23099091424, -84884.37055163033, -84658.01443553144, -85478.94930588595, -102849.38399188328, -0.022, 0.92, 0.368, 192.0, 255.0, 80.0, 28.0, 192.0, 11.0, 128.0, 0.0, 0.0, 0.0, 1.7401449117967625E9, 0.0, 2025-02-21 10:35:11.796
167.0, -82439.51439136438, -82601.0504485429, -79672.36842779738, -81124.56126505867, -83671.94487714111, -83941.90924667231, -84833.0732981054, -104035.2557939596, -0.022, 0.92, 0.368, 192.0, 0.0, 0.0, 0.0, 0.0, 0.0, 0.0, 0.0, 0.0, 0.0, 1.740144911796784E9, 0.0, 2025-02-21 10:35:11.796
168.0, -81794.7559708066, -81971.78178689264, -80786.51348191661, -82049.61056108601, -82740.79355487747, -82805.07717193094, -83825.30019584898, -104922.03890347945, -0.022, 0.92, 0.368, 192.0, 0.0, 0.0, 0.0, 0.0, 0.0, 0.0, 0.0, 0.0, 0.0, 1.7401449117968032E9, 0.0, 2025-02-21 10:35:11.796
169.0, -83274.57556421465, -83466.68880780802, -79435.12701214875, -80937.38775698993, -83771.81247136742, -83337.40631787853, -84306.01916384925, -103892.11522246781, -0.022, 0.92, 0.368, 192.0, 0.0, 0.0, 0.0, 0.0, 0.0, 0.0, 0.0, 0.0, 0.0, 1.7401449117968216E9, 0.0, 2025-02-21 10:35:11.796
170.0, -84189.34305779256, -84368.49228960184, -78062.3275711927, -79801.06977237103, -84886.24809816458, -84562.2595622849, -85395.30907813419, -102812.77183446549, -0.022, 0.92, 0.368, 192.0, 0.0, 0.0, 0.0, 0.0, 0.0, 0.0, 0.0, 0.0, 0.0, 1.7401449117968404E9, 0.0, 2025-02-21 10:35:11.796
171.0, -82738.87130485431, -82900.3626585439, -79305.26337686341, -80821.02457535561, -83938.42237453727, -84158.07296729958, -85025.05243123203, -103749.75696203197, -0.022, 0.92, 0.368, 192.0, 0.0, 0.0, 0.0, 0.0, 0.0, 0.0, 0.0, 0.0, 0.0, 1.7401449117968593E9, 0.0, 2025-02-21 10:35:11.796
172.0, -81700.47631269411, -81873.16589035581, -80762.9100397718, -82027.68349977536, -82738.69249089867, -82889.70087643873, -83897.22810950615, -104896.53556305595, -0.022, 0.92, 0.368, 192.0, 0.0, 0.0, 0.0, 0.0, 0.0, 0.0, 0.0, 0.0, 0.0, 1.7401449117968771E9, 0.0, 2025-02-21 10:35:11.796
173.0, -82939.85819099644, -83130.27270201119, -79756.4780421827, -81200.69130667346, -83484.97253477246, -83112.9724518028, -84101.92538522785, -104137.64913530936, -0.022, 0.92, 0.368, 192.0, 0.0, 0.0, 0.0, 0.0, 0.0, 0.0, 0.0, 0.0, 0.0, 1.740144911796897E9, 0.0, 2025-02-21 10:35:11.796
174.0, -84203.69287773286, -84386.46309214391, -78104.50531297986, -79835.37970010993, -84808.46402746011, -84403.2716039743, -85254.40368108793, -102848.37816338279, -0.022, 0.92, 0.368, 192.0, 0.0, 0.0, 0.0, 0.0, 0.0, 0.0, 0.0, 0.0, 0.0, 1.740144911796922E9, 0.0, 2025-02-21 10:35:11.796
175.0, -83057.56247729808, -83221.11019147756, -78925.95427345685, -80506.53553086943, -84199.33428756408, -84346.0064346798, -85191.52822393517, -103455.20567359992, -0.022, 0.92, 0.368, 192.0, 0.0, 0.0, 0.0, 0.0, 0.0, 0.0, 0.0, 0.0, 0.0, 1.7401449117969725E9, 0.0, 2025-02-21 10:35:11.796
176.0, -81692.07205677892, -81861.43122451678, -80637.51675337754, -81921.44565837928, -82814.64371855781, -83040.03870964513, -84027.15880002484, -104791.70588156056, -0.026000000000000002, 0.916, 0.366, 192.0, 255.0, 48.0, 28.0, 160.0, 11.0, 112.0, 0.0, 0.0, 0.0, 1.7401449117969904E9, 0.0, 2025-02-21 10:35:11.796
177.0, -82611.86869285927, -82800.3386021064, -80057.42192952895, -81447.94630383806, -83223.27831068973, -82930.4257548363, -83936.70129021422, -104367.49212354328, -0.026000000000000002, 0.916, 0.366, 192.0, 0.0, 0.0, 0.0, 0.0, 0.0, 0.0, 0.0, 0.0, 0.0, 1.7401449117970092E9, 0.0, 2025-02-21 10:35:11.797
178.0, -84114.73293480075, -84300.2971172687, -78257.68181773208, -79961.55529756013, -84648.98433077149, -84187.66667695841, -85062.31278923903, -102969.52461833056, -0.026000000000000002, 0.916, 0.366, 192.0, 0.0, 0.0, 0.0, 0.0, 0.0, 0.0, 0.0, 0.0, 0.0, 1.7401449117971444E9, 0.0, 2025-02-21 10:35:11.797
179.0, -83367.89409731557, -83532.15706731762, -78594.23203399563, -80232.90547524756, -84431.4795054769, -84486.2412793924, -85316.7426963738, -103200.52989727615, -0.026000000000000002, 0.916, 0.366, 192.0, 0.0, 0.0, 0.0, 0.0, 0.0, 0.0, 0.0, 0.0, 0.0, 1.740144911797164E9, 0.0, 2025-02-21 10:35:11.797
180.0, -81777.34396187591, -81942.590408634, -80431.45602124406, -81749.82896445143, -82962.32169417402, -83236.1976189849, -84199.8260259421, -104626.1465103801, -0.026000000000000002, 0.916, 0.366, 192.0, 0.0, 0.0, 0.0, 0.0, 0.0, 0.0, 0.0, 0.0, 0.0, 1.7401449117971835E9, 0.0, 2025-02-21 10:35:11.797
181.0, -82307.70615431144, -82492.77859840139, -80314.26582506488, -81658.70090230714, -82997.12336029093, -82794.8400729704, -83814.12432362132, -104562.26522472683, -0.026000000000000002, 0.916, 0.366, 192.0, 0.0, 0.0, 0.0, 0.0, 0.0, 0.0, 0.0, 0.0, 0.0, 1.7401449117972033E9, 0.0, 2025-02-21 10:35:11.797
182.0, -83946.82663045247, -84134.9612635328, -78483.50149196405, -80147.67827363948, -84435.54752296777, -83945.48552578516, -84845.85849593383, -103145.99164080521, -0.026000000000000002, 0.916, 0.366, 192.0, 0.0, 0.0, 0.0, 0.0, 0.0, 0.0, 0.0, 0.0, 0.0, 1.7401449117972224E9, 0.0, 2025-02-21 10:35:11.797
183.0, -83639.46779244755, -83807.61996598482, -78317.98682427249, -80004.82827482562, -84612.50628382043, -84566.97578036497, -85388.11181641958, -102989.17180170678, -0.026000000000000002, 0.916, 0.366, 192.0, 0.0, 0.0, 0.0, 0.0, 0.0, 0.0, 0.0, 0.0, 0.0, 1.7401449117972407E9, 0.0, 2025-02-21 10:35:11.797
184.0, -81933.15797247387, -82096.41511397542, -80149.53346842928, -81514.50979882597, -83156.78187093518, -83452.22722914544, -84388.69826658945, -104401.26560941525, -0.026000000000000002, 0.916, 0.366, 192.0, 0.0, 0.0, 0.0, 0.0, 0.0, 0.0, 0.0, 0.0, 0.0, 1.740144911797263E9, 0.0, 2025-02-21 10:35:11.797
185.0, -82040.20047667033, -82222.54600793672, -80508.32367042586, -81816.97360479517, -82818.15294243729, -82712.67506035269, -83737.59195060635, -104707.14923228613, -0.026000000000000002, 0.916, 0.366, 192.0, 0.0, 0.0, 0.0, 0.0, 0.0, 0.0, 0.0, 0.0, 0.0, 1.7401449117972834E9, 0.0, 2025-02-21 10:35:11.797
186.0, -83707.21592989158, -83898.16688277328, -78766.67574246833, -80380.65050609714, -84177.25076404224, -83686.87584243725, -84611.65691753113, -103365.39636437851, -0.024, 0.916, 0.374, 192.0, 255.0, 64.0, 28.0, 160.0, 11.0, 176.0, 0.0, 0.0, 0.0, 1.7401449117973008E9, 0.0, 2025-02-21 10:35:11.797
187.0, -83859.5430683545, -84031.27152100463, -78116.73171719692, -79838.79951701159, -84733.33981434582, -84583.5160712619, -85401.9028427485, -102836.71055277712, -0.024, 0.916, 0.374, 192.0, 0.0, 0.0, 0.0, 0.0, 0.0, 0.0, 0.0, 0.0, 0.0, 1.7401449117973197E9, 0.0, 2025-02-21 10:35:11.797
188.0, -82154.55200130367, -82315.9762997599, -79823.30975810406, -81243.427842072, -83390.1340830486, -83678.98567664453, -84588.5675655088, -104144.0864377125, -0.024, 0.916, 0.374, 192.0, 0.0, 0.0, 0.0, 0.0, 0.0, 0.0, 0.0, 0.0, 0.0, 1.7401449117973375E9, 0.0, 2025-02-21 10:35:11.797
189.0, -81823.96970080968, -82003.16363610789, -80631.14650620778, -81916.01418447665, -82697.1182462118, -82689.9656879861, -83714.36848811728, -104795.95271300706, -0.024, 0.916, 0.374, 192.0, 0.0, 0.0, 0.0, 0.0, 0.0, 0.0, 0.0, 0.0, 0.0, 1.7401449117973552E9, 0.0, 2025-02-21 10:35:11.797
190.0, -83414.56453973825, -83605.64960308667, -79083.2658509333, -80640.89186679029, -83892.37778095934, -83427.41679280005, -84377.83531878416, -103609.38800685263, -0.024, 0.916, 0.374, 192.0, 0.0, 0.0, 0.0, 0.0, 0.0, 0.0, 0.0, 0.0, 0.0, 1.7401449117973833E9, 0.0, 2025-02-21 10:35:11.797
191.0, -84018.75454410966, -84193.70164796134, -77994.1100471151, -79737.5237628846, -84788.68273361716, -84536.08566952773, -85360.75328120629, -102745.40367667719, -0.024, 0.916, 0.374, 192.0, 0.0, 0.0, 0.0, 0.0, 0.0, 0.0, 0.0, 0.0, 0.0, 1.7401449117974017E9, 0.0, 2025-02-21 10:35:11.797
192.0, -82431.49011510493, -82592.4897304165, -79460.4068351277, -80942.72982391475, -83653.1470600542, -83909.87919686786, -84792.99662029704, -103860.30869010791, -0.024, 0.916, 0.374, 192.0, 0.0, 0.0, 0.0, 0.0, 0.0, 0.0, 0.0, 0.0, 0.0, 1.7401449117974255E9, 0.0, 2025-02-21 10:35:11.797
193.0, -81672.20135595815, -81847.84136388796, -80673.70422765067, -81949.11711801495, -82642.20001008511, -82732.70222338465, -83747.78434607797, -104822.08190227531, -0.024, 0.916, 0.374, 192.0, 0.0, 0.0, 0.0, 0.0, 0.0, 0.0, 0.0, 0.0, 0.0, 1.7401449117974713E9, 0.0, 2025-02-21 10:35:11.797
194.0, -83094.12993122697, -83284.09740735262, -79411.97060489305, -80911.05740202159, -83602.00626874046, -83184.92271720442, -84157.62593241048, -103862.1638848977, -0.024, 0.916, 0.374, 192.0, 0.0, 0.0, 0.0, 0.0, 0.0, 0.0, 0.0, 0.0, 0.0, 1.7401449117974904E9, 0.0, 2025-02-21 10:35:11.797
195.0, -84101.14307417191, -84280.06878853665, -77966.21507003487, -79714.83674226246, -84771.47189038657, -84426.69623216346, -85263.90317248144, -102727.92461251315, -0.024, 0.916, 0.374, 192.0, 0.0, 0.0, 0.0, 0.0, 0.0, 0.0, 0.0, 0.0, 0.0, 1.7401449117975097E9, 0.0, 2025-02-21 10:35:11.797
196.0, -82733.17161001821, -82894.90883289682, -79093.74881908284, -80639.32724467841, -83914.88598762584, -84115.76111504568, -84976.34798006392, -103575.30159655829, -0.032, 0.914, 0.376, 192.0, 255.0, 0.0, 28.0, 144.0, 11.0, 192.0, 0.0, 0.0, 0.0, 1.7401449117975285E9, 0.0, 2025-02-21 10:35:11.797
197.0, -81600.65342195671, -81772.53833681802, -80625.89384626078, -81907.49816983916, -82661.37780682776, -82834.98380601214, -83836.49841982107, -104778.40659360964, -0.032, 0.914, 0.376, 192.0, 0.0, 0.0, 0.0, 0.0, 0.0, 0.0, 0.0, 0.0, 0.0, 1.7401449117975483E9, 0.0, 2025-02-21 10:35:11.797
198.0, -82761.82654640991, -82951.01171147963, -79723.41981213329, -81166.3590271901, -83322.0730211822, -82969.94363903328, -83963.3669213494, -104100.20996334673, -0.032, 0.914, 0.376, 192.0, 0.0, 0.0, 0.0, 0.0, 0.0, 0.0, 0.0, 0.0, 0.0, 1.7401449117975676E9, 0.0, 2025-02-21 10:35:11.797
199.0, -84086.68149550933, -84269.49641340929, -78031.32570163319, -79767.72096964372, -84671.58194441581, -84252.64319808998, -85109.25145259517, -102780.67472942767, -0.032, 0.914, 0.376, 192.0, 0.0, 0.0, 0.0, 0.0, 0.0, 0.0, 0.0, 0.0, 0.0, 1.740144911797586E9, 0.0, 2025-02-21 10:35:11.797
200.0, -83034.76369795368, -83197.41734235494, -78741.99941658968, -80348.12871791467, -84158.02826381067, -84284.47208219435, -85125.63528128092, -103302.52090722573, -0.032, 0.914, 0.376, 192.0, 0.0, 0.0, 0.0, 0.0, 0.0, 0.0, 0.0, 0.0, 0.0, 1.7401449117976048E9, 0.0, 2025-02-21 10:35:11.797
201.0, -81611.60577673982, -81779.13210143235, -80493.50446385199, -81796.18648245174, -82748.86253462583, -82987.2885927306, -83968.6195812964, -104669.01715624538, -0.032, 0.914, 0.376, 192.0, 0.0, 0.0, 0.0, 0.0, 0.0, 0.0, 0.0, 0.0, 0.0, 1.7401449117976234E9, 0.0, 2025-02-21 10:35:11.797
202.0, -82444.78940305584, -82631.67233844666, -80015.31124297515, -81406.61792834019, -83071.26409664919, -82799.31042186146, -83808.29051831848, -104323.68270441088, -0.032, 0.914, 0.376, 192.0, 0.0, 0.0, 0.0, 0.0, 0.0, 0.0, 0.0, 0.0, 0.0, 1.740144911797642E9, 0.0, 2025-02-21 10:35:11.797
203.0, -83989.58551759548, -84176.13317681947, -78192.32531694476, -79900.78090438616, -84508.83889303672, -84038.69230016379, -84918.34520320239, -102908.1914315452, -0.032, 0.914, 0.376, 192.0, 0.0, 0.0, 0.0, 0.0, 0.0, 0.0, 0.0, 0.0, 0.0, 1.7401449117976604E9, 0.0, 2025-02-21 10:35:11.797
204.0, -83337.45102136744, -83503.61388964819, -78415.48513358655, -80078.47727280585, -84381.05396998573, -84414.80510411324, -85241.30555883714, -103051.51081699262, -0.032, 0.914, 0.376, 192.0, 0.0, 0.0, 0.0, 0.0, 0.0, 0.0, 0.0, 0.0, 0.0, 1.7401449117976792E9, 0.0, 2025-02-21 10:35:11.797
205.0, -81709.93110059871, -81874.93167816779, -80264.71200760746, -81604.87790165877, -82905.50355976864, -83187.18024339441, -84143.96901654829, -104484.77172670027, -0.032, 0.914, 0.376, 192.0, 0.0, 0.0, 0.0, 0.0, 0.0, 0.0, 0.0, 0.0, 0.0, 1.7401449117977178E9, 0.0, 2025-02-21 10:35:11.797
206.0, -82144.27019885424, -82329.11912549962, -80254.9889987694, -81602.55332023541, -82852.03818703153, -82671.77136799948, -83692.39672331771, -104504.12833739858, -0.03, 0.916, 0.382, 192.0, 255.0, 16.0, 28.0, 160.0, 11.0, 240.0, 0.0, 0.0, 0.0, 1.7401449117977355E9, 0.0, 2025-02-21 10:35:11.797
207.0, -83803.64135547177, -83993.02768624159, -78429.23145642655, -80095.66576429197, -84283.35449497157, -83790.90086113225, -84695.92299412764, -103092.63802679039, -0.03, 0.916, 0.382, 192.0, 0.0, 0.0, 0.0, 0.0, 0.0, 0.0, 0.0, 0.0, 0.0, 1.740144911797764E9, 0.0, 2025-02-21 10:35:11.797
208.0, -83595.54661459287, -83764.10111953034, -78152.0921769252, -79860.57011611106, -84546.23336151044, -84478.55227929978, -85297.34138218658, -102849.58515758338, -0.03, 0.916, 0.382, 192.0, 0.0, 0.0, 0.0, 0.0, 0.0, 0.0, 0.0, 0.0, 0.0, 1.7401449117977898E9, 0.0, 2025-02-21 10:35:11.797
209.0, -81881.74896022666, -82044.33554939456, -79970.00425696424, -81359.2545818394, -83110.15613200142, -83406.51791173434, -84336.61870200858, -104250.30192736411, -0.03, 0.916, 0.382, 192.0, 0.0, 0.0, 0.0, 0.0, 0.0, 0.0, 0.0, 0.0, 0.0, 1.740144911797809E9, 0.0, 2025-02-21 10:35:11.797
210.0, -81884.76644572812, -82066.70964559432, -80433.11005033375, -81747.57143826145, -82684.33304838337, -82601.8998148322, -83627.73312660851, -104636.27185061834, -0.03, 0.916, 0.382, 192.0, 0.0, 0.0, 0.0, 0.0, 0.0, 0.0, 0.0, 0.0, 0.0, 1.7401449117978272E9, 0.0, 2025-02-21 10:35:11.797
211.0, -83547.37860529168, -83738.06133723991, -78719.06652677852, -80333.711842741, -84014.35125045196, -83526.2115032925, -84458.16748835653, -103316.46839576584, -0.03, 0.916, 0.382, 192.0, 0.0, 0.0, 0.0, 0.0, 0.0, 0.0, 0.0, 0.0, 0.0, 1.7401449117978456E9, 0.0, 2025-02-21 10:35:11.797
212.0, -83809.07282937442, -83981.29302040256, -77959.44249146491, -79701.58215780045, -84657.81326983134, -84483.15673865756, -85302.86226306704, -102703.8964872237, -0.03, 0.916, 0.382, 192.0, 0.0, 0.0, 0.0, 0.0, 0.0, 0.0, 0.0, 0.0, 0.0, 1.740144911797865E9, 0.0, 2025-02-21 10:35:11.797
213.0, -82122.61135847705, -82284.28152612229, -79619.81947658295, -81068.16781379793, -83357.38877742157, -83641.12182153724, -84544.62403590967, -103974.25788334107, -0.03, 0.916, 0.382, 192.0, 0.0, 0.0, 0.0, 0.0, 0.0, 0.0, 0.0, 0.0, 0.0, 1.740144911797884E9, 0.0, 2025-02-21 10:35:11.797
214.0, -81685.50064390906, -81863.8228611735, -80530.22837999206, -81825.31080547701, -82580.64330585519, -82598.1447217637, -83621.27347246093, -104704.60113341823, -0.03, 0.916, 0.382, 192.0, 0.0, 0.0, 0.0, 0.0, 0.0, 0.0, 0.0, 0.0, 0.0, 1.740144911797904E9, 0.0, 2025-02-21 10:35:11.797
215.0, -83246.21120050088, -83438.23503711642, -79041.80336496871, -80599.36232559233, -83728.1595144462, -83273.68149443645, -84229.10681117854, -103565.4444772535, -0.03, 0.916, 0.382, 192.0, 0.0, 0.0, 0.0, 0.0, 0.0, 0.0, 0.0, 0.0, 0.0, 1.7401449117979233E9, 0.0, 2025-02-21 10:35:11.797
216.0, -83946.22313335218, -84123.71833607178, -77866.03455138618, -79624.98272955212, -84691.9443836146, -84417.9790518259, -85244.79243097216, -102635.83542535728, -0.024, 0.918, 0.38, 192.0, 255.0, 64.0, 28.0, 176.0, 11.0, 224.0, 0.0, 0.0, 0.0, 1.740144911797942E9, 0.0, 2025-02-21 10:35:11.797
217.0, -82404.62331826966, -82566.40524463716, -79256.58127743975, -80767.40274040733, -83617.56308288134, -83862.38173990033, -84740.13474466023, -103690.7260049255, -0.024, 0.918, 0.38, 192.0, 0.0, 0.0, 0.0, 0.0, 0.0, 0.0, 0.0, 0.0, 0.0, 1.740144911797962E9, 0.0, 2025-02-21 10:35:11.797
218.0, -81550.58551437683, -81725.0855833394, -80556.04464483794, -81845.00269234212, -82543.04767168137, -82654.4040625577, -83667.07219684985, -104718.3698080027, -0.024, 0.918, 0.38, 192.0, 0.0, 0.0, 0.0, 0.0, 0.0, 0.0, 0.0, 0.0, 0.0, 1.7401449117979805E9, 0.0, 2025-02-21 10:35:11.797
219.0, -82922.78145823258, -83113.33007971407, -79373.79382536338, -80873.05943644755, -83441.81131622927, -83037.78118345514, -84015.9829277972, -103821.32724777785, -0.024, 0.918, 0.38, 192.0, 0.0, 0.0, 0.0, 0.0, 0.0, 0.0, 0.0, 0.0, 0.0, 1.740144911797999E9, 0.0, 2025-02-21 10:35:11.797
220.0, -84007.62337537091, -84188.24782231425, -77863.39704554046, -79623.17223825124, -84656.87449656421, -84292.87633810953, -85134.0395371961, -102637.78002712489, -0.024, 0.918, 0.38, 192.0, 0.0, 0.0, 0.0, 0.0, 0.0, 0.0, 0.0, 0.0, 0.0, 1.7401449117980282E9, 0.0, 2025-02-21 10:35:11.798
221.0, -82711.69158359666, -82874.45698672021, -78892.09138060706, -80466.10122514979, -83880.19608023121, -84063.92741965383, -84918.83694158042, -103407.79762361023, -0.024, 0.918, 0.38, 192.0, 0.0, 0.0, 0.0, 0.0, 0.0, 0.0, 0.0, 0.0, 0.0, 1.7401449117980466E9, 0.0, 2025-02-21 10:35:11.798
222.0, -81500.18233063011, -81671.64256234677, -80489.16822542765, -81788.27396491457, -82581.73854133351, -82773.62826748232, -83770.2254975111, -104660.0094032299, -0.024, 0.918, 0.38, 192.0, 0.0, 0.0, 0.0, 0.0, 0.0, 0.0, 0.0, 0.0, 0.0, 1.7401449117980652E9, 0.0, 2025-02-21 10:35:11.798
223.0, -82594.16611125066, -82784.42416005423, -79687.58996577143, -81131.33384362863, -83168.36007456304, -82834.2014949562, -83831.26811161854, -104061.96612858369, -0.024, 0.918, 0.38, 192.0, 0.0, 0.0, 0.0, 0.0, 0.0, 0.0, 0.0, 0.0, 0.0, 1.7401449117981174E9, 0.0, 2025-02-21 10:35:11.798
224.0, -83976.97913372268, -84162.45390921283, -77956.76028213029, -79700.55397755552, -84545.18282952104, -84112.16248418837, -84973.19638409572, -102713.64184780621, -0.024, 0.918, 0.38, 192.0, 0.0, 0.0, 0.0, 0.0, 0.0, 0.0, 0.0, 0.0, 0.0, 1.7401449117981365E9, 0.0, 2025-02-21 10:35:11.798
225.0, -83019.96684312426, -83183.7827782372, -78545.25936189406, -80179.50715774384, -84123.74068781623, -84226.89398847747, -85063.96681832873, -103140.20253899129, -0.024, 0.918, 0.38, 192.0, 0.0, 0.0, 0.0, 0.0, 0.0, 0.0, 0.0, 0.0, 0.0, 1.7401449117981553E9, 0.0, 2025-02-21 10:35:11.798
226.0, -81534.98399674702, -81702.26445225054, -80328.07920313826, -81653.18002142668, -82688.9151559967, -82941.19929566376, -83916.18238880426, -104528.58114583268, -0.018000000000000002, 0.922, 0.376, 192.0, 255.0, 112.0, 28.0, 208.0, 11.0, 192.0, 0.0, 0.0, 0.0, 1.740144911798176E9, 0.0, 2025-02-21 10:35:11.798
227.0, -82274.89379345105, -82462.78255734236, -79964.30456212813, -81358.31580857227, -82919.65221400883, -82669.17856564267, -83681.95845865709, -104272.27369216368, -0.018000000000000002, 0.922, 0.376, 192.0, 0.0, 0.0, 0.0, 0.0, 0.0, 0.0, 0.0, 0.0, 0.0, 1.7401449117981968E9, 0.0, 2025-02-21 10:35:11.798
228.0, -83851.92112349524, -84040.56984669804, -78134.92603718353, -79847.02495897115, -84360.40095810902, -83883.95117329969, -84769.61669559678, -102852.89321576277, -0.018000000000000002, 0.922, 0.376, 192.0, 0.0, 0.0, 0.0, 0.0, 0.0, 0.0, 0.0, 0.0, 0.0, 1.7401449117982268E9, 0.0, 2025-02-21 10:35:11.798
229.0, -83303.85634945112, -83471.18150844354, -78238.79459366735, -79926.2171895763, -84325.95691990339, -84335.85874269709, -85160.50400263119, -102904.03400707651, -0.018000000000000002, 0.922, 0.376, 192.0, 0.0, 0.0, 0.0, 0.0, 0.0, 0.0, 0.0, 0.0, 0.0, 1.7401449117982464E9, 0.0, 2025-02-21 10:35:11.798
230.0, -81648.50850683553, -81813.01734602658, -80089.74255201132, -81454.2718475189, -82854.27336147707, -83141.6720916834, -84092.6494112789, -104337.29491678416, -0.018000000000000002, 0.922, 0.376, 192.0, 0.0, 0.0, 0.0, 0.0, 0.0, 0.0, 0.0, 0.0, 0.0, 1.7401449117982655E9, 0.0, 2025-02-21 10:35:11.798
231.0, -81987.58447022253, -82172.20987942338, -80192.2253003389, -81545.10933698528, -82715.51373189852, -82557.19632592158, -83579.85568998524, -104444.31506923618, -0.018000000000000002, 0.922, 0.376, 192.0, 0.0, 0.0, 0.0, 0.0, 0.0, 0.0, 0.0, 0.0, 0.0, 1.7401449117982838E9, 0.0, 2025-02-21 10:35:11.798
232.0, -83653.03530133193, -83843.89684723578, -78384.84089193832, -80053.08569110461, -84128.03222275164, -83634.86333308976, -84545.74162313243, -103047.71102043522, -0.018000000000000002, 0.922, 0.376, 192.0, 0.0, 0.0, 0.0, 0.0, 0.0, 0.0, 0.0, 0.0, 0.0, 1.7401449117983022E9, 0.0, 2025-02-21 10:35:11.798
233.0, -83555.44758504005, -83725.96904348959, -77993.41714303699, -79723.95625400022, -84482.95557295746, -84390.39699916805, -85208.29203227664, -102717.15107168569, -0.018000000000000002, 0.922, 0.376, 192.0, 0.0, 0.0, 0.0, 0.0, 0.0, 0.0, 0.0, 0.0, 0.0, 1.7401449117983212E9, 0.0, 2025-02-21 10:35:11.798
234.0, -81837.98424458316, -82000.41437153988, -79781.84727213946, -81198.12085606108, -83070.41473035989, -83366.79886183726, -84289.63533516352, -104093.23621907667, -0.018000000000000002, 0.922, 0.376, 192.0, 0.0, 0.0, 0.0, 0.0, 0.0, 0.0, 0.0, 0.0, 0.0, 1.74014491179834E9, 0.0, 2025-02-21 10:35:11.798
235.0, -81738.51898175705, -81920.64099557888, -80351.10149992723, -81674.12360598131, -82559.20798292255, -82500.69111593856, -83525.33978525875, -104561.03587878178, -0.018000000000000002, 0.922, 0.376, 192.0, 0.0, 0.0, 0.0, 0.0, 0.0, 0.0, 0.0, 0.0, 0.0, 1.7401449117983768E9, 0.0, 2025-02-21 10:35:11.798
236.0, -83385.01553356834, -83577.28523937288, -78681.89557574935, -80297.21144404549, -83853.21752467364, -83372.27503922881, -84308.902538884, -103276.83875284658, -0.018000000000000002, 0.92, 0.376, 192.0, 255.0, 112.0, 28.0, 192.0, 11.0, 192.0, 0.0, 0.0, 0.0, 1.7401449117983973E9, 0.0, 2025-02-21 10:35:11.798
237.0, -83747.82904956688, -83921.68091794025, -77825.91317008891, -79585.59895582187, -84572.72017868998, -84376.53891760575, -85196.62442167097, -102590.68490155756, -0.018000000000000002, 0.92, 0.376, 192.0, 0.0, 0.0, 0.0, 0.0, 0.0, 0.0, 0.0, 0.0, 0.0, 1.7401449117984188E9, 0.0, 2025-02-21 10:35:11.798
238.0, -82079.53954691166, -82241.43323200145, -79440.96081745157, -80914.96895730126, -83311.90297745503, -83591.478597102, -84487.940011971, -103824.99293386853, -0.018000000000000002, 0.92, 0.376, 192.0, 0.0, 0.0, 0.0, 0.0, 0.0, 0.0, 0.0, 0.0, 0.0, 1.7401449117984552E9, 0.0, 2025-02-21 10:35:11.798
239.0, -81552.21719172207, -81729.7347461861, -80439.99438762598, -81745.6491882383, -82467.3646649557, -82506.03318286338, -83526.8150003928, -104623.7995772123, -0.018000000000000002, 0.92, 0.376, 192.0, 0.0, 0.0, 0.0, 0.0, 0.0, 0.0, 0.0, 0.0, 0.0, 1.7401449117984762E9, 0.0, 2025-02-21 10:35:11.798
240.0, -83076.89673625192, -83267.78063390024, -79005.95116686239, -80563.82305190839, -83564.38828282217, -83118.33687047206, -84079.50658553917, -103526.61949713463, -0.018000000000000002, 0.92, 0.376, 192.0, 0.0, 0.0, 0.0, 0.0, 0.0, 0.0, 0.0, 0.0, 0.0, 1.7401449117984953E9, 0.0, 2025-02-21 10:35:11.798
241.0, -83871.16597547126, -84048.88469563541, -77742.0941283815, -79516.28619626597, -84592.94850742204, -84296.45261722239, -85126.12701965893, -102529.32936302775, -0.018000000000000002, 0.92, 0.376, 192.0, 0.0, 0.0, 0.0, 0.0, 0.0, 0.0, 0.0, 0.0, 0.0, 1.740144911798516E9, 0.0, 2025-02-21 10:35:11.798
242.0, -82380.19286158, -82542.35476760326, -79055.14735640853, -80594.98138367909, -83583.20845165354, -83816.00187015557, -84687.16111030115, -103523.40084593307, -0.018000000000000002, 0.92, 0.376, 192.0, 0.0, 0.0, 0.0, 0.0, 0.0, 0.0, 0.0, 0.0, 0.0, 1.7401449117985375E9, 0.0, 2025-02-21 10:35:11.798
243.0, -81434.60231239824, -81608.20831158261, -80434.96524512355, -81739.1895340907, -82448.90212403562, -82581.69383784459, -83590.13749243469, -104612.31078056226, -0.018000000000000002, 0.92, 0.376, 192.0, 0.0, 0.0, 0.0, 0.0, 0.0, 0.0, 0.0, 0.0, 0.0, 1.740144911798559E9, 0.0, 2025-02-21 10:35:11.798
244.0, -82749.26486602603, -82939.45585959624, -79336.15348770065, -80836.02259588511, -83278.82239566116, -82888.73975142714, -83872.48472839412, -103780.71412810257, -0.018000000000000002, 0.92, 0.376, 192.0, 0.0, 0.0, 0.0, 0.0, 0.0, 0.0, 0.0, 0.0, 0.0, 1.7401449117985823E9, 0.0, 2025-02-21 10:35:11.798
245.0, -83912.96373760268, -84094.43755083533, -77765.78697750413, -79536.80509767594, -84541.27127424137, -84158.38589172196, -85004.93586122226, -102552.23990109444, -0.018000000000000002, 0.92, 0.376, 192.0, 0.0, 0.0, 0.0, 0.0, 0.0, 0.0, 0.0, 0.0, 0.0, 1.7401449117986033E9, 0.0, 2025-02-21 10:35:11.798
246.0, -82687.19407167364, -82849.84771607492, -78695.99952650064, -80298.23962429042, -83841.68402453471, -84008.04805851556, -84858.55428678445, -103245.38984839796, -0.018000000000000002, 0.924, 0.37, 192.0, 255.0, 112.0, 28.0, 224.0, 11.0, 144.0, 0.0, 0.0, 0.0, 1.7401449117986233E9, 0.0, 2025-02-21 10:35:11.798
247.0, -81403.53338760536, -81572.9596105766, -80345.35710160222, -81663.35006515385, -82502.94864212855, -82711.15514172973, -83702.4550083226, -104536.56071860323, -0.018000000000000002, 0.924, 0.37, 192.0, 0.0, 0.0, 0.0, 0.0, 0.0, 0.0, 0.0, 0.0, 0.0, 1.7401449117986465E9, 0.0, 2025-02-21 10:35:11.798
248.0, -82421.87886498915, -82609.87938760273, -79641.88064836034, -81087.47972100732, -83010.4897034752, -82693.27374616549, -83694.98952567454, -104014.98276173863, -0.018000000000000002, 0.924, 0.37, 192.0, 0.0, 0.0, 0.0, 0.0, 0.0, 0.0, 0.0, 0.0, 0.0, 1.7401449117986722E9, 0.0, 2025-02-21 10:35:11.798
249.0, -83857.50905960907, -84042.82737288802, -77881.94899343837, -79632.67172964475, -84409.73125812189, -83963.70219751624, -84830.88282714879, -102645.15610279514, -0.018000000000000002, 0.924, 0.37, 192.0, 0.0, 0.0, 0.0, 0.0, 0.0, 0.0, 0.0, 0.0, 0.0, 1.740144911798695E9, 0.0, 2025-02-21 10:35:11.798
250.0, -82992.67536314433, -83157.49712675776, -78358.82346139234, -80019.89335058849, -84077.33846632701, -84159.63758941146, -84992.93297444975, -102985.34965340492, -0.018000000000000002, 0.924, 0.37, 192.0, 0.0, 0.0, 0.0, 0.0, 0.0, 0.0, 0.0, 0.0, 0.0, 1.74014491179881E9, 0.0, 2025-02-21 10:35:11.798
251.0, -81460.19505979956, -81627.20729436963, -80165.6267244371, -81513.39221160319, -82627.51491397798, -82890.93022238377, -83859.47601312114, -104390.96145522136, -0.018000000000000002, 0.924, 0.37, 192.0, 0.0, 0.0, 0.0, 0.0, 0.0, 0.0, 0.0, 0.0, 0.0, 1.7401449117988293E9, 0.0, 2025-02-21 10:35:11.798
252.0, -82110.11673332653, -82296.46322685042, -79911.2638725357, -81308.98550855942, -82772.4883285151, -82542.57828504781, -83557.83922169676, -104219.97061013826, -0.018000000000000002, 0.924, 0.37, 192.0, 0.0, 0.0, 0.0, 0.0, 0.0, 0.0, 0.0, 0.0, 0.0, 1.740144911798848E9, 0.0, 2025-02-21 10:35:11.798
253.0, -83717.98947071904, -83905.69942065471, -78079.76193186783, -79796.06298161304, -84216.09809590556, -83732.29458717044, -84624.44211535956, -102800.34426454834, -0.018000000000000002, 0.924, 0.37, 192.0, 0.0, 0.0, 0.0, 0.0, 0.0, 0.0, 0.0, 0.0, 0.0, 1.740144911798875E9, 0.0, 2025-02-21 10:35:11.798
254.0, -83271.13339556854, -83437.83270571622, -78070.5306614078, -79782.07078958402, -84271.6868843659, -84258.14172722599, -85081.04355109257, -102764.24619725301, -0.018000000000000002, 0.924, 0.37, 192.0, 0.0, 0.0, 0.0, 0.0, 0.0, 0.0, 0.0, 0.0, 0.0, 1.7401449117988954E9, 0.0, 2025-02-21 10:35:11.798
255.0, -81594.75256142051, -81758.52379304454, -79915.13072432646, -81304.82808409072, -82806.93236672072, -83099.04731500713, -84042.64855893237, -104191.13685979092, -0.018000000000000002, 0.924, 0.37, 192.0, 0.0, 0.0, 0.0, 0.0, 0.0, 0.0, 0.0, 0.0, 0.0, 1.7401449117989151E9, 0.0, 2025-02-21 10:35:11.798
0.0, -81834.58677942595, -82018.18400838185, -80124.00777626131, -81483.32911531081, -82582.23027971153, -82446.08580423424, -83469.48277586493, -104380.34437660509, -0.02, 0.926, 0.376, 192.0, 255.0, 96.0, 28.0, 240.0, 11.0, 192.0, 0.0, 0.0, 0.0, 1.740144911798934E9, 0.0, 2025-02-21 10:35:11.798
1.0, -83499.8587965797, -83689.82627270535, -78342.66315015116, -80012.6290336405, -83971.41354935331, -83477.81997654677, -84396.27550795978, -103004.37098793639, -0.02, 0.926, 0.376, 192.0, 0.0, 0.0, 0.0, 0.0, 0.0, 0.0, 0.0, 0.0, 0.0, 1.7401449117989557E9, 0.0, 2025-02-21 10:35:11.798
2.0, -83509.67121239558, -83679.56682200037, -77839.23480978428, -79591.11983670233, -84413.01696455681, -84294.41860847696, -85113.90061544187, -102587.89093350065, -0.02, 0.926, 0.376, 192.0, 0.0, 0.0, 0.0, 0.0, 0.0, 0.0, 0.0, 0.0, 0.0, 1.740144911798977E9, 0.0, 2025-02-21 10:35:11.798
3.0, -81794.19717719522, -81955.66617914036, -79596.50660711607, -81039.22230472832, -83028.61696822847, -83322.45300083792, -84240.05916596165, -103938.3833334903, -0.02, 0.926, 0.376, 192.0, 0.0, 0.0, 0.0, 0.0, 0.0, 0.0, 0.0, 0.0, 0.0, 1.7401449117990315E9, 0.0, 2025-02-21 10:35:11.799
4.0, -81597.8147504109, -81777.9027554873, -80271.97632455543, -81603.38033478026, -82439.84966753122, -82402.83517871323, -83428.444973045, -104488.92915116897, -0.02, 0.926, 0.376, 192.0, 0.0, 0.0, 0.0, 0.0, 0.0, 0.0, 0.0, 0.0, 0.0, 1.7401449117990825E9, 0.0, 2025-02-21 10:35:11.799
5.0, -83225.53583687972, -83416.91147290605, -78650.22315385618, -80266.03076053032, -83695.92829894165, -83219.3444036656, -84162.90094410193, -103242.59588034105, -0.02, 0.926, 0.376, 192.0, 0.0, 0.0, 0.0, 0.0, 0.0, 0.0, 0.0, 0.0, 0.0, 1.7401449117991023E9, 0.0, 2025-02-21 10:35:11.799
6.0, -83691.27913609495, -83865.37687365734, -77690.4392469453, -79468.74403580953, -84492.0974364397, -84270.21166923185, -85092.68880995379, -102476.71335657994, -0.02, 0.926, 0.376, 192.0, 0.0, 0.0, 0.0, 0.0, 0.0, 0.0, 0.0, 0.0, 0.0, 1.7401449117991211E9, 0.0, 2025-02-21 10:35:11.799
7.0, -82058.99829375723, -82219.908502091, -79240.30920747628, -80744.13457442935, -83286.5560992427, -83555.33582631777, -84446.72339519541, -103659.41121094361, -0.02, 0.926, 0.376, 192.0, 0.0, 0.0, 0.0, 0.0, 0.0, 0.0, 0.0, 0.0, 0.0, 1.7401449117991405E9, 0.0, 2025-02-21 10:35:11.799
8.0, -81425.4157454271, -81601.56984347939, -80338.5621712878, -81656.55513483944, -82365.53011721732, -82426.68449004705, -83446.52753430934, -104533.99026799087, -0.02, 0.926, 0.376, 192.0, 0.0, 0.0, 0.0, 0.0, 0.0, 0.0, 0.0, 0.0, 0.0, 1.7401449117991593E9, 0.0, 2025-02-21 10:35:11.799
9.0, -82908.58810050346, -83099.18142547387, -78976.35745720357, -80534.31874922739, -83405.35562102267, -82969.76482507764, -83937.08126986996, -103493.53891534077, -0.02, 0.926, 0.376, 192.0, 0.0, 0.0, 0.0, 0.0, 0.0, 0.0, 0.0, 0.0, 0.0, 1.7401449117991898E9, 0.0, 2025-02-21 10:35:11.799
10.0, -83794.14186407828, -83972.30761913152, -77633.77757475109, -79422.02888989793, -84494.89140449661, -84175.95436286383, -85009.9203002358, -102436.50256830486, -0.028, 0.922, 0.378, 192.0, 255.0, 32.0, 28.0, 208.0, 11.0, 208.0, 0.0, 0.0, 0.0, 1.740144911799209E9, 0.0, 2025-02-21 10:35:11.799
11.0, -82350.8897245991, -82512.4257817776, -78870.85722337452, -80437.80391666936, -83546.77510819139, -83766.11277653131, -84633.8298480308, -103370.8501900256, -0.028, 0.922, 0.378, 192.0, 0.0, 0.0, 0.0, 0.0, 0.0, 0.0, 0.0, 0.0, 0.0, 1.7401449117992291E9, 0.0, 2025-02-21 10:35:11.799
12.0, -81325.16817154505, -81497.3883625732, -80319.4067262896, -81638.49492531955, -82359.60690493666, -82509.34124104277, -83516.19792177653, -104511.95144795794, -0.028, 0.922, 0.378, 192.0, 0.0, 0.0, 0.0, 0.0, 0.0, 0.0, 0.0, 0.0, 0.0, 1.7401449117992556E9, 0.0, 2025-02-21 10:35:11.799
13.0, -82582.36439017825, -82770.9907616366, -79302.55881578432, -80803.27729025809, -83124.21537926381, -82748.57196194792, -83736.74258431705, -103744.63841255169, -0.028, 0.922, 0.378, 192.0, 0.0, 0.0, 0.0, 0.0, 0.0, 0.0, 0.0, 0.0, 0.0, 1.7401449117992768E9, 0.0, 2025-02-21 10:35:11.799
14.0, -83817.54414052298, -83998.39210491088, -77673.76484558164, -79455.66826530317, -84426.87504611911, -84026.33178548, -84877.06153119344, -102471.37128965513, -0.028, 0.922, 0.378, 192.0, 0.0, 0.0, 0.0, 0.0, 0.0, 0.0, 0.0, 0.0, 0.0, 1.7401449117992947E9, 0.0, 2025-02-21 10:35:11.799
15.0, -82662.58480102835, -82825.21609368517, -78505.56266374144, -80135.56362814471, -83804.5801287389, -83953.10747064442, -84799.21040525561, -103087.40771858786, -0.028, 0.922, 0.378, 192.0, 0.0, 0.0, 0.0, 0.0, 0.0, 0.0, 0.0, 0.0, 0.0, 1.7401449117993133E9, 0.0, 2025-02-21 10:35:11.799
16.0, -81310.25955799337, -81479.46226352004, -80202.30593708825, -81539.0967177268, -82427.66796680307, -82650.53721076694, -83637.29967323538, -104413.55906886567, -0.028, 0.922, 0.378, 192.0, 0.0, 0.0, 0.0, 0.0, 0.0, 0.0, 0.0, 0.0, 0.0, 1.740144911799332E9, 0.0, 2025-02-21 10:35:11.799
17.0, -82253.68198796296, -82441.50369662092, -79592.81856928093, -81040.98809254028, -82858.29667547902, -82560.30321840086, -83564.96942817801, -103965.18307509221, -0.028, 0.922, 0.378, 192.0, 0.0, 0.0, 0.0, 0.0, 0.0, 0.0, 0.0, 0.0, 0.0, 1.7401449117993505E9, 0.0, 2025-02-21 10:35:11.799
18.0, -83735.42383139418, -83920.6080342064, -77803.20379772232, -79561.50377529905, -84274.27968672273, -83817.85706494535, -84690.78209290291, -102572.71409901549, -0.028, 0.922, 0.378, 192.0, 0.0, 0.0, 0.0, 0.0, 0.0, 0.0, 0.0, 0.0, 0.0, 1.740144911799369E9, 0.0, 2025-02-21 10:35:11.799
19.0, -82955.66087432634, -83120.19206526186, -78175.27093592536, -79861.86651728947, -84024.81186685704, -84086.88266120943, -84918.18874099122, -102831.5696515524, -0.028, 0.922, 0.378, 192.0, 0.0, 0.0, 0.0, 0.0, 0.0, 0.0, 0.0, 0.0, 0.0, 1.7401449117993877E9, 0.0, 2025-02-21 10:35:11.799
20.0, -81380.80166349432, -81546.91982828616, -80006.23643472629, -81375.25843086939, -82562.7842620354, -82834.6038263564, -83798.45575075815, -104255.06284893308, -0.028, 0.92, 0.372, 192.0, 255.0, 32.0, 28.0, 192.0, 11.0, 160.0, 0.0, 0.0, 0.0, 1.7401449117994063E9, 0.0, 2025-02-21 10:35:11.799
21.0, -81945.78670809111, -82131.70851847036, -79853.86459277447, -81255.45308058895, -82628.6995564341, -82418.28023413185, -83436.29043534881, -104163.75597283315, -0.028, 0.92, 0.372, 192.0, 0.0, 0.0, 0.0, 0.0, 0.0, 0.0, 0.0, 0.0, 0.0, 1.7401449117994256E9, 0.0, 2025-02-21 10:35:11.799
22.0, -83579.52041381842, -83767.29741898745, -78024.2625503853, -79744.49750715465, -84071.10232962399, -83582.13556791969, -84480.1392531561, -102746.67772611114, -0.028, 0.92, 0.372, 192.0, 0.0, 0.0, 0.0, 0.0, 0.0, 0.0, 0.0, 0.0, 0.0, 1.7401449117994435E9, 0.0, 2025-02-21 10:35:11.799
23.0, -83235.16943873995, -83402.47224598793, -77902.0879151926, -79637.61146516938, -84216.14279939447, -84178.54716522065, -85000.08553267545, -102623.83253858479, -0.028, 0.92, 0.372, 192.0, 0.0, 0.0, 0.0, 0.0, 0.0, 0.0, 0.0, 0.0, 0.0, 1.7401449117994623E9, 0.0, 2025-02-21 10:35:11.799
24.0, -81539.40964214917, -81702.42091446173, -79738.08255649598, -81153.01503575029, -82761.62538070983, -83055.75198599721, -83993.85470078644, -104042.52011090757, -0.028, 0.92, 0.372, 192.0, 0.0, 0.0, 0.0, 0.0, 0.0, 0.0, 0.0, 0.0, 0.0, 1.7401449117994883E9, 0.0, 2025-02-21 10:35:11.799
25.0, -81679.28685895048, -81862.19118382827, -80058.47246151835, -81423.85112331524, -82450.77967056986, -82337.38927094809, -83361.97088503491, -104318.20652701933, -0.028, 0.92, 0.372, 192.0, 0.0, 0.0, 0.0, 0.0, 0.0, 0.0, 0.0, 0.0, 0.0, 1.740144911799507E9, 0.0, 2025-02-21 10:35:11.799
26.0, -83348.671597084, -83539.53314298787, -78301.06655371984, -79973.08879769908, -83818.90759693475, -83327.50449508482, -84250.60918934456, -102961.83561823794, -0.028, 0.92, 0.372, 192.0, 0.0, 0.0, 0.0, 0.0, 0.0, 0.0, 0.0, 0.0, 0.0, 1.7401449117995307E9, 0.0, 2025-02-21 10:35:11.799
27.0, -83452.0484151898, -83623.26277771745, -77694.30609873607, -79465.81595728589, -84335.97050141938, -84197.41203754093, -85015.39647762734, -102465.17985644101, -0.028, 0.92, 0.372, 192.0, 0.0, 0.0, 0.0, 0.0, 0.0, 0.0, 0.0, 0.0, 0.0, 1.740144911799585E9, 0.0, 2025-02-21 10:35:11.799
28.0, -81738.56368524596, -81899.96563195773, -79425.00167191049, -80891.79019830111, -82974.97278153572, -83267.17713679996, -84178.92714487639, -103793.83460209784, -0.028, 0.92, 0.372, 192.0, 0.0, 0.0, 0.0, 0.0, 0.0, 0.0, 0.0, 0.0, 0.0, 1.740144911799605E9, 0.0, 2025-02-21 10:35:11.799
0.0, 0.0, 0.0, 0.0, 0.0, 0.0, 0.0, 0.0, 0.0, -0.03, 0.92, 0.374, 192.0, 255.0, 16.0, 28.0, 192.0, 11.0, 176.0, 0.0, 0.0, 0.0, 1.7401449118773608E9, 0.0, 2025-02-21 10:35:11.877
1.0, -83538.05792785382, -83718.72707828607, -77304.78224811344, -79134.65251143606, -84177.7201506758, -83803.37313453831, -84646.59269411478, -102149.08148635406, -0.03, 0.92, 0.374, 192.0, 0.0, 0.0, 0.0, 0.0, 0.0, 0.0, 0.0, 0.0, 0.0, 1.7401449118934145E9, 0.0, 2025-02-21 10:35:11.893
2.0, -82246.57413322618, -82407.95372819349, -78316.57866437182, -79963.94693421686, -83414.02809787133, -83595.8818907597, -84448.3774242851, -102906.55975419996, -0.03, 0.92, 0.374, 192.0, 0.0, 0.0, 0.0, 0.0, 0.0, 0.0, 0.0, 0.0, 0.0, 1.7401449123707087E9, 0.0, 2025-02-21 10:35:12.370
3.0, -81009.62859506949, -81179.0101145518, -79932.38627104597, -81301.60943288916, -82095.07400930811, -82292.14934017055, -83286.89137540954, -104173.76955434914, -0.03, 0.92, 0.374, 192.0, 0.0, 0.0, 0.0, 0.0, 0.0, 0.0, 0.0, 0.0, 0.0, 1.7401449123707616E9, 0.0, 2025-02-21 10:35:12.370
4.0, -82076.05267477664, -82264.3661218126, -79158.6359332366, -80666.8422421029, -82654.82874570235, -82324.31350044174, -83323.48118108287, -103595.57462877926, -0.03, 0.92, 0.374, 192.0, 0.0, 0.0, 0.0, 0.0, 0.0, 0.0, 0.0, 0.0, 0.0, 1.7401449123707824E9, 0.0, 2025-02-21 10:35:12.370
5.0, -83490.49341565292, -83674.8506039203, -77406.23681619606, -79217.89040778762, -84051.70101543677, -83609.04706824388, -84472.80788097477, -102229.70422860436, -0.03, 0.92, 0.374, 192.0, 0.0, 0.0, 0.0, 0.0, 0.0, 0.0, 0.0, 0.0, 0.0, 1.7401449123708017E9, 0.0, 2025-02-21 10:35:12.370
6.0, -82543.91938971513, -82707.91413878372, -77973.61349744958, -79679.72215172317, -83646.53094369543, -83747.24790421104, -84581.79498693884, -102640.46223645953, -0.03, 0.92, 0.374, 192.0, 0.0, 0.0, 0.0, 0.0, 0.0, 0.0, 0.0, 0.0, 0.0, 1.7401449123708208E9, 0.0, 2025-02-21 10:35:12.370
7.0, -81042.86563907453, -81210.03433585577, -79770.80551037854, -81165.64377136753, -82199.90369080349, -82456.0099787724, -83428.8920079341, -104041.313116707, -0.03, 0.92, 0.374, 192.0, 0.0, 0.0, 0.0, 0.0, 0.0, 0.0, 0.0, 0.0, 0.0, 1.7401449123708394E9, 0.0, 2025-02-21 10:35:12.370
8.0, -81759.37315933385, -81946.27844646912, -79435.52934354894, -80894.27124193564, -82410.07714391674, -82164.34206537511, -83177.21136536734, -103806.66450341517, -0.032, 0.916, 0.372, 192.0, 255.0, 0.0, 28.0, 160.0, 11.0, 160.0, 0.0, 0.0, 0.0, 1.7401449123708584E9, 0.0, 2025-02-21 10:35:12.370
9.0, -83362.50732690183, -83549.99375939295, -77592.49390274214, -79371.62570615122, -83864.28163817903, -83378.8241003542, -84266.05424476317, -102376.01874780879, -0.032, 0.916, 0.372, 192.0, 0.0, 0.0, 0.0, 0.0, 0.0, 0.0, 0.0, 0.0, 0.0, 1.740144912370878E9, 0.0, 2025-02-21 10:35:12.370
10.0, -82835.2520269456, -83001.01256382615, -77664.62298209942, -79424.66639574365, -83853.32928339593, -83857.46435612015, -84678.9356683416, -102402.81848941071, -0.032, 0.916, 0.372, 192.0, 0.0, 0.0, 0.0, 0.0, 0.0, 0.0, 0.0, 0.0, 0.0, 1.740144912370931E9, 0.0, 2025-02-21 10:35:12.370
11.0, -81161.32988468766, -81325.50344771189, -79529.22785630559, -80964.36631254748, -82368.61465795216, -82660.61784751629, -83607.16952170963, -103847.56819576838, -0.032, 0.916, 0.372, 192.0, 0.0, 0.0, 0.0, 0.0, 0.0, 0.0, 0.0, 0.0, 0.0, 1.7401449123709495E9, 0.0, 2025-02-21 10:35:12.370
12.0, -81479.41756003113, -81663.1265477093, -79656.34222702292, -81075.70035167938, -82212.5994816541, -82060.11588098001, -83081.25532642071, -103973.65438624077, -0.032, 0.916, 0.372, 192.0, 0.0, 0.0, 0.0, 0.0, 0.0, 0.0, 0.0, 0.0, 0.0, 1.7401449123709686E9, 0.0, 2025-02-21 10:35:12.370
13.0, -83155.7760424347, -83345.4752976269, -77849.0695773446, -79583.3861331208, -83626.50378066346, -83127.72460314329, -84041.26275077615, -102575.84334323923, -0.032, 0.916, 0.372, 192.0, 0.0, 0.0, 0.0, 0.0, 0.0, 0.0, 0.0, 0.0, 0.0, 1.7401449123709984E9, 0.0, 2025-02-21 10:35:12.370
14.0, -83082.03763747665, -83251.68737789242, -77426.82277283941, -79228.66394861507, -84004.6282416139, -83905.78882763252, -84722.36510781826, -102221.32232443361, -0.032, 0.916, 0.372, 192.0, 0.0, 0.0, 0.0, 0.0, 0.0, 0.0, 0.0, 0.0, 0.0, 1.7401449123710272E9, 0.0, 2025-02-21 10:35:12.371
15.0, -81353.8007561923, -81516.27558663793, -79224.7970968243, -80711.47867578015, -82587.1923669806, -82886.61633570389, -83806.56943399542, -103606.45992832899, -0.032, 0.916, 0.372, 192.0, 0.0, 0.0, 0.0, 0.0, 0.0, 0.0, 0.0, 0.0, 0.0, 1.7401449123710458E9, 0.0, 2025-02-21 10:35:12.371
16.0, -81238.01871991382, -81418.93373953507, -79815.41959231134, -81205.49693173134, -82063.62510485949, -82009.60093851101, -83033.2437793307, -104091.60454173143, -0.032, 0.916, 0.372, 192.0, 0.0, 0.0, 0.0, 0.0, 0.0, 0.0, 0.0, 0.0, 0.0, 1.740144912371065E9, 0.0, 2025-02-21 10:35:12.371
17.0, -82887.01866710409, -83077.4555298633, -78154.26029613738, -79834.99972045419, -83353.43251865299, -82867.39383547234, -83806.05534387295, -102812.50361353203, -0.032, 0.916, 0.372, 192.0, 0.0, 0.0, 0.0, 0.0, 0.0, 0.0, 0.0, 0.0, 0.0, 1.7401449123710835E9, 0.0, 2025-02-21 10:35:12.371
18.0, -83282.46573000739, -83455.69174953601, -77262.02336097043, -79093.54765338275, -84101.88068173894, -83895.97641181665, -84714.49729377, -102098.07480550704, -0.028, 0.912, 0.376, 192.0, 255.0, 32.0, 28.0, 128.0, 11.0, 192.0, 0.0, 0.0, 0.0, 1.7401449123711023E9, 0.0, 2025-02-21 10:35:12.371
19.0, -81607.42600052667, -81769.47614782765, -78876.2663455327, -80422.56002695084, -82841.44346015972, -83122.40488796293, -84014.70887836325, -103332.89692794048, -0.028, 0.912, 0.376, 192.0, 0.0, 0.0, 0.0, 0.0, 0.0, 0.0, 0.0, 0.0, 0.0, 1.7401449123711224E9, 0.0, 2025-02-21 10:35:12.371
20.0, -81054.24267700227, -81232.20726635543, -79899.66331716339, -81273.24506917538, -81976.60976369499, -82021.1120869055, -83039.63637824493, -104150.79196104908, -0.028, 0.912, 0.376, 192.0, 0.0, 0.0, 0.0, 0.0, 0.0, 0.0, 0.0, 0.0, 0.0, 1.7401449123711407E9, 0.0, 2025-02-21 10:35:12.371
21.0, -82573.33428541831, -82764.41934876674, -78486.16134955423, -80108.45096212042, -83061.80930874459, -82614.41679172717, -83576.86055622823, -103068.56519801203, -0.028, 0.912, 0.376, 192.0, 0.0, 0.0, 0.0, 0.0, 0.0, 0.0, 0.0, 0.0, 0.0, 1.74014491237116E9, 0.0, 2025-02-21 10:35:12.371
22.0, -83402.36048726566, -83579.45335858504, -77188.37436299019, -79032.63914974203, -84117.39279239092, -83810.61509974183, -84639.77541205591, -102044.36356358095, -0.028, 0.912, 0.376, 192.0, 0.0, 0.0, 0.0, 0.0, 0.0, 0.0, 0.0, 0.0, 0.0, 1.7401449123711772E9, 0.0, 2025-02-21 10:35:12.371
23.0, -81907.56522507254, -82068.81070957312, -78497.71720143763, -80108.69683130943, -83111.9666233023, -83345.4752976269, -84213.14766563746, -103036.82572088549, -0.028, 0.912, 0.376, 192.0, 0.0, 0.0, 0.0, 0.0, 0.0, 0.0, 0.0, 0.0, 0.0, 1.7401449123711948E9, 0.0, 2025-02-21 10:35:12.371
24.0, -80945.03205359365, -81117.58752078861, -79894.90239559441, -81267.38891212808, -81962.68462689932, -82100.23726227728, -83106.62455637749, -104140.15253068836, -0.028, 0.912, 0.376, 192.0, 0.0, 0.0, 0.0, 0.0, 0.0, 0.0, 0.0, 0.0, 0.0, 1.740144912371212E9, 0.0, 2025-02-21 10:35:12.371
25.0, -82238.59456045563, -82428.67379530356, -78812.96620523528, -80376.78365430637, -82769.5826017359, -82381.77983543633, -83365.9271438035, -103319.08354986711, -0.028, 0.912, 0.376, 192.0, 0.0, 0.0, 0.0, 0.0, 0.0, 0.0, 0.0, 0.0, 0.0, 1.7401449123712616E9, 0.0, 2025-02-21 10:35:12.371
26.0, -83434.83757195921, -83616.7807718254, -77210.61434872322, -79050.8558214731, -84055.70197769428, -83663.78649041492, -84510.40351514859, -102064.6365958019, -0.028, 0.912, 0.376, 192.0, 0.0, 0.0, 0.0, 0.0, 0.0, 0.0, 0.0, 0.0, 0.0, 1.7401449123712895E9, 0.0, 2025-02-21 10:35:12.371
27.0, -82211.14661826451, -82373.06265509877, -78135.68599649501, -79808.95993816375, -83365.9271438035, -83532.84997139573, -84380.29401067425, -102755.03727853743, -0.028, 0.912, 0.376, 192.0, 0.0, 0.0, 0.0, 0.0, 0.0, 0.0, 0.0, 0.0, 0.0, 1.7401449123713086E9, 0.0, 2025-02-21 10:35:12.371
28.0, -80914.43251543434, -81083.34464828309, -79800.89095841539, -81187.50377744481, -82015.34533683602, -82227.53044695026, -83216.77395305324, -104059.88741634935, -0.024, 0.916, 0.372, 192.0, 255.0, 64.0, 28.0, 160.0, 11.0, 160.0, 0.0, 0.0, 0.0, 1.7401449123713276E9, 0.0, 2025-02-21 10:35:12.371
29.0, -81913.46608560874, -82102.04775357817, -79118.2239792614, -80628.24077942858, -82504.89324389616, -82192.05822849968, -83192.94699346388, -103553.32983175872, -0.024, 0.916, 0.372, 192.0, 0.0, 0.0, 0.0, 0.0, 0.0, 0.0, 0.0, 0.0, 0.0, 1.7401449123713546E9, 0.0, 2025-02-21 10:35:12.371
30.0, -83375.71720787493, -83561.28139034289, -77330.26323679248, -79149.47171800993, -83920.6080342064, -83465.88414500763, -84333.44475429592, -102160.03384113716, -0.024, 0.916, 0.372, 192.0, 0.0, 0.0, 0.0, 0.0, 0.0, 0.0, 0.0, 0.0, 0.0, 1.7401449123713732E9, 0.0, 2025-02-21 10:35:12.371
31.0, -82513.54336900037, -82677.73928376906, -77793.19021620635, -79525.11513532582, -83597.55827159385, -83678.53864175543, -84508.92830001454, -102489.47620266394, -0.024, 0.916, 0.372, 192.0, 0.0, 0.0, 0.0, 0.0, 0.0, 0.0, 0.0, 0.0, 0.0, 1.7401449123713927E9, 0.0, 2025-02-21 10:35:12.371
32.0, -80967.89788817143, -81134.12781168554, -79613.85156081337, -81030.14749647946, -82136.24592259478, -82402.52225429086, -83368.92227756052, -103907.04618776396, -0.024, 0.916, 0.372, 192.0, 0.0, 0.0, 0.0, 0.0, 0.0, 0.0, 0.0, 0.0, 0.0, 1.740144912371411E9, 0.0, 2025-02-21 10:35:12.371
33.0, -81598.03826785545, -81784.0047817236, -79378.82296786582, -80841.34231106548, -82265.37195031309, -82040.17812492588, -83054.52264005216, -103750.36045913225, -0.024, 0.916, 0.372, 192.0, 0.0, 0.0, 0.0, 0.0, 0.0, 0.0, 0.0, 0.0, 0.0, 1.7401449123714297E9, 0.0, 2025-02-21 10:35:12.371
34.0, -83228.39686016999, -83416.50914150586, -77532.14419271282, -79315.63458629067, -83720.31405214239, -83229.67090960394, -84122.48899012673, -102317.92656396945, -0.024, 0.916, 0.372, 192.0, 0.0, 0.0, 0.0, 0.0, 0.0, 0.0, 0.0, 0.0, 0.0, 1.7401449123714483E9, 0.0, 2025-02-21 10:35:12.371
35.0, -82796.00236368208, -82962.65697034085, -77498.81774172994, -79281.83874867424, -83793.89599488926, -83777.40040748125, -84596.74830397945, -102263.41065924296, -0.024, 0.916, 0.372, 192.0, 0.0, 0.0, 0.0, 0.0, 0.0, 0.0, 0.0, 0.0, 0.0, 1.7401449123714669E9, 0.0, 2025-02-21 10:35:12.371
36.0, -81101.69543048089, -81264.97492372691, -79358.23701122249, -80816.88950263137, -82315.64102359308, -82612.18161728163, -83552.67596872759, -103702.63948472017, -0.024, 0.916, 0.372, 192.0, 0.0, 0.0, 0.0, 0.0, 0.0, 0.0, 0.0, 0.0, 0.0, 1.7401449123714857E9, 0.0, 2025-02-21 10:35:12.371
37.0, -81325.63755817861, -81508.89951096768, -79590.80691227996, -81015.39534513895, -82077.8184625886, -81948.02188253665, -82969.65306635536, -103910.66717036572, -0.024, 0.916, 0.372, 192.0, 0.0, 0.0, 0.0, 0.0, 0.0, 0.0, 0.0, 0.0, 0.0, 1.7401449123715038E9, 0.0, 2025-02-21 10:35:12.371
38.0, -83007.96395635176, -83197.61850805503, -77805.39426867894, -79541.34250180036, -83473.61784858917, -82975.8892030584, -83893.96475481568, -102531.20690956198, -0.016, 0.924, 0.376, 192.0, 255.0, 128.0, 28.0, 224.0, 11.0, 192.0, 0.0, 0.0, 0.0, 1.740144912371522E9, 0.0, 2025-02-21 10:35:12.371
39.0, -83042.87738119095, -83212.46006637336, -77268.10303546226, -79091.69245859295, -83939.78583094905, -83816.80653295596, -84632.04170847437, -102088.06122399107, -0.016, 0.924, 0.376, 192.0, 0.0, 0.0, 0.0, 0.0, 0.0, 0.0, 0.0, 0.0, 0.0, 1.7401449123715413E9, 0.0, 2025-02-21 10:35:12.371
40.0, -81317.90385459708, -81478.94817339757, -79028.21350433987, -80542.3653772313, -82551.67544504112, -82849.84771607492, -83762.35768346283, -103441.4593507599, -0.016, 0.924, 0.376, 192.0, 0.0, 0.0, 0.0, 0.0, 0.0, 0.0, 0.0, 0.0, 0.0, 1.74014491237156E9, 0.0, 2025-02-21 10:35:12.371
41.0, -81092.41945653195, -81272.52981335281, -79731.39938490384, -81129.16572441647, -81940.01995802164, -81912.34849838597, -82934.73964151618, -104013.32873264894, -0.016, 0.924, 0.376, 192.0, 0.0, 0.0, 0.0, 0.0, 0.0, 0.0, 0.0, 0.0, 0.0, 1.7401449123715856E9, 0.0, 2025-02-21 10:35:12.371
42.0, -82722.53217965749, -82913.39372556136, -78118.7880776868, -79799.10281885897, -83189.48247307331, -82710.81986556291, -83655.0916618218, -102773.23159852406, -0.016, 0.924, 0.376, 192.0, 0.0, 0.0, 0.0, 0.0, 0.0, 0.0, 0.0, 0.0, 0.0, 1.7401449123716037E9, 0.0, 2025-02-21 10:35:12.371
43.0, -83218.83031354312, -83392.77158889432, -77128.49403959443, -78976.84919558158, -84012.6301661289, -83784.44120698467, -84604.28084186088, -101983.79033610706, -0.016, 0.924, 0.376, 192.0, 0.0, 0.0, 0.0, 0.0, 0.0, 0.0, 0.0, 0.0, 0.0, 1.740144912371622E9, 0.0, 2025-02-21 10:35:12.371
44.0, -81576.75940713398, -81737.62491197884, -78680.46506410421, -80254.02787375783, -82803.80312249699, -83076.606163574, -83962.9198864603, -103168.76806840517, -0.016, 0.924, 0.376, 192.0, 0.0, 0.0, 0.0, 0.0, 0.0, 0.0, 0.0, 0.0, 0.0, 1.7401449123716493E9, 0.0, 2025-02-21 10:35:12.371
45.0, -80927.82121036306, -81103.8411979486, -79793.80545542306, -81178.85365234062, -81870.72955021019, -81938.1871149763, -82954.2303626812, -104055.61823315838, -0.016, 0.924, 0.376, 192.0, 0.0, 0.0, 0.0, 0.0, 0.0, 0.0, 0.0, 0.0, 0.0, 1.7401449123716688E9, 0.0, 2025-02-21 10:35:12.371
46.0, -82401.53877753482, -82592.2438612275, -78450.13033749227, -80071.70469423589, -82896.74167594215, -82462.33552245326, -83429.71902247895, -103028.60027892594, -0.016, 0.924, 0.376, 192.0, 0.0, 0.0, 0.0, 0.0, 0.0, 0.0, 0.0, 0.0, 0.0, 1.7401449123716874E9, 0.0, 2025-02-21 10:35:12.371
47.0, -83320.68721302596, -83498.38358144565, -77072.81584415626, -78930.62578804801, -84012.27253821761, -83684.77477845845, -84517.37725941864, -101944.07128620998, -0.016, 0.924, 0.376, 192.0, 0.0, 0.0, 0.0, 0.0, 0.0, 0.0, 0.0, 0.0, 0.0, 1.740144912371706E9, 0.0, 2025-02-21 10:35:12.371
48.0, -81873.83644268948, -82034.29961613413, -78301.87121652022, -79939.7176432273, -83068.02309370317, -83288.99243938833, -84151.76977536318, -102872.4286404167, -0.02, 0.926, 0.374, 192.0, 255.0, 96.0, 28.0, 240.0, 11.0, 176.0, 0.0, 0.0, 0.0, 1.7401449123717244E9, 0.0, 2025-02-21 10:35:12.371
49.0, -80827.46187775873, -80998.94446121984, -79766.98336207669, -81153.61853285057, -81862.74997743964, -82019.4133543269, -83022.13496233642, -104026.62802059985, -0.02, 0.926, 0.374, 192.0, 0.0, 0.0, 0.0, 0.0, 0.0, 0.0, 0.0, 0.0, 0.0, 1.7401449123717442E9, 0.0, 2025-02-21 10:35:12.371
50.0, -82063.53569788167, -82252.38558678456, -78771.05668438158, -80334.65061600812, -82605.31963173386, -82234.10185982012, -83221.82544730013, -103273.93302606739, -0.02, 0.926, 0.374, 192.0, 0.0, 0.0, 0.0, 0.0, 0.0, 0.0, 0.0, 0.0, 0.0, 1.7401449123717637E9, 0.0, 2025-02-21 10:35:12.371
51.0, -83329.40439336353, -83510.6099856627, -77116.02176618837, -78965.36039893156, -83929.28051105505, -83521.53998870135, -84371.7109408034, -101979.7223186162, -0.02, 0.926, 0.374, 192.0, 0.0, 0.0, 0.0, 0.0, 0.0, 0.0, 0.0, 0.0, 0.0, 1.7401449123717833E9, 0.0, 2025-02-21 10:35:12.371
52.0, -82180.9941149943, -82342.91015182855, -77939.25886622177, -79639.06432855896, -83319.72608801439, -83468.76752004237, -84310.55656797369, -102590.28257015736, -0.02, 0.926, 0.374, 192.0, 0.0, 0.0, 0.0, 0.0, 0.0, 0.0, 0.0, 0.0, 0.0, 1.740144912371802E9, 0.0, 2025-02-21 10:35:12.371
53.0, -80818.52117997661, -80987.120388403, -79648.2508955301, -81053.0356828017, -81935.54960913058, -82162.91155372997, -83145.6730539409, -103927.34157172938, -0.02, 0.926, 0.374, 192.0, 0.0, 0.0, 0.0, 0.0, 0.0, 0.0, 0.0, 0.0, 0.0, 1.7401449123718204E9, 0.0, 2025-02-21 10:35:12.371
54.0, -81739.32364455744, -81926.43009739282, -79064.64684780203, -80575.82593868088, -82346.30761698575, -82053.70093032133, -83057.00368368671, -103498.45629912094, -0.02, 0.926, 0.374, 192.0, 0.0, 0.0, 0.0, 0.0, 0.0, 0.0, 0.0, 0.0, 0.0, 1.7401449123718393E9, 0.0, 2025-02-21 10:35:12.371
55.0, -83248.31226447967, -83433.42941205853, -77256.86010800124, -79081.52241486579, -83778.29447725946, -83314.27226236729, -84187.46551125831, -102091.52574438164, -0.02, 0.926, 0.374, 192.0, 0.0, 0.0, 0.0, 0.0, 0.0, 0.0, 0.0, 0.0, 0.0, 1.7401449123718584E9, 0.0, 2025-02-21 10:35:12.371
56.0, -82475.81362435981, -82639.49544900602, -77612.1187343739, -79368.33999971629, -83542.01418662241, -83603.79440829688, -84430.98776709888, -102337.52904385675, -0.02, 0.926, 0.374, 192.0, 0.0, 0.0, 0.0, 0.0, 0.0, 0.0, 0.0, 0.0, 0.0, 1.7401449123718865E9, 0.0, 2025-02-21 10:35:12.371
57.0, -80889.62207908893, -81054.51089793575, -79454.66243680268, -80891.05259073408, -82068.47543340629, -82344.74299487389, -83305.04099190724, -103770.63349135322, -0.02, 0.926, 0.374, 192.0, 0.0, 0.0, 0.0, 0.0, 0.0, 0.0, 0.0, 0.0, 0.0, 1.740144912371905E9, 0.0, 2025-02-21 10:35:12.371
58.0, -81438.60327465573, -81623.94393967914, -79317.80270550284, -80783.87597607088, -82122.49959975477, -81918.07054496653, -82933.48794382668, -103691.1283363257, -0.02, 0.92, 0.38, 192.0, 255.0, 96.0, 28.0, 192.0, 11.0, 224.0, 0.0, 0.0, 0.0, 1.7401449123719249E9, 0.0, 2025-02-21 10:35:12.371
59.0, -83088.27377417967, -83276.72133168238, -77475.61663098534, -79262.14686180912, -83571.47378581451, -83076.71792229629, -83974.65455229933, -102263.23184528732, -0.02, 0.92, 0.38, 192.0, 0.0, 0.0, 0.0, 0.0, 0.0, 0.0, 0.0, 0.0, 0.0, 1.740144912371952E9, 0.0, 2025-02-21 10:35:12.371
60.0, -82760.84306965389, -82927.94471120175, -77323.62476868925, -79130.182162545, -83735.24501743854, -83694.2072146186, -84512.191654705, -102116.62675340495, -0.02, 0.92, 0.38, 192.0, 0.0, 0.0, 0.0, 0.0, 0.0, 0.0, 0.0, 0.0, 0.0, 1.740144912371971E9, 0.0, 2025-02-21 10:35:12.371
61.0, -81049.43705194439, -81211.62130971209, -79168.58245951921, -80652.40301518477, -82269.41761605951, -82569.73565456101, -83503.12215127017, -103542.42218046453, -0.02, 0.92, 0.38, 192.0, 0.0, 0.0, 0.0, 0.0, 0.0, 0.0, 0.0, 0.0, 0.0, 1.7401449123719893E9, 0.0, 2025-02-21 10:35:12.371
62.0, -81169.30945745819, -81350.71621545748, -79514.58746368736, -80944.31679777108, -81941.85280106698, -81836.12904979338, -82858.18491675674, -103838.40398054171, -0.02, 0.92, 0.38, 192.0, 0.0, 0.0, 0.0, 0.0, 0.0, 0.0, 0.0, 0.0, 0.0, 1.740144912372009E9, 0.0, 2025-02-21 10:35:12.372
63.0, -82848.73012885216, -83038.22821834424, -77757.71799775577, -79494.06856227739, -83311.8135704772, -82815.35897438038, -83740.34121517435, -102482.05542350477, -0.02, 0.92, 0.38, 192.0, 0.0, 0.0, 0.0, 0.0, 0.0, 0.0, 0.0, 0.0, 0.0, 1.7401449123720274E9, 0.0, 2025-02-21 10:35:12.372
64.0, -82987.42270319733, -83157.63123722449, -77119.26276913438, -78961.7394163298, -83861.91235326676, -83714.70376428412, -84532.06235552578, -101961.93033002978, -0.02, 0.92, 0.38, 192.0, 0.0, 0.0, 0.0, 0.0, 0.0, 0.0, 0.0, 0.0, 0.0, 1.7401449123720467E9, 0.0, 2025-02-21 10:35:12.372
65.0, -81275.79316804328, -81436.05517578783, -78842.13523174945, -80381.61163110872, -82509.67651720959, -82803.46784633015, -83711.06042993789, -103285.28771225068, -0.02, 0.92, 0.38, 192.0, 0.0, 0.0, 0.0, 0.0, 0.0, 0.0, 0.0, 0.0, 0.0, 1.740144912372067E9, 0.0, 2025-02-21 10:35:12.372
66.0, -80955.80559442111, -81134.79836401921, -79640.53954369301, -81046.82189784311, -81823.79088685404, -81817.48769491765, -82839.18593396974, -103930.64962990876, -0.02, 0.92, 0.38, 192.0, 0.0, 0.0, 0.0, 0.0, 0.0, 0.0, 0.0, 0.0, 0.0, 1.7401449123720863E9, 0.0, 2025-02-21 10:35:12.372
67.0, -82555.989331721, -82746.64971192477, -78081.28185049079, -79760.76957711812, -83026.73942169422, -82557.44219511059, -83506.76548561639, -102732.46201663757, -0.02, 0.92, 0.38, 192.0, 0.0, 0.0, 0.0, 0.0, 0.0, 0.0, 0.0, 0.0, 0.0, 1.740144912372105E9, 0.0, 2025-02-21 10:35:12.372
68.0, -83148.64583595346, -83322.81062874921, -76998.76451477582, -78862.58707792606, -83919.37868826136, -83669.08385385083, -84491.47158759495, -101872.47864871964, -0.016, 0.928, 0.376, 192.0, 255.0, 128.0, 29.0, 0.0, 11.0, 192.0, 0.0, 0.0, 0.0, 1.7401449123721232E9, 0.0, 2025-02-21 10:35:12.372
69.0, -81534.40285139119, -81694.776617858, -78496.28668979248, -80094.48112183585, -82757.44560449668, -83022.98432862572, -83904.26890900957, -103013.93753456326, -0.016, 0.928, 0.376, 192.0, 0.0, 0.0, 0.0, 0.0, 0.0, 0.0, 0.0, 0.0, 0.0, 1.7401449123721433E9, 0.0, 2025-02-21 10:35:12.372
70.0, -80803.65726991383, -80979.07376039909, -79687.25468960461, -81082.9423168829, -81764.67052276975, -81850.63533194487, -82864.44340520423, -103960.13158084531, -0.016, 0.928, 0.376, 192.0, 0.0, 0.0, 0.0, 0.0, 0.0, 0.0, 0.0, 0.0, 0.0, 1.7401449123721623E9, 0.0, 2025-02-21 10:35:12.372
71.0, -82234.16891505348, -82424.89635049061, -78413.13820041875, -80033.70672866187, -82737.91017984274, -82315.26104393734, -83286.80196843171, -102988.27773192857, -0.016, 0.928, 0.376, 192.0, 0.0, 0.0, 0.0, 0.0, 0.0, 0.0, 0.0, 0.0, 0.0, 1.7401449123722067E9, 0.0, 2025-02-21 10:35:12.372
72.0, -83235.03532827322, -83414.31867054924, -76966.57800276017, -78835.69792934632, -83905.47590321016, -83558.68858798606, -84394.77794108128, -101851.04332578699, -0.016, 0.928, 0.376, 192.0, 0.0, 0.0, 0.0, 0.0, 0.0, 0.0, 0.0, 0.0, 0.0, 1.7401449123722248E9, 0.0, 2025-02-21 10:35:12.372
73.0, -81840.48763996216, -82001.88958667393, -78116.55290324127, -79779.20976629374, -83025.64418621591, -83233.02367127224, -84091.30830661158, -102717.06166470787, -0.016, 0.928, 0.376, 192.0, 0.0, 0.0, 0.0, 0.0, 0.0, 0.0, 0.0, 0.0, 0.0, 1.7401449123722672E9, 0.0, 2025-02-21 10:35:12.372
74.0, -80726.40964107629, -80897.48989313722, -79643.28880826102, -81044.13968850848, -81780.45085435521, -81952.00049304968, -82951.59285683547, -103918.55733615844, -0.016, 0.928, 0.376, 192.0, 0.0, 0.0, 0.0, 0.0, 0.0, 0.0, 0.0, 0.0, 0.0, 1.740144912372296E9, 0.0, 2025-02-21 10:35:12.372
75.0, -81902.08904768099, -82091.0283435617, -78730.42121296182, -80294.21631028847, -82457.2616764619, -82100.61724193303, -83092.29708818163, -103231.33060113557, -0.016, 0.928, 0.376, 192.0, 0.0, 0.0, 0.0, 0.0, 0.0, 0.0, 0.0, 0.0, 0.0, 1.740144912372316E9, 0.0, 2025-02-21 10:35:12.372
76.0, -83228.64272935901, -83411.77057168134, -77031.71098610295, -78889.16330208341, -83812.00090789807, -83389.06119931475, -84243.92601775241, -101904.41929154626, -0.016, 0.928, 0.376, 192.0, 0.0, 0.0, 0.0, 0.0, 0.0, 0.0, 0.0, 0.0, 0.0, 1.740144912372335E9, 0.0, 2025-02-21 10:35:12.372
77.0, -82153.36735884755, -82316.24452069338, -77758.12032915597, -79482.512710394, -83278.57652647216, -83409.60245246917, -84247.77051779872, -102439.07301891722, -0.016, 0.928, 0.376, 192.0, 0.0, 0.0, 0.0, 0.0, 0.0, 0.0, 0.0, 0.0, 0.0, 1.7401449123723533E9, 0.0, 2025-02-21 10:35:12.372
78.0, -80732.7575365016, -80900.66384084987, -79504.79739961594, -80926.74832662921, -81865.90157340784, -82104.7299629128, -83083.62461133297, -103803.31174174687, -0.018000000000000002, 0.926, 0.376, 192.0, 255.0, 112.0, 28.0, 240.0, 11.0, 192.0, 0.0, 0.0, 0.0, 1.7401449123723717E9, 0.0, 2025-02-21 10:35:12.372
79.0, -81575.23948851103, -81762.81532797997, -79016.38943152303, -80527.99320554653, -82199.18843498093, -81923.54672235808, -82930.76103100313, -103448.72366770789, -0.018000000000000002, 0.926, 0.376, 192.0, 0.0, 0.0, 0.0, 0.0, 0.0, 0.0, 0.0, 0.0, 0.0, 1.7401449123723912E9, 0.0, 2025-02-21 10:35:12.372
80.0, -83128.08223105458, -83314.65224202303, -77190.20720603553, -79019.02693736875, -83645.39100472821, -83171.15404261995, -84048.97410261323, -102029.14202560688, -0.018000000000000002, 0.926, 0.376, 192.0, 0.0, 0.0, 0.0, 0.0, 0.0, 0.0, 0.0, 0.0, 0.0, 1.740144912372409E9, 0.0, 2025-02-21 10:35:12.372
81.0, -82452.34429268174, -82617.81425688438, -77432.58952290888, -79212.92832051853, -83499.23294773496, -83538.23674180947, -84361.76441452079, -102187.5711903061, -0.018000000000000002, 0.926, 0.376, 192.0, 0.0, 0.0, 0.0, 0.0, 0.0, 0.0, 0.0, 0.0, 0.0, 1.7401449123724277E9, 0.0, 2025-02-21 10:35:12.372
82.0, -80826.83602891398, -80991.68014427187, -79288.27605107738, -80745.65449305231, -82018.6086915265, -82302.16292168653, -83256.87298260606, -103628.67756231756, -0.018000000000000002, 0.926, 0.376, 192.0, 0.0, 0.0, 0.0, 0.0, 0.0, 0.0, 0.0, 0.0, 0.0, 1.740144912372446E9, 0.0, 2025-02-21 10:35:12.372
83.0, -81280.10705472315, -81464.19602205706, -79263.64442868764, -80730.94704520072, -81983.4493974983, -81800.12038947588, -82818.71173604867, -103636.52302462138, -0.018000000000000002, 0.926, 0.376, 192.0, 0.0, 0.0, 0.0, 0.0, 0.0, 0.0, 0.0, 0.0, 0.0, 1.7401449123724644E9, 0.0, 2025-02-21 10:35:12.372
84.0, -82948.84359226747, -83137.35820500353, -77426.93453156168, -79214.02355599684, -83424.39930729859, -82925.59777803395, -83830.19522788469, -102214.23682144129, -0.018000000000000002, 0.926, 0.376, 192.0, 0.0, 0.0, 0.0, 0.0, 0.0, 0.0, 0.0, 0.0, 0.0, 1.7401449123724825E9, 0.0, 2025-02-21 10:35:12.372
85.0, -82723.00156629104, -82890.72905668367, -77164.97208654549, -78991.82486436664, -83676.57168824336, -83612.26571944544, -84429.40079324256, -101982.98567330667, -0.018000000000000002, 0.926, 0.376, 192.0, 0.0, 0.0, 0.0, 0.0, 0.0, 0.0, 0.0, 0.0, 0.0, 1.740144912372501E9, 0.0, 2025-02-21 10:35:12.372
86.0, -80994.18353965087, -81155.98781776284, -78998.17275979195, -80503.4509901346, -82221.02608931376, -82522.66288073813, -83451.48962157841, -103397.35935894959, -0.018000000000000002, 0.926, 0.376, 192.0, 0.0, 0.0, 0.0, 0.0, 0.0, 0.0, 0.0, 0.0, 0.0, 1.7401449123725262E9, 0.0, 2025-02-21 10:35:12.372
87.0, -81019.373955652, -81200.75836190682, -79441.87723897425, -80875.56283182655, -81813.21851172668, -81728.1924758187, -82751.99177884958, -103768.77829656343, -0.018000000000000002, 0.926, 0.376, 192.0, 0.0, 0.0, 0.0, 0.0, 0.0, 0.0, 0.0, 0.0, 0.0, 1.740144912372545E9, 0.0, 2025-02-21 10:35:12.372
88.0, -82693.49726361004, -82883.97882985817, -77719.63062520392, -79454.48362284704, -83155.7760424347, -82662.09306265034, -83592.88675700269, -102440.86115847364, -0.018000000000000002, 0.926, 0.376, 192.0, 255.0, 112.0, 28.0, 240.0, 11.0, 192.0, 0.0, 0.0, 0.0, 1.7401449123725636E9, 0.0, 2025-02-21 10:35:12.372
89.0, -82931.81156299253, -83103.13768424245, -76978.58088953268, -78837.7095863473, -83783.97182035111, -83614.27737644642, -84431.2783397768, -101841.90146230477, -0.018000000000000002, 0.926, 0.376, 192.0, 0.0, 0.0, 0.0, 0.0, 0.0, 0.0, 0.0, 0.0, 0.0, 1.7401449123725903E9, 0.0, 2025-02-21 10:35:12.372
90.0, -81221.29961506125, -81381.89689897263, -78670.33972386595, -80231.00557696886, -82455.31707469429, -82746.80617413596, -83648.60965592977, -103138.86143432396, -0.018000000000000002, 0.926, 0.376, 192.0, 0.0, 0.0, 0.0, 0.0, 0.0, 0.0, 0.0, 0.0, 0.0, 1.740144912372609E9, 0.0, 2025-02-21 10:35:12.372
91.0, -80819.86228464392, -80998.07274318609, -79545.4775745246, -80959.04659736712, -81705.036068563, -81716.70367916867, -82737.15022053126, -103843.05314338842, -0.018000000000000002, 0.926, 0.376, 192.0, 0.0, 0.0, 0.0, 0.0, 0.0, 0.0, 0.0, 0.0, 0.0, 1.7401449123726273E9, 0.0, 2025-02-21 10:35:12.372
92.0, -82389.73705646241, -82580.01745701044, -78041.16046919352, -79718.74829754213, -82865.58334417145, -82404.51155954738, -83358.48401289988, -102688.71965273854, -0.018000000000000002, 0.926, 0.376, 192.0, 0.0, 0.0, 0.0, 0.0, 0.0, 0.0, 0.0, 0.0, 0.0, 1.7401449123726454E9, 0.0, 2025-02-21 10:35:12.372
93.0, -83076.44970136281, -83251.5979709146, -76868.14092017901, -78745.7321579137, -83822.81915221443, -83549.52437275939, -84374.39315013804, -101759.08824909785, -0.018000000000000002, 0.926, 0.376, 192.0, 0.0, 0.0, 0.0, 0.0, 0.0, 0.0, 0.0, 0.0, 0.0, 1.7401449123726637E9, 0.0, 2025-02-21 10:35:12.372
94.0, -81501.8363597198, -81661.98660874208, -78293.10933269374, -79917.03062260516, -82717.1230574993, -82971.39650242288, -83846.84727750388, -102842.41024761322, -0.018000000000000002, 0.926, 0.376, 192.0, 0.0, 0.0, 0.0, 0.0, 0.0, 0.0, 0.0, 0.0, 0.0, 1.7401449123726819E9, 0.0, 2025-02-21 10:35:12.372
95.0, -80678.3980939863, -80852.60759027096, -79570.10919691435, -80976.30214408663, -81660.73491105258, -81768.31385711598, -82779.26090708506, -103854.765457483, -0.018000000000000002, 0.926, 0.376, 192.0, 0.0, 0.0, 0.0, 0.0, 0.0, 0.0, 0.0, 0.0, 0.0, 1.7401449123727002E9, 0.0, 2025-02-21 10:35:12.372
96.0, -82061.90402053643, -82251.7597379398, -78371.96628713206, -79990.32199267411, -82574.42952089662, -82165.12437643103, -83141.73914691676, -102943.41778080676, -0.018000000000000002, 0.926, 0.376, 192.0, 0.0, 0.0, 0.0, 0.0, 0.0, 0.0, 0.0, 0.0, 0.0, 1.740144912372718E9, 0.0, 2025-02-21 10:35:12.372
97.0, -83142.16383006141, -83321.4695240819, -76859.71431251935, -78738.66900666583, -83791.54906172145, -83426.07568813273, -84266.27776220773, -101756.54015022995, -0.018000000000000002, 0.926, 0.376, 192.0, 0.0, 0.0, 0.0, 0.0, 0.0, 0.0, 0.0, 0.0, 0.0, 1.7401449123727741E9, 0.0, 2025-02-21 10:35:12.372
98.0, -81813.82200882697, -81974.88867937191, -77926.16074397096, -79613.60569162437, -82986.52863341912, -83179.40183632396, -84032.79143962759, -102557.64902325261, -0.018000000000000002, 0.924, 0.382, 192.0, 255.0, 112.0, 28.0, 224.0, 11.0, 240.0, 0.0, 0.0, 0.0, 1.7401449123727934E9, 0.0, 2025-02-21 10:35:12.372
99.0, -80622.20580842564, -80791.96730756371, -79508.48543745106, -80923.350861472, -81694.15076901326, -81883.69356199427, -82879.17320480027, -103800.18249752314, -0.018000000000000002, 0.924, 0.382, 192.0, 0.0, 0.0, 0.0, 0.0, 0.0, 0.0, 0.0, 0.0, 0.0, 1.7401449123728132E9, 0.0, 2025-02-21 10:35:12.372
100.0, -81730.11472584185, -81917.60115833297, -78687.1705874408, -80249.33400742222, -82298.6760495515, -81958.63896115292, -82955.07972897051, -103185.107193602, -0.018000000000000002, 0.924, 0.382, 192.0, 0.0, 0.0, 0.0, 0.0, 0.0, 0.0, 0.0, 0.0, 0.0, 1.740144912372832E9, 0.0, 2025-02-21 10:35:12.372
101.0, -83119.78973386166, -83302.91757618399, -76950.95413338592, -78814.24025466923, -83684.998295903, -83246.63588364553, -84107.73683878624, -101830.99381101059, -0.018000000000000002, 0.924, 0.382, 192.0, 0.0, 0.0, 0.0, 0.0, 0.0, 0.0, 0.0, 0.0, 0.0, 1.7401449123729305E9, 0.0, 2025-02-21 10:35:12.372
102.0, -82135.64242549449, -82298.05020070676, -77565.78356811804, -79315.58988280177, -83241.83025858764, -83351.24204769636, -84186.25851705772, -102278.92276989494, -0.018000000000000002, 0.924, 0.382, 192.0, 0.0, 0.0, 0.0, 0.0, 0.0, 0.0, 0.0, 0.0, 0.0, 1.7401449123729491E9, 0.0, 2025-02-21 10:35:12.372
103.0, -80653.92293380773, -80819.50465673265, -79349.02809250691, -80789.15098776233, -81801.37208716538, -82053.83504078806, -83027.76760193917, -103669.35773722622, -0.018000000000000002, 0.924, 0.382, 192.0, 0.0, 0.0, 0.0, 0.0, 0.0, 0.0, 0.0, 0.0, 0.0, 1.7401449123729677E9, 0.0, 2025-02-21 10:35:12.372
104.0, -81407.31083241831, -81592.76325616399, -78966.63444836551, -80477.83589098882, -82046.74953779574, -81791.44791262722, -82802.90905271877, -103397.35935894959, -0.018000000000000002, 0.924, 0.382, 192.0, 0.0, 0.0, 0.0, 0.0, 0.0, 0.0, 0.0, 0.0, 0.0, 1.7401449123729937E9, 0.0, 2025-02-21 10:35:12.372
105.0, -82997.01160156865, -83183.31339160365, -77122.90610348059, -78954.60920984855, -83500.99873554692, -83017.597558212, -83902.61487991987, -101964.94781553124, -0.018000000000000002, 0.924, 0.382, 192.0, 0.0, 0.0, 0.0, 0.0, 0.0, 0.0, 0.0, 0.0, 0.0, 1.7401449123730123E9, 0.0, 2025-02-21 10:35:12.373
106.0, -82417.76614400938, -82582.90083204518, -77251.00395095396, -79053.98506569685, -83442.88419996313, -83458.57512457075, -84281.63341064852, -102034.79701695408, -0.018000000000000002, 0.924, 0.382, 192.0, 0.0, 0.0, 0.0, 0.0, 0.0, 0.0, 0.0, 0.0, 0.0, 1.740144912373031E9, 0.0, 2025-02-21 10:35:12.373
107.0, -80757.03153098006, -80920.66865213736, -79111.94313906947, -80590.01929641, -81957.11904252996, -82247.9152378935, -83197.48439758831, -103477.84799073315, -0.018000000000000002, 0.924, 0.382, 192.0, 0.0, 0.0, 0.0, 0.0, 0.0, 0.0, 0.0, 0.0, 0.0, 1.7401449123730664E9, 0.0, 2025-02-21 10:35:12.373
108.0, -81118.88392196702, -81302.14587475608, -79196.25391915487, -80665.67995139123, -81840.88997136235, -81678.88452755028, -82699.8675107798, -103570.92065464504, -0.02, 0.918, 0.388, 192.0, 255.0, 96.0, 28.0, 176.0, 12.0, 32.0, 0.0, 0.0, 0.0, 1.7401449123730853E9, 0.0, 2025-02-21 10:35:12.373
109.0, -82798.5951660389, -82987.42270319733, -77379.8617577388, -79166.3919885626, -83268.56294495618, -82768.30855230195, -83679.18684234463, -102165.80059120663, -0.02, 0.918, 0.388, 192.0, 0.0, 0.0, 0.0, 0.0, 0.0, 0.0, 0.0, 0.0, 0.0, 1.740144912373105E9, 0.0, 2025-02-21 10:35:12.373
110.0, -82675.16883315668, -82844.19272472772, -77011.30384341524, -78856.70856913431, -83606.27545193142, -83519.55068344483, -84335.657576997, -101852.92087232124, -0.02, 0.918, 0.388, 192.0, 0.0, 0.0, 0.0, 0.0, 0.0, 0.0, 0.0, 0.0, 0.0, 1.7401449123731232E9, 0.0, 2025-02-21 10:35:12.373
111.0, -80940.58405644704, -81102.45538979238, -78826.57841760856, -80353.1131569282, -82169.52767008873, -82472.70673188052, -83394.85030112867, -103252.14007522346, -0.02, 0.918, 0.388, 192.0, 0.0, 0.0, 0.0, 0.0, 0.0, 0.0, 0.0, 0.0, 0.0, 1.7401449123731415E9, 0.0, 2025-02-21 10:35:12.373
112.0, -80879.16146268386, -81059.9870753273, -79359.22048797853, -80798.40460996683, -81690.01569628903, -81624.8603612018, -82647.87735317677, -103692.35768227074, -0.02, 0.918, 0.388, 192.0, 0.0, 0.0, 0.0, 0.0, 0.0, 0.0, 0.0, 0.0, 0.0, 1.7401449123731604E9, 0.0, 2025-02-21 10:35:12.373
113.0, -82532.56470353183, -82723.29213896897, -77676.69292410529, -79410.0483548699, -82996.56456667955, -82508.49187475347, -83443.51004880788, -102395.420061996, -0.02, 0.918, 0.388, 192.0, 0.0, 0.0, 0.0, 0.0, 0.0, 0.0, 0.0, 0.0, 0.0, 1.7401449123731787E9, 0.0, 2025-02-21 10:35:12.373
114.0, -82873.69702740872, -83046.4536603038, -76833.74158546228, -78709.25411096265, -83702.32089785587, -83509.00066006192, -84326.47101002587, -101718.18455674464, -0.02, 0.918, 0.388, 192.0, 0.0, 0.0, 0.0, 0.0, 0.0, 0.0, 0.0, 0.0, 0.0, 1.740144912373197E9, 0.0, 2025-02-21 10:35:12.373
115.0, -81185.04508555474, -81346.15645958859, -78472.86206160331, -80058.4948132628, -82417.02853644235, -82703.019106748, -83598.20647218305, -102972.76562127657, -0.02, 0.918, 0.388, 192.0, 0.0, 0.0, 0.0, 0.0, 0.0, 0.0, 0.0, 0.0, 0.0, 1.7401449123732152E9, 0.0, 2025-02-21 10:35:12.373
116.0, -80684.58952720041, -80861.72710200872, -79447.30871287688, -80868.1867561563, -81592.02564859697, -81626.04500365794, -82645.64217873123, -103753.22148242254, -0.02, 0.918, 0.388, 192.0, 0.0, 0.0, 0.0, 0.0, 0.0, 0.0, 0.0, 0.0, 0.0, 1.740144912373271E9, 0.0, 2025-02-21 10:35:12.373
117.0, -82221.24960675831, -82411.46295207298, -77999.74268671783, -79674.71536096519, -82703.89082478176, -82250.6645024615, -83210.35900239456, -102643.70323940554, -0.02, 0.918, 0.388, 192.0, 0.0, 0.0, 0.0, 0.0, 0.0, 0.0, 0.0, 0.0, 0.0, 1.7401449123732893E9, 0.0, 2025-02-21 10:35:12.373
118.0, -83004.27591851664, -83179.9829816798, -76747.75442454273, -78637.75088045013, -83729.90295051372, -83433.78703996981, -84261.29332319419, -101654.97382342504, -0.012, 0.924, 0.384, 192.0, 255.0, 160.0, 28.0, 224.0, 12.0, 0.0, 0.0, 0.0, 0.0, 1.740144912373308E9, 0.0, 2025-02-21 10:35:12.373
119.0, -81476.1318535962, -81637.15382065222, -78103.67829843501, -79752.20885899173, -82683.88601349427, -82925.73188850068, -83796.91348039074, -102684.1822486141, -0.012, 0.924, 0.384, 192.0, 0.0, 0.0, 0.0, 0.0, 0.0, 0.0, 0.0, 0.0, 0.0, 1.7401449123733509E9, 0.0, 2025-02-21 10:35:12.373
120.0, -80564.69476994214, -80738.79250750454, -79453.92482923566, -80871.11483467995, -81567.3493227183, -81693.86019633534, -82702.72853407009, -103751.65686031066, -0.012, 0.924, 0.384, 192.0, 0.0, 0.0, 0.0, 0.0, 0.0, 0.0, 0.0, 0.0, 0.0, 1.74014491237337E9, 0.0, 2025-02-21 10:35:12.373
121.0, -81892.8801289654, -82082.95936381332, -78331.4425744346, -79947.49605029775, -82416.38033585314, -82020.79916248312, -83002.2866132601, -102899.27308550754, -0.012, 0.924, 0.384, 192.0, 0.0, 0.0, 0.0, 0.0, 0.0, 0.0, 0.0, 0.0, 0.0, 1.7401449123733885E9, 0.0, 2025-02-21 10:35:12.373
122.0, -83048.06298590457, -83229.11211599257, -76758.39385490345, -78645.93161892076, -83677.13048185474, -83294.33450631316, -84137.7105281008, -101666.26145437497, -0.012, 0.924, 0.384, 192.0, 0.0, 0.0, 0.0, 0.0, 0.0, 0.0, 0.0, 0.0, 0.0, 1.740144912851008E9, 0.0, 2025-02-21 10:35:12.851
123.0, -81788.69864805922, -81950.7487953602, -77725.97852062923, -79438.81504998387, -82946.89899049986, -83123.18719901887, -83971.65941854232, -102389.49684971535, -0.012, 0.924, 0.384, 192.0, 0.0, 0.0, 0.0, 0.0, 0.0, 0.0, 0.0, 0.0, 0.0, 1.740144912851062E9, 0.0, 2025-02-21 10:35:12.851
124.0, -80522.31586245488, -80690.82566390344, -79370.17284276162, -80799.29867974504, -81613.17039885168, -81820.12520076337, -82811.31330863397, -103678.99133908647, -0.012, 0.924, 0.384, 192.0, 0.0, 0.0, 0.0, 0.0, 0.0, 0.0, 0.0, 0.0, 0.0, 1.7401449128510911E9, 0.0, 2025-02-21 10:35:12.851
125.0, -81558.6991976141, -81746.05151963848, -78643.00354039711, -80203.02119291082, -82141.07389939713, -81818.89585481833, -82819.15877093778, -103137.63208837893, -0.012, 0.924, 0.384, 192.0, 0.0, 0.0, 0.0, 0.0, 0.0, 0.0, 0.0, 0.0, 0.0, 1.7401449128511183E9, 0.0, 2025-02-21 10:35:12.851
126.0, -83001.32548824853, -83185.92854570491, -76871.20310916938, -78738.87017236593, -83551.73719546048, -83102.28831795315, -83967.70315977374, -101757.03188860798, -0.012, 0.924, 0.384, 192.0, 0.0, 0.0, 0.0, 0.0, 0.0, 0.0, 0.0, 0.0, 0.0, 1.7401449128511455E9, 0.0, 2025-02-21 10:35:12.851
127.0, -82094.60462267454, -82258.12998510957, -77387.59546132034, -79158.79239544779, -83185.4368073269, -83277.21307006039, -84109.3014608981, -102128.07084656607, -0.012, 0.924, 0.384, 192.0, 0.0, 0.0, 0.0, 0.0, 0.0, 0.0, 0.0, 0.0, 0.0, 1.7401449128511648E9, 0.0, 2025-02-21 10:35:12.851
128.0, -80567.64520021025, -80733.8527719799, -79196.61154706616, -80653.23002972962, -81728.37128977434, -81991.31721154657, -82960.42179589532, -103537.10246528417, -0.012, 0.92, 0.384, 192.0, 255.0, 160.0, 28.0, 192.0, 12.0, 0.0, 0.0, 0.0, 0.0, 1.740144912851184E9, 0.0, 2025-02-21 10:35:12.851
129.0, -81243.04786241625, -81429.6178733847, -78911.64915700545, -80422.7835443954, -81900.39031510238, -81664.60176284335, -82678.25337389152, -103341.85997746706, -0.012, 0.92, 0.384, 192.0, 0.0, 0.0, 0.0, 0.0, 0.0, 0.0, 0.0, 0.0, 0.0, 1.740144912851204E9, 0.0, 2025-02-21 10:35:12.851
130.0, -82855.16743125528, -83043.01149165769, -77071.56414646676, -78902.86492143452, -83351.46556514091, -82862.8564313479, -83753.79696533644, -101913.8070242175, -0.012, 0.92, 0.384, 192.0, 0.0, 0.0, 0.0, 0.0, 0.0, 0.0, 0.0, 0.0, 0.0, 1.7401449128512228E9, 0.0, 2025-02-21 10:35:12.851
131.0, -82374.62727721063, -82540.87955246921, -77090.40666704258, -78912.38676457248, -83380.56753642173, -83373.9290683185, -84195.4227322844, -101899.27839032155, -0.012, 0.92, 0.384, 192.0, 0.0, 0.0, 0.0, 0.0, 0.0, 0.0, 0.0, 0.0, 0.0, 1.7401449128512824E9, 0.0, 2025-02-21 10:35:12.851
132.0, -80693.28435579353, -80856.56384903954, -78951.09998596906, -80448.08571911881, -81900.70323952475, -82194.09223724512, -83138.98988234877, -103340.65298326648, -0.012, 0.92, 0.384, 192.0, 0.0, 0.0, 0.0, 0.0, 0.0, 0.0, 0.0, 0.0, 0.0, 1.7401449128513014E9, 0.0, 2025-02-21 10:35:12.851
133.0, -80964.76864394768, -81148.03059673675, -79125.89062760957, -80597.50713080254, -81704.70079239616, -81561.69433137111, -82584.17488147914, -103503.35133115666, -0.012, 0.92, 0.384, 192.0, 0.0, 0.0, 0.0, 0.0, 0.0, 0.0, 0.0, 0.0, 0.0, 1.74014491285132E9, 0.0, 2025-02-21 10:35:12.851
134.0, -82648.48085027706, -82837.9565880247, -77328.43039374714, -79114.15596177054, -83114.24650123675, -82613.2992045044, -83530.14541031665, -102113.96689581477, -0.012, 0.92, 0.384, 192.0, 0.0, 0.0, 0.0, 0.0, 0.0, 0.0, 0.0, 0.0, 0.0, 1.7401449128513484E9, 0.0, 2025-02-21 10:35:12.851
135.0, -82625.23503604354, -82793.85659621438, -76853.09819616059, -78716.49607616616, -83533.81109640731, -83422.45470553097, -84239.50037235026, -101718.67629512267, -0.012, 0.92, 0.384, 192.0, 0.0, 0.0, 0.0, 0.0, 0.0, 0.0, 0.0, 0.0, 0.0, 1.7401449128513672E9, 0.0, 2025-02-21 10:35:12.851
136.0, -80894.24889019119, -81054.7344153803, -78636.32036880498, -80185.94446014696, -82125.47238176732, -82424.73988827944, -83342.52486735879, -103091.20751514524, -0.012, 0.92, 0.384, 192.0, 0.0, 0.0, 0.0, 0.0, 0.0, 0.0, 0.0, 0.0, 0.0, 1.740144912851386E9, 0.0, 2025-02-21 10:35:12.851
137.0, -80731.3493766009, -80910.61036713248, -79274.0603416038, -80717.82657120546, -81564.10831977229, -81520.52241808444, -82544.58994204878, -103612.6066580542, -0.012, 0.92, 0.384, 192.0, 0.0, 0.0, 0.0, 0.0, 0.0, 0.0, 0.0, 0.0, 0.0, 1.740144912851405E9, 0.0, 2025-02-21 10:35:12.851
138.0, -82370.58161146422, -82560.61614282324, -77634.62694104039, -79365.38956944819, -82835.67671009025, -82350.71091064345, -83292.81458769018, -102350.5601108742, -0.018000000000000002, 0.912, 0.386, 192.0, 255.0, 112.0, 28.0, 128.0, 12.0, 16.0, 0.0, 0.0, 0.0, 1.7401449128514233E9, 0.0, 2025-02-21 10:35:12.851
139.0, -82813.1461516793, -82986.17100550783, -76695.69721170631, -78586.051295525, -83618.97124278203, -83400.99703085388, -84221.14959015246, -101600.21204950954, -0.018000000000000002, 0.912, 0.386, 192.0, 0.0, 0.0, 0.0, 0.0, 0.0, 0.0, 0.0, 0.0, 0.0, 1.7401449128514428E9, 0.0, 2025-02-21 10:35:12.851
140.0, -81144.87900076855, -81305.56569165776, -78287.65550704664, -79895.88587235044, -82374.4931667439, -82652.63827474574, -83543.69056745656, -102816.66103800072, -0.018000000000000002, 0.912, 0.386, 192.0, 0.0, 0.0, 0.0, 0.0, 0.0, 0.0, 0.0, 0.0, 0.0, 1.7401449128514612E9, 0.0, 2025-02-21 10:35:12.851
141.0, -80555.82112739338, -80731.72935625665, -79347.73169132849, -80775.82934806697, -81483.0832461218, -81535.76630780296, -82554.62587530923, -103663.1216005232, -0.018000000000000002, 0.912, 0.386, 192.0, 0.0, 0.0, 0.0, 0.0, 0.0, 0.0, 0.0, 0.0, 0.0, 1.7401449128514793E9, 0.0, 2025-02-21 10:35:12.851
142.0, -82057.03134024517, -82246.93176113746, -77966.37153224606, -79637.92438959175, -82546.24397113848, -82102.67360242292, -83068.02309370317, -102606.62169535419, -0.018000000000000002, 0.912, 0.386, 192.0, 0.0, 0.0, 0.0, 0.0, 0.0, 0.0, 0.0, 0.0, 0.0, 1.7401449128514974E9, 0.0, 2025-02-21 10:35:12.851
143.0, -82928.72702225769, -83105.48461741026, -76634.72165283223, -78535.55870480045, -83631.488219677, -83313.89228271155, -84145.0642520266, -101557.1178861997, -0.018000000000000002, 0.912, 0.386, 192.0, 0.0, 0.0, 0.0, 0.0, 0.0, 0.0, 0.0, 0.0, 0.0, 1.7401449128515155E9, 0.0, 2025-02-21 10:35:12.851
144.0, -81450.8743823617, -81611.00227963952, -77907.1394094395, -79580.07807494141, -82647.94440841013, -82875.77573964307, -83741.83878205286, -102519.62870593414, -0.018000000000000002, 0.912, 0.386, 192.0, 0.0, 0.0, 0.0, 0.0, 0.0, 0.0, 0.0, 0.0, 0.0, 1.740144912851534E9, 0.0, 2025-02-21 10:35:12.851
145.0, -80449.67269297513, -80621.44584911417, -79330.23027541999, -80758.2608769251, -81473.04731286137, -81618.64657624323, -82624.31861452086, -103641.88744329065, -0.018000000000000002, 0.912, 0.386, 192.0, 0.0, 0.0, 0.0, 0.0, 0.0, 0.0, 0.0, 0.0, 0.0, 1.740144912851552E9, 0.0, 2025-02-21 10:35:12.851
146.0, -81720.12349607033, -81909.06279195104, -78290.47182684802, -79903.10548580952, -82254.77722344127, -81872.51768976661, -82859.52602142407, -102854.7260588081, -0.018000000000000002, 0.912, 0.386, 192.0, 0.0, 0.0, 0.0, 0.0, 0.0, 0.0, 0.0, 0.0, 0.0, 1.740144912851577E9, 0.0, 2025-02-21 10:35:12.851
147.0, -82949.64825506786, -83130.87619911149, -76663.66716190186, -78557.97750448913, -83559.94028567556, -83158.16767909142, -84007.42220967081, -101581.68245335609, -0.018000000000000002, 0.912, 0.386, 192.0, 0.0, 0.0, 0.0, 0.0, 0.0, 0.0, 0.0, 0.0, 0.0, 1.740144912851596E9, 0.0, 2025-02-21 10:35:12.851
148.0, -81759.93195294523, -81921.75858280166, -77541.08489049494, -79276.47433000497, -82905.10122836844, -83062.68102677834, -83908.44868522271, -102234.73337110679, -0.016, 0.914, 0.382, 192.0, 255.0, 128.0, 28.0, 144.0, 11.0, 240.0, 0.0, 0.0, 0.0, 1.7401449128516142E9, 0.0, 2025-02-21 10:35:12.851
149.0, -80431.76894566644, -80600.23404362609, -79229.53566664884, -80672.9442683392, -81538.87320028225, -81757.45090931069, -82745.59917993537, -103557.46490448296, -0.016, 0.914, 0.382, 192.0, 0.0, 0.0, 0.0, 0.0, 0.0, 0.0, 0.0, 0.0, 0.0, 1.7401449128516405E9, 0.0, 2025-02-21 10:35:12.851
150.0, -81394.59268982324, -81581.60973568079, -78594.23203399563, -80152.64036090855, -81992.72537144726, -81686.77469334302, -82691.48560660906, -103087.78769824358, -0.016, 0.914, 0.382, 192.0, 0.0, 0.0, 0.0, 0.0, 0.0, 0.0, 0.0, 0.0, 0.0, 1.7401449128516593E9, 0.0, 2025-02-21 10:35:12.851
151.0, -82881.65424843482, -83065.47499483527, -76797.15177978895, -78667.5681075535, -83418.5878537402, -82956.37613014891, -83828.787067984, -101687.8532395188, -0.016, 0.914, 0.382, 192.0, 0.0, 0.0, 0.0, 0.0, 0.0, 0.0, 0.0, 0.0, 0.0, 1.740144912851678E9, 0.0, 2025-02-21 10:35:12.851
152.0, -82058.30538967912, -82221.65193815851, -77211.5754737348, -79003.40306799448, -83133.04431832365, -83203.80994126915, -84034.75839313965, -101979.83407733847, -0.016, 0.914, 0.382, 192.0, 0.0, 0.0, 0.0, 0.0, 0.0, 0.0, 0.0, 0.0, 0.0, 1.740144912851696E9, 0.0, 2025-02-21 10:35:12.851
153.0, -80491.80573127339, -80657.5886198984, -79042.87624870257, -80516.14678098522, -81663.5735825984, -81933.26973119614, -82899.2674230656, -103405.33893172014, -0.016, 0.914, 0.382, 192.0, 0.0, 0.0, 0.0, 0.0, 0.0, 0.0, 0.0, 0.0, 0.0, 1.7401449128517144E9, 0.0, 2025-02-21 10:35:12.851
154.0, -81086.9879826293, -81272.64157207508, -78852.95347606581, -80364.31138090031, -81761.54127854602, -81543.41060440667, -82560.6384945677, -103284.3265872391, -0.016, 0.914, 0.382, 192.0, 0.0, 0.0, 0.0, 0.0, 0.0, 0.0, 0.0, 0.0, 0.0, 1.7401449128517325E9, 0.0, 2025-02-21 10:35:12.851
155.0, -82725.34849945885, -82913.10315288343, -77009.98509049238, -78842.33639744954, -83213.33178440711, -82718.01712727752, -83615.61848111374, -101854.59725315539, -0.016, 0.914, 0.382, 192.0, 0.0, 0.0, 0.0, 0.0, 0.0, 0.0, 0.0, 0.0, 0.0, 1.740144912851751E9, 0.0, 2025-02-21 10:35:12.851
156.0, -82340.94319831648, -82506.74843868596, -76922.23214176085, -78764.08294011152, -83326.7221840289, -83297.41904704798, -84118.21980693577, -101757.769496175, -0.016, 0.914, 0.382, 192.0, 0.0, 0.0, 0.0, 0.0, 0.0, 0.0, 0.0, 0.0, 0.0, 1.7401449128517692E9, 0.0, 2025-02-21 10:35:12.851
157.0, -80637.87438128881, -80799.74571463415, -78771.81664369305, -80289.36598174168, -81852.82580290148, -82149.94754194589, -83089.32430616907, -103188.41525178138, -0.016, 0.914, 0.382, 192.0, 0.0, 0.0, 0.0, 0.0, 0.0, 0.0, 0.0, 0.0, 0.0, 1.7401449128517876E9, 0.0, 2025-02-21 10:35:12.851
158.0, -80813.31322351852, -80995.88227222947, -79051.72753950686, -80525.69097586763, -81574.56893617737, -81454.13773705218, -82477.80292961633, -103432.74217042234, -0.016, 0.914, 0.384, 192.0, 255.0, 128.0, 28.0, 144.0, 12.0, 0.0, 0.0, 0.0, 0.0, 1.740144912851806E9, 0.0, 2025-02-21 10:35:12.851
159.0, -82492.48802572346, -82682.72372278258, -77282.58696586931, -79065.85384200262, -82958.43249063879, -82459.60860962971, -83382.5791934227, -102065.86594174695, -0.016, 0.914, 0.384, 192.0, 0.0, 0.0, 0.0, 0.0, 0.0, 0.0, 0.0, 0.0, 0.0, 1.7401449128518252E9, 0.0, 2025-02-21 10:35:12.851
160.0, -82571.41203539516, -82741.19588627767, -76703.40856354339, -78582.63147862333, -83459.96093272697, -83325.04580319475, -84143.09729851452, -101590.71255811604, -0.016, 0.914, 0.384, 192.0, 0.0, 0.0, 0.0, 0.0, 0.0, 0.0, 0.0, 0.0, 0.0, 1.7401449128518434E9, 0.0, 2025-02-21 10:35:12.851
161.0, -80850.86415420345, -81011.70730730383, -78455.36064569482, -80026.33065299162, -82084.2781167362, -82380.90811740258, -83293.30632606821, -102938.36628655986, -0.016, 0.914, 0.384, 192.0, 0.0, 0.0, 0.0, 0.0, 0.0, 0.0, 0.0, 0.0, 0.0, 1.740144912851868E9, 0.0, 2025-02-21 10:35:12.851
162.0, -80593.88614820078, -80772.87891779887, -79188.36375336215, -80636.71209057714, -81447.78984162687, -81425.72866984949, -82449.84089730274, -103533.52618617132, -0.016, 0.914, 0.384, 192.0, 0.0, 0.0, 0.0, 0.0, 0.0, 0.0, 0.0, 0.0, 0.0, 1.740144912851886E9, 0.0, 2025-02-21 10:35:12.851
163.0, -82207.5032839183, -82397.94014667752, -77600.27230981259, -79326.94456898505, -82678.23102214707, -82201.02127802627, -83148.93640863137, -102311.82453773315, -0.016, 0.914, 0.384, 192.0, 0.0, 0.0, 0.0, 0.0, 0.0, 0.0, 0.0, 0.0, 0.0, 1.7401449128519042E9, 0.0, 2025-02-21 10:35:12.851
164.0, -82749.10840381484, -82923.22849312169, -76564.53717524257, -78467.78821561196, -83532.76056441791, -83291.02644813377, -84113.81651327807, -101486.91105686559, -0.016, 0.914, 0.384, 192.0, 0.0, 0.0, 0.0, 0.0, 0.0, 0.0, 0.0, 0.0, 0.0, 1.7401449128519285E9, 0.0, 2025-02-21 10:35:12.851
165.0, -81122.57195980215, -81283.4821681359, -78083.76289412534, -79717.13897194136, -82346.0840995412, -82613.70153590459, -83499.32235471277, -102645.87135861772, -0.016, 0.914, 0.384, 192.0, 0.0, 0.0, 0.0, 0.0, 0.0, 0.0, 0.0, 0.0, 0.0, 1.7401449128519468E9, 0.0, 2025-02-21 10:35:12.851
166.0, -80427.96914910903, -80603.16212214972, -79241.11387027668, -80677.25815501907, -81380.37698034967, -81458.00458884294, -82474.60663015922, -103566.94204413201, -0.016, 0.914, 0.384, 192.0, 0.0, 0.0, 0.0, 0.0, 0.0, 0.0, 0.0, 0.0, 0.0, 1.7401449128519652E9, 0.0, 2025-02-21 10:35:12.851
167.0, -81883.1794718718, -82072.87872706399, -77929.46880215035, -79596.55131060498, -82382.13746334761, -81950.41351919336, -82921.37329833189, -102564.68982275605, -0.016, 0.914, 0.384, 192.0, 0.0, 0.0, 0.0, 0.0, 0.0, 0.0, 0.0, 0.0, 0.0, 1.7401449128519833E9, 0.0, 2025-02-21 10:35:12.851
168.0, -82842.24812296011, -83020.39152626891, -76519.00667178711, -78429.05264247092, -83524.24454978044, -83185.74973174927, -84019.82742784351, -101454.65748961658, -0.02, 0.918, 0.38, 192.0, 255.0, 96.0, 28.0, 176.0, 11.0, 224.0, 0.0, 0.0, 0.0, 1.7401449128520017E9, 0.0, 2025-02-21 10:35:12.852
169.0, -81419.55958837982, -81580.33568624684, -77718.4906862367, -79414.0940206163, -82609.18648352462, -82824.52318960705, -83685.73590347003, -102360.84191332363, -0.02, 0.918, 0.38, 192.0, 0.0, 0.0, 0.0, 0.0, 0.0, 0.0, 0.0, 0.0, 0.0, 1.7401449128520212E9, 0.0, 2025-02-21 10:35:12.852
170.0, -80342.87605796767, -80514.35864142879, -79213.06243098527, -80651.66540761774, -81386.16608216359, -81549.71379634307, -82552.2342386525, -103538.42121820703, -0.02, 0.918, 0.38, 192.0, 0.0, 0.0, 0.0, 0.0, 0.0, 0.0, 0.0, 0.0, 0.0, 1.7401449128520396E9, 0.0, 2025-02-21 10:35:12.852
171.0, -81551.92661904414, -81740.68710096921, -78253.7702624524, -79862.82764230104, -82100.01374483273, -81733.86981891035, -82724.25326398054, -102814.09058738836, -0.02, 0.918, 0.38, 192.0, 0.0, 0.0, 0.0, 0.0, 0.0, 0.0, 0.0, 0.0, 0.0, 1.740144912852058E9, 0.0, 2025-02-21 10:35:12.852
172.0, -82845.06444276148, -83026.69471820531, -76579.64695449435, -78478.56175643942, -83437.98916792742, -83021.44205825831, -83874.78695807302, -101504.99361812993, -0.02, 0.918, 0.38, 192.0, 0.0, 0.0, 0.0, 0.0, 0.0, 0.0, 0.0, 0.0, 0.0, 1.740144912852076E9, 0.0, 2025-02-21 10:35:12.852
173.0, -81726.38198451782, -81888.23096611869, -77359.52167028448, -79116.18997051597, -82858.87782083487, -82999.78321788112, -83841.34874836788, -102081.53451461012, -0.02, 0.918, 0.38, 192.0, 0.0, 0.0, 0.0, 0.0, 0.0, 0.0, 0.0, 0.0, 0.0, 1.740144912852094E9, 0.0, 2025-02-21 10:35:12.852
174.0, -80339.12096489918, -80506.62493784726, -79085.74689456784, -80543.14768828722, -81460.55268771085, -81692.29557422348, -82675.43705409016, -103431.69163843294, -0.02, 0.918, 0.38, 192.0, 0.0, 0.0, 0.0, 0.0, 0.0, 0.0, 0.0, 0.0, 0.0, 1.7401449128521123E9, 0.0, 2025-02-21 10:35:12.852
175.0, -81231.13438262157, -81417.59263486775, -78539.31379786895, -80096.26926139227, -81843.63923593036, -81555.3464359458, -82562.49368935749, -103031.8189301275, -0.02, 0.918, 0.38, 192.0, 0.0, 0.0, 0.0, 0.0, 0.0, 0.0, 0.0, 0.0, 0.0, 1.7401449128521304E9, 0.0, 2025-02-21 10:35:12.852
176.0, -82761.91595338774, -82946.34019688847, -76725.9614736988, -78598.61297590888, -83285.63967772004, -82814.10727669088, -83691.07797039485, -101620.99917185298, -0.02, 0.918, 0.38, 192.0, 0.0, 0.0, 0.0, 0.0, 0.0, 0.0, 0.0, 0.0, 0.0, 1.7401449128521483E9, 0.0, 2025-02-21 10:35:12.852
177.0, -82033.45024984483, -82196.97561227986, -77030.682805858, -78844.16924049488, -83088.69845732432, -83138.00640559274, -83965.35622660593, -101827.99867725358, -0.02, 0.918, 0.38, 192.0, 0.0, 0.0, 0.0, 0.0, 0.0, 0.0, 0.0, 0.0, 0.0, 1.740144912852173E9, 0.0, 2025-02-21 10:35:12.852
178.0, -80425.68927117459, -80589.75107547654, -78876.2663455327, -80367.84295652425, -81609.19178833865, -81887.98509692968, -82847.50078290711, -103262.71245035082, -0.02, 0.922, 0.38, 192.0, 255.0, 96.0, 28.0, 208.0, 11.0, 224.0, 0.0, 0.0, 0.0, 1.7401449128521917E9, 0.0, 2025-02-21 10:35:12.852
179.0, -80925.92131208436, -81110.27850035173, -78790.77092299116, -80301.68179293655, -81618.04307914294, -81421.72770759198, -82440.36375765369, -103222.32284812008, -0.02, 0.922, 0.38, 192.0, 0.0, 0.0, 0.0, 0.0, 0.0, 0.0, 0.0, 0.0, 0.0, 1.7401449128522167E9, 0.0, 2025-02-21 10:35:12.852
180.0, -82582.85612855628, -82770.72254070312, -76951.49057525284, -78782.9478124318, -83062.94924771182, -82564.72886380301, -83466.75586304138, -101796.41566233823, -0.02, 0.922, 0.38, 192.0, 0.0, 0.0, 0.0, 0.0, 0.0, 0.0, 0.0, 0.0, 0.0, 1.7401449128522348E9, 0.0, 2025-02-21 10:35:12.852
181.0, -82297.40200011755, -82464.50364166542, -76760.98665726026, -78620.67414768627, -83263.08676756463, -83211.94597625089, -84030.28804424859, -101621.02152359743, -0.02, 0.922, 0.38, 192.0, 0.0, 0.0, 0.0, 0.0, 0.0, 0.0, 0.0, 0.0, 0.0, 1.740144912852253E9, 0.0, 2025-02-21 10:35:12.852
182.0, -80583.26906958451, -80746.10152794141, -78600.93755733223, -80138.13407875707, -81803.4060959108, -82102.76300940073, -83035.16602935387, -103043.24067154416, -0.02, 0.922, 0.38, 192.0, 0.0, 0.0, 0.0, 0.0, 0.0, 0.0, 0.0, 0.0, 0.0, 1.740144912852271E9, 0.0, 2025-02-21 10:35:12.852
183.0, -80664.5847159129, -80846.70672973475, -78979.57610840513, -80455.57355351133, -81444.75000438094, -81345.48590725493, -82368.72641667443, -103363.87644575554, -0.02, 0.922, 0.38, 192.0, 0.0, 0.0, 0.0, 0.0, 0.0, 0.0, 0.0, 0.0, 0.0, 1.740144912852289E9, 0.0, 2025-02-21 10:35:12.852
184.0, -82336.15992500304, -82525.90388368415, -77236.98940718049, -79017.01528036778, -82799.33277360591, -82302.98993623137, -83230.56497938216, -102017.74263593467, -0.02, 0.922, 0.38, 192.0, 0.0, 0.0, 0.0, 0.0, 0.0, 0.0, 0.0, 0.0, 0.0, 1.740144912852307E9, 0.0, 2025-02-21 10:35:12.852
185.0, -82522.39465980466, -82692.98317348758, -76548.60038144594, -78444.1177182338, -83385.46256845744, -83226.58636886912, -84043.81084964405, -101458.7478588519, -0.02, 0.922, 0.38, 192.0, 0.0, 0.0, 0.0, 0.0, 0.0, 0.0, 0.0, 0.0, 0.0, 1.7401449128523257E9, 0.0, 2025-02-21 10:35:12.852
186.0, -80809.20050253875, -80969.88719342795, -78257.25713458743, -79851.36119739547, -82042.52505809368, -82336.00346279186, -83241.11500276506, -102770.61644442278, -0.02, 0.922, 0.38, 192.0, 0.0, 0.0, 0.0, 0.0, 0.0, 0.0, 0.0, 0.0, 0.0, 1.740144912852344E9, 0.0, 2025-02-21 10:35:12.852
187.0, -80449.65034123068, -80627.50317186155, -79097.30274645123, -80550.14378430173, -81325.50344771189, -81327.82802913524, -82350.35328273216, -103448.54485375225, -0.02, 0.922, 0.38, 192.0, 0.0, 0.0, 0.0, 0.0, 0.0, 0.0, 0.0, 0.0, 0.0, 1.7401449128523622E9, 0.0, 2025-02-21 10:35:12.852
188.0, -82041.49687784874, -82231.15142955202, -77562.38610296084, -79284.52095800888, -82513.9233486561, -82045.54254359515, -82998.4868167027, -102269.62444420153, -0.024, 0.916, 0.376, 192.0, 255.0, 64.0, 28.0, 160.0, 11.0, 192.0, 0.0, 0.0, 0.0, 1.7401449128523803E9, 0.0, 2025-02-21 10:35:12.852
189.0, -82678.96862971409, -82852.70873936519, -76435.67936845773, -78350.50861245497, -83437.47507780493, -83174.75267347725, -83998.99560201116, -101375.01822412232, -0.024, 0.916, 0.376, 192.0, 0.0, 0.0, 0.0, 0.0, 0.0, 0.0, 0.0, 0.0, 0.0, 1.7401449128523998E9, 0.0, 2025-02-21 10:35:12.852
190.0, -81089.35726754156, -81249.68633051949, -77891.87316797652, -79547.80215594795, -82305.96271824393, -82564.81827078084, -83443.57710404124, -102484.17883922803, -0.024, 0.916, 0.376, 192.0, 0.0, 0.0, 0.0, 0.0, 0.0, 0.0, 0.0, 0.0, 0.0, 1.7401449128524182E9, 0.0, 2025-02-21 10:35:12.852
191.0, -80303.73815342643, -80478.01470494446, -79130.74095615637, -80574.88716541376, -81275.97198199893, -81374.67728551356, -82387.50188201689, -103467.36502258362, -0.024, 0.916, 0.376, 192.0, 0.0, 0.0, 0.0, 0.0, 0.0, 0.0, 0.0, 0.0, 0.0, 1.7401449128524363E9, 0.0, 2025-02-21 10:35:12.852
192.0, -81713.55208320047, -81903.11722792593, -77891.44848483187, -79554.19475486217, -82220.02026081327, -81802.06499124349, -82777.15984310626, -102522.55678445779, -0.024, 0.916, 0.376, 192.0, 0.0, 0.0, 0.0, 0.0, 0.0, 0.0, 0.0, 0.0, 0.0, 1.740144912852461E9, 0.0, 2025-02-21 10:35:12.852
193.0, -82752.19294454968, -82931.09630716995, -76413.77465889152, -78331.50962966795, -83412.15055133708, -83056.48959356423, -83893.8976995823, -101361.11543907112, -0.024, 0.916, 0.376, 192.0, 0.0, 0.0, 0.0, 0.0, 0.0, 0.0, 0.0, 0.0, 0.0, 1.7401449128524797E9, 0.0, 2025-02-21 10:35:12.852
194.0, -81382.34393386173, -81542.78475556192, -77532.34535841292, -79249.31696049178, -82560.95141899007, -82763.56998247743, -83619.77590558243, -102203.32917014709, -0.024, 0.916, 0.376, 192.0, 0.0, 0.0, 0.0, 0.0, 0.0, 0.0, 0.0, 0.0, 0.0, 1.740144912852498E9, 0.0, 2025-02-21 10:35:12.852
195.0, -80233.50897234786, -80404.18689300858, -79082.6176503441, -80532.3070922264, -81292.78049382931, -81472.30970529433, -82471.23151674647, -103422.92975460646, -0.024, 0.916, 0.376, 192.0, 0.0, 0.0, 0.0, 0.0, 0.0, 0.0, 0.0, 0.0, 0.0, 1.7401449128525229E9, 0.0, 2025-02-21 10:35:12.852
196.0, -81381.42751233907, -81569.96447681957, -78207.45744794101, -79813.20676961026, -81941.2940074556, -81590.97511660757, -82585.18070997963, -102765.09556354232, -0.024, 0.916, 0.376, 192.0, 0.0, 0.0, 0.0, 0.0, 0.0, 0.0, 0.0, 0.0, 0.0, 1.7401449128525412E9, 0.0, 2025-02-21 10:35:12.852
197.0, -82736.97140657561, -82919.40634481983, -76489.59177608392, -78393.24514785352, -83311.79121873275, -82880.98369610116, -83738.32955817337, -101423.23093691241, -0.024, 0.916, 0.376, 192.0, 0.0, 0.0, 0.0, 0.0, 0.0, 0.0, 0.0, 0.0, 0.0, 1.7401449128525596E9, 0.0, 2025-02-21 10:35:12.852
198.0, -81694.88837658029, -81857.27380004809, -77170.82824359277, -78949.49066036829, -82811.96150922317, -82934.8737519829, -83771.90187834525, -101922.77007374408, -0.02, 0.918, 0.378, 192.0, 255.0, 96.0, 28.0, 176.0, 11.0, 208.0, 0.0, 0.0, 0.0, 1.7401449128525782E9, 0.0, 2025-02-21 10:35:12.852
199.0, -80249.75869056687, -80416.65916641464, -78936.05726195064, -80408.56783492182, -81387.48483508645, -81632.2140851276, -82609.85703585828, -103301.96211361434, -0.02, 0.918, 0.378, 192.0, 0.0, 0.0, 0.0, 0.0, 0.0, 0.0, 0.0, 0.0, 0.0, 1.7401449128525977E9, 0.0, 2025-02-21 10:35:12.852
200.0, -81059.83061311611, -81246.53473455129, -78490.51993972302, -80045.17317356744, -81689.61336488884, -81421.12421049169, -82430.9089697491, -102981.10282195841, -0.02, 0.918, 0.378, 192.0, 0.0, 0.0, 0.0, 0.0, 0.0, 0.0, 0.0, 0.0, 0.0, 1.740144912852616E9, 0.0, 2025-02-21 10:35:12.852
201.0, -82627.04552734441, -82813.95081447969, -76659.26386824416, -78532.5859227879, -83138.87812362649, -82658.85205970431, -83540.27075055489, -101557.09553445525, -0.02, 0.918, 0.378, 192.0, 0.0, 0.0, 0.0, 0.0, 0.0, 0.0, 0.0, 0.0, 0.0, 1.7401449128526344E9, 0.0, 2025-02-21 10:35:12.852
202.0, -81991.71954294677, -82156.72012051585, -76854.34989385009, -78687.66232581882, -83029.28752056212, -83058.07656742056, -83881.42542617624, -101678.77843126994, -0.02, 0.918, 0.378, 192.0, 0.0, 0.0, 0.0, 0.0, 0.0, 0.0, 0.0, 0.0, 0.0, 1.7401449128526528E9, 0.0, 2025-02-21 10:35:12.852
203.0, -80350.38624410465, -80514.49275189552, -78713.21036973124, -80222.02017569783, -81544.23761895152, -81830.58581716845, -82783.46303504266, -103122.20938470477, -0.02, 0.918, 0.378, 192.0, 0.0, 0.0, 0.0, 0.0, 0.0, 0.0, 0.0, 0.0, 0.0, 1.740144912852671E9, 0.0, 2025-02-21 10:35:12.852
204.0, -80766.59807760693, -80950.79880366311, -78728.32014898302, -80239.45453637297, -81477.56236524133, -81302.36939220064, -82321.74304982937, -103161.14612354591, -0.02, 0.918, 0.378, 192.0, 0.0, 0.0, 0.0, 0.0, 0.0, 0.0, 0.0, 0.0, 0.0, 1.7401449128526893E9, 0.0, 2025-02-21 10:35:12.852
205.0, -82433.97115873947, -82622.12814356424, -76900.1039147501, -78729.46008795024, -82906.95642315822, -82406.79143748182, -83314.07109666719, -101744.15728380172, -0.02, 0.918, 0.378, 192.0, 0.0, 0.0, 0.0, 0.0, 0.0, 0.0, 0.0, 0.0, 0.0, 1.7401449128527076E9, 0.0, 2025-02-21 10:35:12.852
206.0, -82255.4701275194, -82422.5494173228, -76584.25141385215, -78462.93788706517, -83196.81384525464, -83120.63910015096, -83937.2153803367, -101470.7507456244, -0.02, 0.918, 0.378, 192.0, 0.0, 0.0, 0.0, 0.0, 0.0, 0.0, 0.0, 0.0, 0.0, 1.7401449128527255E9, 0.0, 2025-02-21 10:35:12.852
207.0, -80532.97764456006, -80694.06666684947, -78405.3597933483, -79964.75159701724, -81758.92612444474, -82060.24999144673, -82985.29928747407, -102876.94369279667, -0.02, 0.918, 0.378, 192.0, 0.0, 0.0, 0.0, 0.0, 0.0, 0.0, 0.0, 0.0, 0.0, 1.7401449128527582E9, 0.0, 2025-02-21 10:35:12.852
208.0, -80510.33532742683, -80690.84801564789, -78903.20019760134, -80381.27635494189, -81312.83000860573, -81238.89043794757, -82262.30976132271, -103290.87564836451, -0.022, 0.918, 0.378, 192.0, 255.0, 80.0, 28.0, 176.0, 11.0, 208.0, 0.0, 0.0, 0.0, 1.7401449128527768E9, 0.0, 2025-02-21 10:35:12.852
209.0, -82177.61900158155, -82367.60882945167, -77200.6678224406, -78976.58097464812, -82640.12129785077, -82147.82412622264, -83080.89769850942, -101977.8224203375, -0.022, 0.918, 0.378, 192.0, 0.0, 0.0, 0.0, 0.0, 0.0, 0.0, 0.0, 0.0, 0.0, 1.7401449128527966E9, 0.0, 2025-02-21 10:35:12.852
210.0, -82472.57262141378, -82644.32342580837, -76407.69498439968, -78317.91976903913, -83311.79121873275, -83129.24452176626, -83946.2678368411, -101339.03191554928, -0.022, 0.918, 0.378, 192.0, 0.0, 0.0, 0.0, 0.0, 0.0, 0.0, 0.0, 0.0, 0.0, 1.7401449128528216E9, 0.0, 2025-02-21 10:35:12.852
211.0, -80779.09270275745, -80939.10884131299, -78067.71434160642, -79684.77364597007, -82010.8079327116, -82299.01132571833, -83197.08206618812, -102611.65083785664, -0.022, 0.918, 0.378, 192.0, 0.0, 0.0, 0.0, 0.0, 0.0, 0.0, 0.0, 0.0, 0.0, 1.7401449128528404E9, 0.0, 2025-02-21 10:35:12.852
212.0, -80315.51752275438, -80492.2974696514, -79004.69946917289, -80462.97198092604, -81213.9682428799, -81239.0245484143, -82259.44873803243, -103363.67528005544, -0.022, 0.918, 0.378, 192.0, 0.0, 0.0, 0.0, 0.0, 0.0, 0.0, 0.0, 0.0, 0.0, 1.7401449128528588E9, 0.0, 2025-02-21 10:35:12.852
213.0, -81867.71206470873, -82057.92541002338, -77530.80308804549, -79247.48411744644, -82347.3805007196, -81890.13086439739, -82847.16550674028, -102232.54290015018, -0.022, 0.918, 0.378, 192.0, 0.0, 0.0, 0.0, 0.0, 0.0, 0.0, 0.0, 0.0, 0.0, 1.7401449128528771E9, 0.0, 2025-02-21 10:35:12.852
214.0, -82600.53635842042, -82776.15401460577, -76321.73017522457, -78246.01420712641, -83337.18280043398, -83053.85208771851, -83879.07849300843, -101275.5529612962, -0.022, 0.918, 0.378, 192.0, 0.0, 0.0, 0.0, 0.0, 0.0, 0.0, 0.0, 0.0, 0.0, 1.740144912852896E9, 0.0, 2025-02-21 10:35:12.852
215.0, -81056.8354793591, -81217.07513535919, -77702.57624418453, -79380.72286614453, -82265.46135729091, -82512.40343003314, -83385.37316147961, -102324.72149428386, -0.022, 0.918, 0.378, 192.0, 0.0, 0.0, 0.0, 0.0, 0.0, 0.0, 0.0, 0.0, 0.0, 1.7401449128529143E9, 0.0, 2025-02-21 10:35:12.852
216.0, -80187.39732353656, -80360.64569480965, -79014.73540243333, -80467.91171645066, -81179.79242560774, -81297.72022935394, -82307.37087814462, -103363.83174226663, -0.022, 0.918, 0.378, 192.0, 0.0, 0.0, 0.0, 0.0, 0.0, 0.0, 0.0, 0.0, 0.0, 1.7401449128529327E9, 0.0, 2025-02-21 10:35:12.852
217.0, -81539.90138052718, -81729.51122874155, -77863.66526647392, -79521.02476609049, -82059.31121817962, -81658.23151567359, -82637.19321932712, -102489.27503696384, -0.022, 0.918, 0.378, 192.0, 0.0, 0.0, 0.0, 0.0, 0.0, 0.0, 0.0, 0.0, 0.0, 1.740144912852951E9, 0.0, 2025-02-21 10:35:12.852
218.0, -82658.51678353749, -82837.66601534677, -76324.68060549267, -78247.93645714957, -83297.15082611452, -82923.09438265496, -83765.19635500865, -101281.58793229914, -0.018000000000000002, 0.92, 0.38, 192.0, 255.0, 112.0, 28.0, 192.0, 11.0, 224.0, 0.0, 0.0, 0.0, 1.7401449128529692E9, 0.0, 2025-02-21 10:35:12.852
219.0, -81367.30120984331, -81528.07730771034, -77334.57712347235, -79075.97918224087, -82530.88832269769, -82714.48555165358, -83566.26582935642, -102038.32859257801, -0.018000000000000002, 0.92, 0.38, 192.0, 0.0, 0.0, 0.0, 0.0, 0.0, 0.0, 0.0, 0.0, 0.0, 1.7401449128529887E9, 0.0, 2025-02-21 10:35:12.852
220.0, -80140.63747413606, -80310.53308374084, -78943.70155855437, -80407.40554421015, -81221.41137378351, -81419.20196046853, -82412.87111197367, -103302.14092756998, -0.018000000000000002, 0.92, 0.38, 192.0, 0.0, 0.0, 0.0, 0.0, 0.0, 0.0, 0.0, 0.0, 0.0, 1.740144912853007E9, 0.0, 2025-02-21 10:35:12.853
221.0, -81209.60965271112, -81397.38665788015, -78173.28163066883, -79774.80647263605, -81785.63645906883, -81455.9258766086, -82453.73010083796, -102726.40469389019, -0.018000000000000002, 0.92, 0.38, 192.0, 0.0, 0.0, 0.0, 0.0, 0.0, 0.0, 0.0, 0.0, 0.0, 1.7401449128530252E9, 0.0, 2025-02-21 10:35:12.853
222.0, -82622.44106798663, -82804.7418957641, -76422.9388741182, -78328.31333021085, -83179.9829816798, -82738.04429030947, -83600.37459139522, -101360.69075592647, -0.018000000000000002, 0.92, 0.38, 192.0, 0.0, 0.0, 0.0, 0.0, 0.0, 0.0, 0.0, 0.0, 0.0, 1.7401449128530505E9, 0.0, 2025-02-21 10:35:12.853
223.0, -81678.39278917227, -81840.33117775097, -76987.38747684807, -78788.53574854562, -82775.37170354983, -82877.85445187741, -83710.50163632652, -101769.5265137585, -0.018000000000000002, 0.92, 0.38, 192.0, 0.0, 0.0, 0.0, 0.0, 0.0, 0.0, 0.0, 0.0, 0.0, 1.7401449128530693E9, 0.0, 2025-02-21 10:35:12.853
224.0, -80180.66944845552, -80346.94407545854, -78780.08678914151, -80269.74115010991, -81332.03015709283, -81589.76812240698, -82561.06317771235, -103168.0528125826, -0.018000000000000002, 0.92, 0.38, 192.0, 0.0, 0.0, 0.0, 0.0, 0.0, 0.0, 0.0, 0.0, 0.0, 1.7401449128530872E9, 0.0, 2025-02-21 10:35:12.853
225.0, -80896.72993382573, -81082.76350292725, -78444.43064265617, -79996.84870205507, -81545.01993000746, -81299.6424793771, -82311.70711656894, -102932.86775742385, -0.018000000000000002, 0.92, 0.38, 192.0, 0.0, 0.0, 0.0, 0.0, 0.0, 0.0, 0.0, 0.0, 0.0, 1.7401449128531115E9, 0.0, 2025-02-21 10:35:12.853
226.0, -82492.6221361902, -82678.40983610271, -76608.30189088605, -78480.19343378466, -82994.21763351174, -82509.47535150949, -83396.81725464073, -101506.02179837487, -0.018000000000000002, 0.92, 0.38, 192.0, 0.0, 0.0, 0.0, 0.0, 0.0, 0.0, 0.0, 0.0, 0.0, 1.74014491285313E9, 0.0, 2025-02-21 10:35:12.853
227.0, -81962.19288852131, -82126.65702422346, -76684.78956041211, -78537.48095482361, -82977.67734261481, -82983.19822349527, -83804.87070141682, -101535.99548768945, -0.018000000000000002, 0.92, 0.38, 192.0, 0.0, 0.0, 0.0, 0.0, 0.0, 0.0, 0.0, 0.0, 0.0, 1.7401449128531487E9, 0.0, 2025-02-21 10:35:12.853
228.0, -80296.36207775619, -80460.06625414685, -78538.37502460183, -80067.05553138918, -81498.4835980515, -81790.86676727138, -82737.21727576462, -102973.4585253547, -0.014, 0.92, 0.382, 192.0, 255.0, 144.0, 28.0, 192.0, 11.0, 240.0, 0.0, 0.0, 0.0, 1.7401449128531668E9, 0.0, 2025-02-21 10:35:12.853
229.0, -80611.29815713146, -80794.24718549814, -78667.09872091994, -80178.41192226553, -81342.58018047574, -81191.63885016905, -82212.01833629828, -103100.81876526104, -0.014, 0.92, 0.382, 192.0, 0.0, 0.0, 0.0, 0.0, 0.0, 0.0, 0.0, 0.0, 0.0, 1.7401449128531864E9, 0.0, 2025-02-21 10:35:12.853
230.0, -82286.85197673464, -82476.03714180437, -76860.96601020885, -78687.1705874408, -82756.0821480849, -82257.3700257981, -83169.05297864115, -101702.49363213702, -0.014, 0.92, 0.382, 192.0, 0.0, 0.0, 0.0, 0.0, 0.0, 0.0, 0.0, 0.0, 0.0, 1.7401449128532045E9, 0.0, 2025-02-21 10:35:12.853
231.0, -82213.76177236579, -82383.32210580375, -76438.42863302573, -78333.27541747993, -83133.62546367949, -83035.9930438987, -83850.78118452802, -101347.52557844229, -0.014, 0.92, 0.382, 192.0, 0.0, 0.0, 0.0, 0.0, 0.0, 0.0, 0.0, 0.0, 0.0, 1.7401449128532228E9, 0.0, 2025-02-21 10:35:12.853
232.0, -80484.20613815858, -80645.87630580382, -78235.37477676569, -79814.30200508857, -81713.77560064502, -82016.03824091415, -82935.05256593855, -102732.66318233767, -0.014, 0.92, 0.382, 192.0, 0.0, 0.0, 0.0, 0.0, 0.0, 0.0, 0.0, 0.0, 0.0, 1.7401449128532412E9, 0.0, 2025-02-21 10:35:12.853
233.0, -80368.8711367692, -80548.66856916768, -78824.18678095183, -80305.34747902722, -81190.85653911311, -81138.19582917642, -82161.48104208482, -103216.57844979507, -0.014, 0.92, 0.382, 192.0, 0.0, 0.0, 0.0, 0.0, 0.0, 0.0, 0.0, 0.0, 0.0, 1.740144912853259E9, 0.0, 2025-02-21 10:35:12.853
234.0, -82017.53580779265, -82207.01154554028, -77163.6086301337, -78935.36435787253, -82480.99922907344, -81994.6029179815, -82933.1750194043, -101936.73991402864, -0.014, 0.92, 0.382, 192.0, 0.0, 0.0, 0.0, 0.0, 0.0, 0.0, 0.0, 0.0, 0.0, 1.7401449128532777E9, 0.0, 2025-02-21 10:35:12.853
235.0, -82410.14419915012, -82582.00676226697, -76270.07529378835, -78193.53231114535, -83225.91581653546, -83020.45858150227, -83838.77829775552, -101220.1429867915, -0.014, 0.92, 0.382, 192.0, 0.0, 0.0, 0.0, 0.0, 0.0, 0.0, 0.0, 0.0, 0.0, 1.740144912853296E9, 0.0, 2025-02-21 10:35:12.853
236.0, -80737.98784470414, -80897.71341058177, -77882.127807394, -79520.60008294584, -81966.55147869009, -82249.09988034963, -83141.13564981648, -102454.33926038019, -0.014, 0.92, 0.382, 192.0, 0.0, 0.0, 0.0, 0.0, 0.0, 0.0, 0.0, 0.0, 0.0, 1.740144912853314E9, 0.0, 2025-02-21 10:35:12.853
237.0, -80186.81617818073, -80362.3667791327, -78906.1729796139, -80370.5698693478, -81104.37763981553, -81150.71280607139, -82169.10298694408, -103273.66480513393, -0.014, 0.92, 0.382, 192.0, 0.0, 0.0, 0.0, 0.0, 0.0, 0.0, 0.0, 0.0, 0.0, 1.740144912853339E9, 0.0, 2025-02-21 10:35:12.853
238.0, -81703.3373359844, -81893.14834989887, -77494.32504109443, -79206.69218381551, -82188.5043011313, -81741.8940951698, -82704.29315618196, -102191.72861477478, -0.018000000000000002, 0.918, 0.382, 192.0, 255.0, 112.0, 28.0, 176.0, 11.0, 240.0, 0.0, 0.0, 0.0, 1.7401449128533576E9, 0.0, 2025-02-21 10:35:12.853
239.0, -82533.05644190985, -82709.63522310677, -76196.69451674158, -78132.42264180454, -83244.8477440891, -82938.4723828402, -83767.6773986432, -101167.03524196568, -0.018000000000000002, 0.918, 0.382, 192.0, 0.0, 0.0, 0.0, 0.0, 0.0, 0.0, 0.0, 0.0, 0.0, 1.740144912853377E9, 0.0, 2025-02-21 10:35:12.853
240.0, -81040.49635416227, -81200.57954795117, -77500.13649465282, -79203.42882912503, -82240.31564477869, -82474.22665050348, -83341.9660737474, -102155.45173352382, -0.018000000000000002, 0.918, 0.382, 192.0, 0.0, 0.0, 0.0, 0.0, 0.0, 0.0, 0.0, 0.0, 0.0, 1.7401449128534029E9, 0.0, 2025-02-21 10:35:12.853
241.0, -80073.96222042588, -80245.60126609818, -78897.67931672088, -80360.69039829855, -81089.37961928602, -81228.60863549812, -82235.33120576516, -103259.51615089372, -0.018000000000000002, 0.918, 0.382, 192.0, 0.0, 0.0, 0.0, 0.0, 0.0, 0.0, 0.0, 0.0, 0.0, 1.7401449128534217E9, 0.0, 2025-02-21 10:35:12.853
242.0, -81369.08934939973, -81557.73807260253, -77823.23096075427, -79476.34362892433, -81898.1327889124, -81510.41942959063, -82494.74555191345, -102444.41508584203, -0.018000000000000002, 0.918, 0.382, 192.0, 0.0, 0.0, 0.0, 0.0, 0.0, 0.0, 0.0, 0.0, 0.0, 1.7401449133315597E9, 0.0, 2025-02-21 10:35:13.331
243.0, -82565.4441196256, -82746.13562180228, -76224.96947347754, -78155.0426071933, -83183.96159219285, -82792.58254678042, -83637.52319067993, -101192.44917541137, -0.018000000000000002, 0.918, 0.382, 192.0, 0.0, 0.0, 0.0, 0.0, 0.0, 0.0, 0.0, 0.0, 0.0, 1.7401449133316317E9, 0.0, 2025-02-21 10:35:13.331
244.0, -81339.18271531853, -81500.22703411902, -77147.15774621461, -78910.6209767605, -82489.73876115546, -82658.13680388175, -83503.70329662602, -101880.63703544582, -0.018000000000000002, 0.918, 0.382, 192.0, 0.0, 0.0, 0.0, 0.0, 0.0, 0.0, 0.0, 0.0, 0.0, 1.7401449133316743E9, 0.0, 2025-02-21 10:35:13.331
245.0, -80040.56871420964, -80209.19027438048, -78807.53473133263, -80283.44276946102, -81137.77114603177, -81351.36441604668, -82339.80325934927, -103182.22381856726, -0.018000000000000002, 0.918, 0.382, 192.0, 0.0, 0.0, 0.0, 0.0, 0.0, 0.0, 0.0, 0.0, 0.0, 1.740144913331694E9, 0.0, 2025-02-21 10:35:13.331
246.0, -81039.53522915069, -81227.178123853, -78128.0416998913, -79726.10202146793, -81629.10719264833, -81316.47334295194, -82317.4291631495, -102677.81200144434, -0.018000000000000002, 0.918, 0.382, 192.0, 0.0, 0.0, 0.0, 0.0, 0.0, 0.0, 0.0, 0.0, 0.0, 1.7401449133317137E9, 0.0, 2025-02-21 10:35:13.331
247.0, -82507.01665961942, -82691.2620891645, -76342.4725940791, -78250.68572171757, -83048.21944811576, -82592.40032343869, -83460.0056362159, -101285.87946723455, -0.018000000000000002, 0.918, 0.382, 192.0, 0.0, 0.0, 0.0, 0.0, 0.0, 0.0, 0.0, 0.0, 0.0, 1.7401449133317323E9, 0.0, 2025-02-21 10:35:13.331
248.0, -81647.99441671306, -81811.22920647016, -76800.21396877932, -78622.7081564317, -82727.91895007121, -82809.301651633, -83638.46196394706, -101611.67849441511, -0.018000000000000002, 0.922, 0.386, 192.0, 255.0, 112.0, 28.0, 208.0, 12.0, 16.0, 0.0, 0.0, 0.0, 1.7401449133317509E9, 0.0, 2025-02-21 10:35:13.331
249.0, -80097.96799397087, -80262.81210932876, -78622.66345294278, -80128.07579375217, -81263.38794987058, -81531.87710426774, -82497.58422345927, -103031.70717140523, -0.018000000000000002, 0.922, 0.386, 192.0, 0.0, 0.0, 0.0, 0.0, 0.0, 0.0, 0.0, 0.0, 0.0, 1.740144913331771E9, 0.0, 2025-02-21 10:35:13.331
250.0, -80729.53888530003, -80913.94077705631, -78391.21113910808, -79941.371672317, -81394.32446888977, -81168.37068419108, -82183.38575165102, -102877.92716955271, -0.018000000000000002, 0.922, 0.386, 192.0, 0.0, 0.0, 0.0, 0.0, 0.0, 0.0, 0.0, 0.0, 0.0, 1.7401449133317895E9, 0.0, 2025-02-21 10:35:13.331
251.0, -82355.62829442362, -82541.95243620306, -76546.81224188951, -78417.8097150099, -82845.42207067276, -82353.41547172255, -83246.61353190106, -101445.26975694534, -0.018000000000000002, 0.922, 0.386, 192.0, 0.0, 0.0, 0.0, 0.0, 0.0, 0.0, 0.0, 0.0, 0.0, 1.740144913331808E9, 0.0, 2025-02-21 10:35:13.331
252.0, -81928.6876235828, -82094.24699476326, -76506.8026193145, -78379.27530756895, -82921.66387100982, -82904.00599289012, -83722.79509577694, -101385.4341370385, -0.018000000000000002, 0.922, 0.386, 192.0, 0.0, 0.0, 0.0, 0.0, 0.0, 0.0, 0.0, 0.0, 0.0, 1.7401449133318684E9, 0.0, 2025-02-21 10:35:13.331
253.0, -80234.24657991488, -80397.30255571635, -78360.87982188223, -79908.82753239007, -81445.33114973678, -81743.41401379276, -82682.41079836022, -102821.48901480305, -0.018000000000000002, 0.922, 0.386, 192.0, 0.0, 0.0, 0.0, 0.0, 0.0, 0.0, 0.0, 0.0, 0.0, 1.7401449133318872E9, 0.0, 2025-02-21 10:35:13.331
254.0, -80449.31506506384, -80631.39237539678, -78598.21064450868, -80109.38973538754, -81199.84194038415, -81071.43116848842, -82092.97294532931, -103032.60124118344, -0.018000000000000002, 0.922, 0.386, 192.0, 0.0, 0.0, 0.0, 0.0, 0.0, 0.0, 0.0, 0.0, 0.0, 1.740144913331906E9, 0.0, 2025-02-21 10:35:13.331
255.0, -82132.15555335947, -82320.49135213988, -76814.29556778618, -78636.92386590528, -82595.95425080709, -82096.54922444216, -83015.92117737785, -101653.05157340188, -0.018000000000000002, 0.922, 0.386, 192.0, 0.0, 0.0, 0.0, 0.0, 0.0, 0.0, 0.0, 0.0, 0.0, 1.7401449133319356E9, 0.0, 2025-02-21 10:35:13.331
0.0, -82165.16907991994, -82333.54477090178, -76282.94989859461, -78193.68877335654, -83060.89288722193, -82938.40532760684, -83754.22164848109, -101214.6444576555, -0.018000000000000002, 0.922, 0.386, 192.0, 0.0, 0.0, 0.0, 0.0, 0.0, 0.0, 0.0, 0.0, 0.0, 1.7401449133319545E9, 0.0, 2025-02-21 10:35:13.331
1.0, -80434.00412011196, -80594.64610751225, -78048.42478614149, -79648.13913680782, -81665.11585296581, -81965.65740891188, -82878.05561757751, -102573.45170658252, -0.018000000000000002, 0.922, 0.386, 192.0, 0.0, 0.0, 0.0, 0.0, 0.0, 0.0, 0.0, 0.0, 0.0, 1.7401449133319728E9, 0.0, 2025-02-21 10:35:13.331
2.0, -80222.17663790901, -80400.85648308475, -78738.1325647989, -80222.44485884249, -81064.32331375162, -81033.47790640329, -82055.8690495335, -103135.46396916675, -0.018000000000000002, 0.92, 0.388, 192.0, 255.0, 112.0, 28.0, 192.0, 12.0, 32.0, 0.0, 0.0, 0.0, 1.7401449133319914E9, 0.0, 2025-02-21 10:35:13.331
3.0, -81850.79179415606, -82040.08871794805, -77126.951769227, -78893.45483701883, -82316.80331430475, -81836.19610502674, -82780.46790128564, -101894.96450364168, -0.018000000000000002, 0.92, 0.388, 192.0, 0.0, 0.0, 0.0, 0.0, 0.0, 0.0, 0.0, 0.0, 0.0, 1.7401449133320117E9, 0.0, 2025-02-21 10:35:13.332
4.0, -82346.70994838595, -82519.04189813638, -76135.42838518959, -78071.13415850808, -83138.18521954838, -82907.80578944752, -83728.1148109573, -101103.55628771262, -0.018000000000000002, 0.92, 0.388, 192.0, 0.0, 0.0, 0.0, 0.0, 0.0, 0.0, 0.0, 0.0, 0.0, 1.74014491333203E9, 0.0, 2025-02-21 10:35:13.332
5.0, -80701.28628030853, -80860.52010780813, -77686.6394503879, -79347.46347039503, -81925.87130378143, -82199.85898731458, -83085.70332356732, -102288.8469444331, -0.018000000000000002, 0.92, 0.388, 192.0, 0.0, 0.0, 0.0, 0.0, 0.0, 0.0, 0.0, 0.0, 0.0, 1.7401449133320482E9, 0.0, 2025-02-21 10:35:13.332
6.0, -80054.73972019431, -80229.6421205571, -78803.31025163058, -80273.96562981197, -80994.40705709542, -81062.22224977282, -82078.15373875544, -103179.58631272154, -0.018000000000000002, 0.92, 0.388, 192.0, 0.0, 0.0, 0.0, 0.0, 0.0, 0.0, 0.0, 0.0, 0.0, 1.7401449133320665E9, 0.0, 2025-02-21 10:35:13.332
7.0, -81531.1394967007, -81720.72699317063, -77459.32220927742, -79166.25787809586, -82024.35308985152, -81588.09174157283, -82555.74346253199, -102151.38371603296, -0.018000000000000002, 0.92, 0.388, 192.0, 0.0, 0.0, 0.0, 0.0, 0.0, 0.0, 0.0, 0.0, 0.0, 1.7401449133320973E9, 0.0, 2025-02-21 10:35:13.332
8.0, -82448.56684786879, -82626.08440233284, -76086.94745146603, -78030.58809406616, -83139.48162072679, -82812.34148887891, -83644.11695529424, -101069.98396754074, -0.018000000000000002, 0.92, 0.388, 192.0, 0.0, 0.0, 0.0, 0.0, 0.0, 0.0, 0.0, 0.0, 0.0, 1.740144913332116E9, 0.0, 2025-02-21 10:35:13.332
9.0, -81003.14658917744, -81163.67681785546, -77315.93576859662, -79039.99287366783, -82194.04753375621, -82416.33563236424, -83277.57069797168, -101999.48126071469, -0.018000000000000002, 0.92, 0.388, 192.0, 0.0, 0.0, 0.0, 0.0, 0.0, 0.0, 0.0, 0.0, 0.0, 1.7401449133321345E9, 0.0, 2025-02-21 10:35:13.332
10.0, -79962.76229176072, -80133.84254382165, -78777.76220771816, -80250.38453941162, -80995.39053385146, -81152.16566946098, -82153.92615245892, -103152.6971641418, -0.018000000000000002, 0.92, 0.388, 192.0, 0.0, 0.0, 0.0, 0.0, 0.0, 0.0, 0.0, 0.0, 0.0, 1.740144913332153E9, 0.0, 2025-02-21 10:35:13.332
11.0, -81199.6184229396, -81387.77540776438, -77782.32726840106, -79431.1484016357, -81739.9494934022, -81366.69771274301, -82354.26483801185, -102399.44337599796, -0.018000000000000002, 0.92, 0.388, 192.0, 0.0, 0.0, 0.0, 0.0, 0.0, 0.0, 0.0, 0.0, 0.0, 1.7401449133321793E9, 0.0, 2025-02-21 10:35:13.332
12.0, -82464.30247596532, -82644.88221941976, -76131.89680956565, -78066.82027182821, -83063.70920702329, -82655.38753931374, -83505.08910478224, -101107.89252613694, -0.018000000000000002, 0.916, 0.382, 192.0, 255.0, 112.0, 28.0, 160.0, 11.0, 240.0, 0.0, 0.0, 0.0, 1.740144913332198E9, 0.0, 2025-02-21 10:35:13.332
13.0, -81313.45585745048, -81474.14254833967, -76957.52554625578, -78742.9381898568, -82449.79619381383, -82600.62576539825, -83441.38663308462, -101721.04558003493, -0.018000000000000002, 0.916, 0.382, 192.0, 0.0, 0.0, 0.0, 0.0, 0.0, 0.0, 0.0, 0.0, 0.0, 1.7401449133322175E9, 0.0, 2025-02-21 10:35:13.332
14.0, -79952.1675648889, -80118.68806108095, -78664.08123541847, -80153.80265162024, -81066.22321203032, -81294.03219151881, -82276.68193300748, -103057.34462229547, -0.018000000000000002, 0.916, 0.382, 192.0, 0.0, 0.0, 0.0, 0.0, 0.0, 0.0, 0.0, 0.0, 0.0, 1.7401449133322425E9, 0.0, 2025-02-21 10:35:13.332
15.0, -80873.95350622578, -81059.36122648255, -78082.55589992474, -79677.39757029981, -81479.19404258658, -81183.70398088741, -82188.28078368674, -102629.4204746986, -0.018000000000000002, 0.916, 0.382, 192.0, 0.0, 0.0, 0.0, 0.0, 0.0, 0.0, 0.0, 0.0, 0.0, 1.740144913332261E9, 0.0, 2025-02-21 10:35:13.332
16.0, -82385.93725990501, -82570.16033770566, -76274.67975314615, -78183.6528400961, -82914.2207401062, -82447.18103971255, -83320.91073047051, -101221.08176005862, -0.018000000000000002, 0.916, 0.382, 192.0, 0.0, 0.0, 0.0, 0.0, 0.0, 0.0, 0.0, 0.0, 0.0, 1.7401449133322794E9, 0.0, 2025-02-21 10:35:13.332
17.0, -81616.47845703107, -81779.73559853263, -76624.21633293825, -78466.53651792248, -82678.63335354727, -82739.11717404332, -83565.46116655602, -101463.1958559985, -0.018000000000000002, 0.916, 0.382, 192.0, 0.0, 0.0, 0.0, 0.0, 0.0, 0.0, 0.0, 0.0, 0.0, 1.7401449133322978E9, 0.0, 2025-02-21 10:35:13.332
18.0, -80024.60956866856, -80188.69372471496, -78465.2177649996, -79986.81276879464, -81202.05476308522, -81479.84224317578, -82439.31322566429, -102896.0320825615, -0.018000000000000002, 0.916, 0.382, 192.0, 0.0, 0.0, 0.0, 0.0, 0.0, 0.0, 0.0, 0.0, 0.0, 1.7401449133323162E9, 0.0, 2025-02-21 10:35:13.332
19.0, -80568.29340079945, -80751.95768498871, -78336.47171693704, -79884.9111658229, -81250.87097297561, -81045.65960713144, -82062.70868333682, -102822.18191888118, -0.018000000000000002, 0.916, 0.382, 192.0, 0.0, 0.0, 0.0, 0.0, 0.0, 0.0, 0.0, 0.0, 0.0, 1.7401449133323345E9, 0.0, 2025-02-21 10:35:13.332
20.0, -82222.47895270336, -82408.82544622725, -76492.58690984093, -78362.13151957173, -82703.33203117037, -82205.15635075049, -83104.99287903224, -101391.3349975747, -0.018000000000000002, 0.916, 0.382, 192.0, 0.0, 0.0, 0.0, 0.0, 0.0, 0.0, 0.0, 0.0, 0.0, 1.7401449133323529E9, 0.0, 2025-02-21 10:35:13.332
21.0, -81892.85777722094, -82058.79712805714, -76345.64654179175, -78235.79945991034, -82865.87391684938, -82825.05963147398, -83642.99936807148, -101249.17790283894, -0.018000000000000002, 0.916, 0.382, 192.0, 0.0, 0.0, 0.0, 0.0, 0.0, 0.0, 0.0, 0.0, 0.0, 1.7401449133323712E9, 0.0, 2025-02-21 10:35:13.332
22.0, -80176.69083794247, -80338.5621712878, -78192.66059311159, -79759.16025151733, -81394.57033807879, -81696.29653648098, -82629.61597795677, -102678.08022237782, -0.012, 0.914, 0.386, 192.0, 255.0, 160.0, 28.0, 144.0, 12.0, 16.0, 0.0, 0.0, 0.0, 1.7401449133323896E9, 0.0, 2025-02-21 10:35:13.332
23.0, -80301.01124060288, -80482.17212941314, -78529.45667856415, -80041.90981887697, -81071.52057546623, -80963.89692591393, -81986.3998277664, -102966.61889155136, -0.012, 0.914, 0.386, 192.0, 0.0, 0.0, 0.0, 0.0, 0.0, 0.0, 0.0, 0.0, 0.0, 1.740144913332436E9, 0.0, 2025-02-21 10:35:13.332
