%OpenBCI Raw EXG Data
%Number of channels = 8
%Sample Rate = 250 Hz
%Board = OpenBCI_GUI$BoardCytonSerial
Sample Index, EXG Channel 0, EXG Channel 1, EXG Channel 2, EXG Channel 3, EXG Channel 4, EXG Channel 5, EXG Channel 6, EXG Channel 7, Accel Channel 0, Accel Channel 1, Accel Channel 2, Not Used, Digital Channel 0 (D11), Digital Channel 1 (D12), Digital Channel 2 (D13), Digital Channel 3 (D17), Not Used, Digital Channel 4 (D18), Analog Channel 0, Analog Channel 1, Analog Channel 2, Timestamp, Marker Channel, Timestamp (Formatted)
0.0, 0.0, 0.0, 0.0, 0.0, 0.0, 0.0, 0.0, 0.0, 0.028, 0.926, 0.342, 192.0, 0.0, 224.0, 28.0, 240.0, 10.0, 176.0, 0.0, 0.0, 0.0, 1.7401453888364496E9, 0.0, 2025-02-21 10:43:08.836
1.0, -144965.0102812064, -144998.2696769559, -139789.57561130234, -142986.6573794672, -144865.61207361365, -144898.22326877396, -145228.53734833447, -157152.20953848478, 0.028, 0.926, 0.342, 192.0, 0.0, 0.0, 0.0, 0.0, 0.0, 0.0, 0.0, 0.0, 0.0, 1.74014538931548E9, 0.0, 2025-02-21 10:43:09.315
2.0, -146376.92527495924, -146404.59673459493, -138021.84319756547, -141534.41983871697, -146288.30060819397, -146176.43012719514, -146357.47925728312, -155803.3264640959, 0.028, 0.926, 0.342, 192.0, 0.0, 0.0, 0.0, 0.0, 0.0, 0.0, 0.0, 0.0, 0.0, 1.740145389315601E9, 0.0, 2025-02-21 10:43:09.315
3.0, -145220.3789616083, -145234.01352572604, -138812.9608408166, -142178.37359647438, -145680.86960087653, -146269.34632889586, -146367.87281845484, -156361.85185454512, 0.028, 0.926, 0.342, 192.0, 0.0, 0.0, 0.0, 0.0, 0.0, 0.0, 0.0, 0.0, 0.0, 1.740145389332404E9, 0.0, 2025-02-21 10:43:09.332
4.0, -143705.13185323856, -143723.19206275846, -140647.32380477476, -143682.5565913387, -144194.8362225099, -144987.5184878729, -145232.1806826807, -157752.04095268738, 0.028, 0.926, 0.342, 192.0, 0.0, 0.0, 0.0, 0.0, 0.0, 0.0, 0.0, 0.0, 0.0, 1.7401453893325317E9, 0.0, 2025-02-21 10:43:09.332
5.0, -144626.0907800306, -144657.98671936832, -140117.1851297838, -143248.79863843904, -144597.8381750391, -144743.25862446532, -145080.97113144054, -157377.403363872, 0.028, 0.926, 0.342, 192.0, 0.0, 0.0, 0.0, 0.0, 0.0, 0.0, 0.0, 0.0, 0.0, 1.740145389332625E9, 0.0, 2025-02-21 10:43:09.332
6.0, -146270.84389577436, -146300.97404730011, -138212.05654288013, -141683.9306573785, -146119.70139976757, -145956.73483094393, -146169.03169978043, -155931.84899471392, 0.028, 0.926, 0.342, 192.0, 0.0, 0.0, 0.0, 0.0, 0.0, 0.0, 0.0, 0.0, 0.0, 1.7401453893327522E9, 0.0, 2025-02-21 10:43:09.332
7.0, -145528.7883316026, -145543.38402073193, -138505.40083711158, -141919.2051195151, -145908.54446989828, -146374.3995278358, -146468.79094467056, -156113.12164224646, 0.028, 0.926, 0.342, 192.0, 0.0, 0.0, 0.0, 0.0, 0.0, 0.0, 0.0, 0.0, 0.0, 1.7401453893328483E9, 0.0, 2025-02-21 10:43:09.332
8.0, -143806.5864213212, -143821.78560755082, -140442.0006802083, -143505.91075490843, -144349.15266622935, -145181.2187053226, -145394.7225683597, -157570.63419468811, -0.002, 0.9480000000000001, 0.28200000000000003, 192.0, 255.0, 240.0, 29.0, 160.0, 8.0, 208.0, 0.0, 0.0, 0.0, 1.7401453893330576E9, 0.0, 2025-02-21 10:43:09.333
9.0, -144319.8718809929, -144349.48794239617, -140378.49937421078, -143455.37346069497, -144374.14191653038, -144638.04896331418, -144976.0073394784, -157550.5399764228, -0.002, 0.9480000000000001, 0.28200000000000003, 192.0, 0.0, 0.0, 0.0, 0.0, 0.0, 0.0, 0.0, 0.0, 0.0, 1.7401453893331761E9, 0.0, 2025-02-21 10:43:09.333
10.0, -146080.60819871526, -146112.41473107514, -138471.42618553952, -141889.70081683408, -145894.4852226359, -145714.68779023743, -145957.87476991114, -156110.97587477876, -0.002, 0.9480000000000001, 0.28200000000000003, 192.0, 0.0, 0.0, 0.0, 0.0, 0.0, 0.0, 0.0, 0.0, 0.0, 1.7401453893332708E9, 0.0, 2025-02-21 10:43:09.333
11.0, -145812.74489316283, -145829.68751545995, -138246.12060143, -141700.0462651308, -146097.5955245013, -146429.78715059606, -146528.49245411067, -155903.17170657776, -0.002, 0.9480000000000001, 0.28200000000000003, 192.0, 0.0, 0.0, 0.0, 0.0, 0.0, 0.0, 0.0, 0.0, 0.0, 1.740145389333393E9, 0.0, 2025-02-21 10:43:09.333
12.0, -143990.36246423275, -144004.26524928396, -140158.71467098175, -143265.54009503606, -144562.9694536888, -145403.95383881973, -145584.89121018545, -157331.87286041654, -0.002, 0.9480000000000001, 0.28200000000000003, 192.0, 0.0, 0.0, 0.0, 0.0, 0.0, 0.0, 0.0, 0.0, 0.0, 1.7401453893335035E9, 0.0, 2025-02-21 10:43:09.333
13.0, -144047.8064474829, -144075.88023851876, -140582.45904236546, -143614.62963993903, -144194.50094634306, -144585.29884639964, -144915.5458707268, -157678.72723087398, -0.002, 0.9480000000000001, 0.28200000000000003, 192.0, 0.0, 0.0, 0.0, 0.0, 0.0, 0.0, 0.0, 0.0, 0.0, 1.7401453893335862E9, 0.0, 2025-02-21 10:43:09.333
14.0, -145808.22984078288, -145841.91391967703, -138792.4642911511, -142145.22595944715, -145614.59667856654, -145455.36285106695, -145725.52838629825, -156333.9568774649, -0.002, 0.9480000000000001, 0.28200000000000003, 192.0, 0.0, 0.0, 0.0, 0.0, 0.0, 0.0, 0.0, 0.0, 0.0, 1.740145389333679E9, 0.0, 2025-02-21 10:43:09.333
15.0, -146026.20405271102, -146046.70060237654, -138073.3416167905, -141551.27305403628, -146209.73422643356, -146410.8999265313, -146521.09402669597, -155758.17594029618, -0.002, 0.9480000000000001, 0.28200000000000003, 192.0, 0.0, 0.0, 0.0, 0.0, 0.0, 0.0, 0.0, 0.0, 0.0, 1.7401453893339565E9, 0.0, 2025-02-21 10:43:09.333
16.0, -144229.01203978207, -144242.71365913315, -139836.4472194251, -142993.0946818703, -144804.99414265086, -145617.59181232355, -145770.94713103143, -157065.14949383136, -0.002, 0.9480000000000001, 0.28200000000000003, 192.0, 0.0, 0.0, 0.0, 0.0, 0.0, 0.0, 0.0, 0.0, 0.0, 1.7401453893340497E9, 0.0, 2025-02-21 10:43:09.334
17.0, -143832.82736931174, -143859.02361381336, -140715.78719804136, -143716.17361499948, -144074.29326466244, -144585.6341225665, -144902.26893452037, -157753.6279265437, -0.002, 0.9480000000000001, 0.28200000000000003, 192.0, 0.0, 0.0, 0.0, 0.0, 0.0, 0.0, 0.0, 0.0, 0.0, 1.7401453893341415E9, 0.0, 2025-02-21 10:43:09.334
18.0, -145502.65914233436, -145537.28199449563, -139139.095144164, -142422.72286685978, -145324.47103553667, -145211.9300022042, -145505.85544179147, -156576.74152573844, -0.016, 0.964, 0.242, 192.0, 255.0, 128.0, 30.0, 32.0, 7.0, 144.0, 0.0, 0.0, 0.0, 1.7401453893342428E9, 0.0, 2025-02-21 10:43:09.334
19.0, -146186.48841220004, -146209.5554124779, -137981.43124359028, -141470.2926838747, -146269.39103238477, -146347.3315653004, -146475.85409591845, -155677.1955701346, -0.016, 0.964, 0.242, 192.0, 0.0, 0.0, 0.0, 0.0, 0.0, 0.0, 0.0, 0.0, 0.0, 1.7401453893343349E9, 0.0, 2025-02-21 10:43:09.334
20.0, -144526.04437184863, -144538.98603188826, -139486.3294942772, -142699.59392542767, -145080.52409655144, -145836.01305914082, -145964.89321767012, -156781.81878111587, -0.016, 0.964, 0.242, 192.0, 0.0, 0.0, 0.0, 0.0, 0.0, 0.0, 0.0, 0.0, 0.0, 1.7401453893344307E9, 0.0, 2025-02-21 10:43:09.334
21.0, -143685.43996637344, -143708.7751875848, -140779.8696493947, -143761.5923597327, -144022.9513076486, -144649.96244310887, -144945.20663561902, -157777.36547915524, -0.016, 0.964, 0.242, 192.0, 0.0, 0.0, 0.0, 0.0, 0.0, 0.0, 0.0, 0.0, 0.0, 1.7401453893345156E9, 0.0, 2025-02-21 10:43:09.334
22.0, -145164.11962081428, -145198.38484506428, -139508.2342038434, -142718.95053612598, -145023.97418307952, -144984.99274074947, -145299.43708174673, -156836.20057537564, -0.016, 0.964, 0.242, 192.0, 0.0, 0.0, 0.0, 0.0, 0.0, 0.0, 0.0, 0.0, 0.0, 1.7401453893346148E9, 0.0, 2025-02-21 10:43:09.334
23.0, -146263.53487533747, -146289.9769890281, -137988.04735994904, -141469.95740770787, -146251.12965716477, -146220.0607323719, -146375.33830110292, -155670.33358458683, -0.016, 0.964, 0.242, 192.0, 0.0, 0.0, 0.0, 0.0, 0.0, 0.0, 0.0, 0.0, 0.0, 1.740145389334774E9, 0.0, 2025-02-21 10:43:09.334
24.0, -144834.29727963178, -144848.02125072732, -139139.586882542, -142408.35069517503, -145346.6663177808, -146020.1243782192, -146130.9890307175, -156501.77377483534, -0.016, 0.964, 0.242, 192.0, 0.0, 0.0, 0.0, 0.0, 0.0, 0.0, 0.0, 0.0, 0.0, 1.7401453893348696E9, 0.0, 2025-02-21 10:43:09.334
25.0, -143611.5898026931, -143632.46633201436, -140749.20305600204, -143728.2212052609, -144034.3506973208, -144754.85917983763, -145024.86825285773, -157727.58814425327, -0.016, 0.964, 0.242, 192.0, 0.0, 0.0, 0.0, 0.0, 0.0, 0.0, 0.0, 0.0, 0.0, 1.740145389334972E9, 0.0, 2025-02-21 10:43:09.334
26.0, -144814.31482008874, -144847.82008502723, -139850.28294924294, -142991.7088737141, -144731.27808943726, -144785.4810697414, -145113.02353298946, -157072.3244038015, -0.016, 0.964, 0.242, 192.0, 0.0, 0.0, 0.0, 0.0, 0.0, 0.0, 0.0, 0.0, 0.0, 1.740145389335064E9, 0.0, 2025-02-21 10:43:09.335
27.0, -146234.0752761454, -146263.24430265956, -138087.26675358615, -141544.07579232167, -146142.2990134119, -146030.40618066862, -146214.69631370262, -155730.50448066051, -0.016, 0.964, 0.242, 192.0, 0.0, 0.0, 0.0, 0.0, 0.0, 0.0, 0.0, 0.0, 0.0, 1.7401453893351552E9, 0.0, 2025-02-21 10:43:09.335
28.0, -145146.10411478332, -145160.65510042373, -138801.58380288887, -142124.05885744796, -145594.92714344588, -146161.9014932992, -146261.56792182542, -156229.50717562524, -0.03, 0.968, 0.232, 192.0, 255.0, 16.0, 30.0, 64.0, 7.0, 64.0, 0.0, 0.0, 0.0, 1.7401453893352392E9, 0.0, 2025-02-21 10:43:09.335
29.0, -143624.41970401045, -143642.63637574154, -140629.33065048823, -143621.53632897572, -144119.24262276205, -144908.1474433121, -145148.8086758624, -157611.2920178523, -0.03, 0.968, 0.232, 192.0, 0.0, 0.0, 0.0, 0.0, 0.0, 0.0, 0.0, 0.0, 0.0, 1.7401453893353298E9, 0.0, 2025-02-21 10:43:09.335
30.0, -144476.64701660242, -144508.98999082923, -140163.94497918428, -143241.06493485748, -144464.95705425227, -144627.4318846979, -144962.37277536068, -157286.3200052166, -0.03, 0.968, 0.232, 192.0, 0.0, 0.0, 0.0, 0.0, 0.0, 0.0, 0.0, 0.0, 0.0, 1.7401453893354645E9, 0.0, 2025-02-21 10:43:09.335
31.0, -146121.19896664607, -146152.8937402837, -138278.55298263466, -141694.1007011057, -145970.57056076176, -145809.39213149456, -146024.7735410659, -155860.07754326792, -0.03, 0.968, 0.232, 192.0, 0.0, 0.0, 0.0, 0.0, 0.0, 0.0, 0.0, 0.0, 0.0, 1.740145389335558E9, 0.0, 2025-02-21 10:43:09.335
32.0, -145456.54749352307, -145472.57369429752, -138495.00727593986, -141866.38794736718, -145823.49608224584, -146267.53583759497, -146363.22365560813, -155983.7273935947, -0.03, 0.968, 0.232, 192.0, 0.0, 0.0, 0.0, 0.0, 0.0, 0.0, 0.0, 0.0, 0.0, 1.7401453893356445E9, 0.0, 2025-02-21 10:43:09.335
33.0, -143729.24938550586, -143745.14147581358, -140423.13580788803, -143445.04695475663, -144276.17422058276, -145105.11101545228, -145314.5468609985, -157431.24871626482, -0.03, 0.968, 0.232, 192.0, 0.0, 0.0, 0.0, 0.0, 0.0, 0.0, 0.0, 0.0, 0.0, 1.7401453893357484E9, 0.0, 2025-02-21 10:43:09.335
34.0, -144172.30566409894, -144202.65933306926, -140428.05319166818, -143450.43372517035, -144241.7525341216, -144524.1221218255, -144859.37593691063, -157462.63056548007, -0.03, 0.968, 0.232, 192.0, 0.0, 0.0, 0.0, 0.0, 0.0, 0.0, 0.0, 0.0, 0.0, 1.7401453893358352E9, 0.0, 2025-02-21 10:43:09.335
35.0, -145923.83306310573, -145957.18186583303, -138543.3093957078, -141904.0059332855, -145738.2018254044, -145564.4617157533, -145809.16861405, -156043.4289030348, -0.03, 0.968, 0.232, 192.0, 0.0, 0.0, 0.0, 0.0, 0.0, 0.0, 0.0, 0.0, 0.0, 1.740145389335926E9, 0.0, 2025-02-21 10:43:09.335
36.0, -145727.51769155476, -145746.13669468602, -138249.2721973982, -141658.53907567728, -145997.92909597507, -146312.50754743905, -146411.0116852536, -155785.19919934263, -0.03, 0.968, 0.232, 192.0, 0.0, 0.0, 0.0, 0.0, 0.0, 0.0, 0.0, 0.0, 0.0, 1.740145389336012E9, 0.0, 2025-02-21 10:43:09.336
37.0, -143916.19937613004, -143930.72801002598, -140136.6311474599, -143202.3517134609, -144489.2086969863, -145323.42050354727, -145500.49102312222, -157191.97329187076, -0.03, 0.968, 0.232, 192.0, 0.0, 0.0, 0.0, 0.0, 0.0, 0.0, 0.0, 0.0, 0.0, 1.7401453893361127E9, 0.0, 2025-02-21 10:43:09.336
38.0, -143903.45888179052, -143931.51032108194, -140631.7893423783, -143610.02518058123, -144064.68201454665, -144474.34478692352, -144801.9766571494, -157592.56125599876, -0.03, 0.974, 0.218, 192.0, 255.0, 16.0, 30.0, 112.0, 6.0, 208.0, 0.0, 0.0, 0.0, 1.7401453893362093E9, 0.0, 2025-02-21 10:43:09.336
39.0, -145656.14857150897, -145690.16792656993, -138870.29306534448, -142165.27547422357, -145463.1859616263, -145310.88117490784, -145583.93008517387, -156273.11542905754, -0.03, 0.974, 0.218, 192.0, 0.0, 0.0, 0.0, 0.0, 0.0, 0.0, 0.0, 0.0, 0.0, 1.7401453893363E9, 0.0, 2025-02-21 10:43:09.336
40.0, -145945.87188313866, -145966.63665373763, -138085.92564891884, -141518.77361759826, -146114.51579505394, -146297.8895065653, -146410.36348466438, -155650.6864012106, -0.03, 0.974, 0.218, 192.0, 0.0, 0.0, 0.0, 0.0, 0.0, 0.0, 0.0, 0.0, 0.0, 1.740145389336398E9, 0.0, 2025-02-21 10:43:09.336
41.0, -144160.83921919338, -144174.11615539982, -139816.97885000455, -142933.12495149672, -144734.67555459446, -145541.23825326422, -145690.65966494795, -156930.1896608102, -0.03, 0.974, 0.218, 192.0, 0.0, 0.0, 0.0, 0.0, 0.0, 0.0, 0.0, 0.0, 0.0, 1.7401453893364866E9, 0.0, 2025-02-21 10:43:09.336
42.0, -143699.8791932916, -143725.673106393, -140760.75890788544, -143708.6187253736, -143954.19734170407, -144483.598409128, -144797.19338383595, -157666.27730921237, -0.03, 0.974, 0.218, 192.0, 0.0, 0.0, 0.0, 0.0, 0.0, 0.0, 0.0, 0.0, 0.0, 1.7401453893365784E9, 0.0, 2025-02-21 10:43:09.336
43.0, -145339.17848338824, -145373.75663206063, -139226.5575202176, -142450.64019568448, -145165.90776037073, -145065.66018648865, -145362.13372494385, -156523.4996704459, -0.03, 0.974, 0.218, 192.0, 0.0, 0.0, 0.0, 0.0, 0.0, 0.0, 0.0, 0.0, 0.0, 1.7401453893366728E9, 0.0, 2025-02-21 10:43:09.336
44.0, -146083.5362772389, -146107.02796066142, -138008.16392995883, -141448.27621558623, -146150.72562107153, -146212.505842746, -146344.71641119916, -155579.36198465372, -0.03, 0.974, 0.218, 192.0, 0.0, 0.0, 0.0, 0.0, 0.0, 0.0, 0.0, 0.0, 0.0, 1.7401453893367612E9, 0.0, 2025-02-21 10:43:09.336
45.0, -144442.71706851924, -144455.68108030333, -139473.34313074866, -142643.84867475615, -144992.45822339752, -145739.81115100518, -145865.74087926638, -156651.44105570807, -0.03, 0.974, 0.218, 192.0, 0.0, 0.0, 0.0, 0.0, 0.0, 0.0, 0.0, 0.0, 0.0, 1.7401453893368661E9, 0.0, 2025-02-21 10:43:09.336
46.0, -143558.0350229782, -143580.9902645338, -140803.45073979508, -143735.2173012754, -143902.9224399236, -144540.81887493358, -144833.179692409, -157673.09459127125, -0.03, 0.974, 0.218, 192.0, 0.0, 0.0, 0.0, 0.0, 0.0, 0.0, 0.0, 0.0, 0.0, 1.7401453893369539E9, 0.0, 2025-02-21 10:43:09.336
47.0, -144997.2862001999, -145031.81964538334, -139580.13976575612, -142732.7415624549, -144864.22626545743, -144839.1252564341, -145153.90487359822, -156769.90530132118, -0.03, 0.974, 0.218, 192.0, 0.0, 0.0, 0.0, 0.0, 0.0, 0.0, 0.0, 0.0, 0.0, 1.740145389337038E9, 0.0, 2025-02-21 10:43:09.337
48.0, -146147.37285940326, -146174.64198763872, -138024.74892434466, -141455.85345695657, -146121.26602187945, -146078.97652137, -146236.84689245783, -155580.4348683876, -0.024, 0.974, 0.212, 192.0, 255.0, 64.0, 30.0, 112.0, 6.0, 160.0, 0.0, 0.0, 0.0, 1.7401453893371298E9, 0.0, 2025-02-21 10:43:09.337
49.0, -144769.38781373357, -144783.35765401812, -139113.21182408475, -142342.59186298752, -145271.02801454402, -145929.35394398618, -146037.55873889432, -156363.95291852392, -0.024, 0.974, 0.212, 192.0, 0.0, 0.0, 0.0, 0.0, 0.0, 0.0, 0.0, 0.0, 0.0, 1.7401453893372192E9, 0.0, 2025-02-21 10:43:09.337
50.0, -143504.10026360754, -143524.70857199535, -140755.99798631645, -143689.32916990868, -143935.93596648407, -144666.56978923915, -144931.99675464592, -157613.25897136438, -0.024, 0.974, 0.212, 192.0, 0.0, 0.0, 0.0, 0.0, 0.0, 0.0, 0.0, 0.0, 0.0, 1.740145389337312E9, 0.0, 2025-02-21 10:43:09.337
51.0, -144653.02463209923, -144686.5522487822, -139922.3226216224, -143006.52808028794, -144579.44268935238, -144651.5941204541, -144979.58361859128, -157007.8619727924, -0.024, 0.974, 0.212, 192.0, 0.0, 0.0, 0.0, 0.0, 0.0, 0.0, 0.0, 0.0, 0.0, 1.740145389337396E9, 0.0, 2025-02-21 10:43:09.337
52.0, -146106.22329786103, -146135.90641449767, -138144.12959148045, -141546.9591673564, -146002.82412801078, -145885.41041438704, -146073.9250271231, -155656.85548268026, -0.024, 0.974, 0.212, 192.0, 0.0, 0.0, 0.0, 0.0, 0.0, 0.0, 0.0, 0.0, 0.0, 1.7401453893375056E9, 0.0, 2025-02-21 10:43:09.337
53.0, -145094.09160543582, -145109.0449224764, -138770.22430541806, -142054.54493219196, -145524.4967966672, -146070.86283813274, -146169.14345850272, -156089.62995882393, -0.024, 0.974, 0.212, 192.0, 0.0, 0.0, 0.0, 0.0, 0.0, 0.0, 0.0, 0.0, 0.0, 1.7401453893375952E9, 0.0, 2025-02-21 10:43:09.337
54.0, -143542.8805402375, -143560.91839801293, -140605.32487694322, -143557.81150553364, -144044.0066509255, -144840.22049191242, -145074.13149763722, -157474.94637667495, -0.024, 0.974, 0.212, 192.0, 0.0, 0.0, 0.0, 0.0, 0.0, 0.0, 0.0, 0.0, 0.0, 1.740145389337695E9, 0.0, 2025-02-21 10:43:09.337
55.0, -144319.40249435932, -144351.45489590825, -140230.1955497498, -143251.68201347376, -144320.09539843744, -144506.28542975013, -144840.689878546, -157218.5048125392, -0.024, 0.974, 0.212, 192.0, 0.0, 0.0, 0.0, 0.0, 0.0, 0.0, 0.0, 0.0, 0.0, 1.7401453893377986E9, 0.0, 2025-02-21 10:43:09.337
56.0, -145975.91262768657, -146007.54034609086, -138352.82782945965, -141711.17743386954, -145818.69045718794, -145658.78607735469, -145878.99546372838, -155799.75018498304, -0.024, 0.974, 0.212, 192.0, 0.0, 0.0, 0.0, 0.0, 0.0, 0.0, 0.0, 0.0, 0.0, 1.7401453893378897E9, 0.0, 2025-02-21 10:43:09.337
57.0, -145386.7206438447, -145403.19387950824, -138489.19582238147, -141818.10817934372, -145735.40785734748, -146160.5603886319, -146256.22585490058, -155864.4361334367, -0.024, 0.974, 0.212, 192.0, 0.0, 0.0, 0.0, 0.0, 0.0, 0.0, 0.0, 0.0, 0.0, 1.7401453893379695E9, 0.0, 2025-02-21 10:43:09.337
58.0, -143654.34868983613, -143669.9502074659, -140401.7898919332, -143384.093747627, -144201.85467026886, -145031.17144479413, -145234.57231933743, -157299.26166525623, -0.014, 0.976, 0.20800000000000002, 192.0, 255.0, 144.0, 30.0, 128.0, 6.0, 128.0, 0.0, 0.0, 0.0, 1.7401453893380487E9, 0.0, 2025-02-21 10:43:09.338
59.0, -144024.96296464957, -144054.73548826404, -140482.47968941685, -143451.57366413757, -144107.9773435566, -144411.35757104846, -144744.44326692144, -157387.39459364352, -0.014, 0.976, 0.20800000000000002, 192.0, 0.0, 0.0, 0.0, 0.0, 0.0, 0.0, 0.0, 0.0, 0.0, 1.74014538933814E9, 0.0, 2025-02-21 10:43:09.338
60.0, -145764.9121600285, -145798.3503697336, -138629.74359151645, -141931.16330279867, -145579.34797756054, -145412.93924009075, -145661.5800454116, -155993.04807103254, -0.014, 0.976, 0.20800000000000002, 192.0, 0.0, 0.0, 0.0, 0.0, 0.0, 0.0, 0.0, 0.0, 0.0, 1.740145389338251E9, 0.0, 2025-02-21 10:43:09.338
61.0, -145651.99114704027, -145670.8336676161, -138252.06616545512, -141617.14364494607, -145903.60473437366, -146196.85962162729, -146297.82245133191, -155673.08284915483, -0.014, 0.976, 0.20800000000000002, 192.0, 0.0, 0.0, 0.0, 0.0, 0.0, 0.0, 0.0, 0.0, 0.0, 1.7401453893383331E9, 0.0, 2025-02-21 10:43:09.338
62.0, -143851.17815150955, -143865.48326796095, -140104.55639416652, -143132.2789945935, -144421.9299461758, -145250.8890927898, -145422.55049020654, -157052.38664774736, -0.014, 0.976, 0.20800000000000002, 192.0, 0.0, 0.0, 0.0, 0.0, 0.0, 0.0, 0.0, 0.0, 0.0, 1.740145389338421E9, 0.0, 2025-02-21 10:43:09.338
63.0, -143762.687595211, -143790.80608973576, -140672.2012963535, -143599.20693626488, -143938.46171360754, -144368.7327943722, -144692.72133025186, -157506.6411503126, -0.014, 0.976, 0.20800000000000002, 192.0, 0.0, 0.0, 0.0, 0.0, 0.0, 0.0, 0.0, 0.0, 0.0, 1.740145389338506E9, 0.0, 2025-02-21 10:43:09.338
64.0, -145482.85549674695, -145517.36659018596, -138959.72239491015, -142194.33274201545, -145294.22912528864, -145154.75423988752, -145430.53006297708, -156224.18746044487, -0.014, 0.976, 0.20800000000000002, 192.0, 0.0, 0.0, 0.0, 0.0, 0.0, 0.0, 0.0, 0.0, 0.0, 1.740145389338591E9, 0.0, 2025-02-21 10:43:09.338
65.0, -145844.61848075612, -145865.8302862442, -138105.1928526393, -141489.87281201754, -145995.53745931835, -146161.25329271, -146276.14125921027, -155549.90238546164, -0.014, 0.976, 0.20800000000000002, 192.0, 0.0, 0.0, 0.0, 0.0, 0.0, 0.0, 0.0, 0.0, 0.0, 1.7401453893386855E9, 0.0, 2025-02-21 10:43:09.338
66.0, -144094.8568695613, -144108.20086100113, -139787.2957333679, -142864.70626171902, -144661.6971089479, -145457.19569411228, -145602.4596813273, -156793.03935683245, -0.014, 0.976, 0.20800000000000002, 192.0, 0.0, 0.0, 0.0, 0.0, 0.0, 0.0, 0.0, 0.0, 0.0, 1.7401453893387663E9, 0.0, 2025-02-21 10:43:09.338
67.0, -143569.41206090595, -143594.80364260718, -140787.20102157607, -143686.13287045158, -143836.29188970232, -144382.70263465674, -144691.58139128465, -157570.43302898802, -0.014, 0.976, 0.20800000000000002, 192.0, 0.0, 0.0, 0.0, 0.0, 0.0, 0.0, 0.0, 0.0, 0.0, 1.7401453893388622E9, 0.0, 2025-02-21 10:43:09.338
68.0, -145165.23720803706, -145199.9271154317, -139311.1812247254, -142475.40592854095, -144999.05198801184, -144914.42828350406, -145212.28763011546, -156471.30834714274, -0.012, 0.972, 0.21, 192.0, 255.0, 160.0, 30.0, 96.0, 6.0, 144.0, 0.0, 0.0, 0.0, 1.740145389338947E9, 0.0, 2025-02-21 10:43:09.338
69.0, -145972.5598660183, -145997.39265410815, -138045.06666005452, -141434.4404857684, -146024.95235502152, -146072.3827567557, -146208.1025490883, -155493.28541675632, -0.012, 0.972, 0.21, 192.0, 0.0, 0.0, 0.0, 0.0, 0.0, 0.0, 0.0, 0.0, 0.0, 1.7401453893390384E9, 0.0, 2025-02-21 10:43:09.339
70.0, -144387.91059111484, -144401.45574825475, -139437.5579878757, -142570.892580854, -144926.8111499323, -145657.08734477608, -145780.26780846927, -156511.07210052875, -0.012, 0.972, 0.21, 192.0, 0.0, 0.0, 0.0, 0.0, 0.0, 0.0, 0.0, 0.0, 0.0, 1.7401453893391387E9, 0.0, 2025-02-21 10:43:09.339
71.0, -143434.38517265144, -143456.64751012894, -140826.24951913947, -143710.29510620775, -143795.6340665381, -144451.3001383901, -144738.18477847395, -157575.90920637955, -0.012, 0.972, 0.21, 192.0, 0.0, 0.0, 0.0, 0.0, 0.0, 0.0, 0.0, 0.0, 0.0, 1.740145389339232E9, 0.0, 2025-02-21 10:43:09.339
72.0, -144818.20402362396, -144851.9998612404, -139678.93447624857, -142769.93486522854, -144696.56583029818, -144690.57556278416, -145007.56800264932, -156730.27565840192, -0.012, 0.972, 0.21, 192.0, 0.0, 0.0, 0.0, 0.0, 0.0, 0.0, 0.0, 0.0, 0.0, 1.7401453893393188E9, 0.0, 2025-02-21 10:43:09.339
73.0, -146015.63167758367, -146042.58788139676, -138087.15499486387, -141462.7824977377, -145976.62788350915, -145922.55901367177, -146086.6878732071, -155513.84902165522, -0.012, 0.972, 0.21, 192.0, 0.0, 0.0, 0.0, 0.0, 0.0, 0.0, 0.0, 0.0, 0.0, 1.74014538933941E9, 0.0, 2025-02-21 10:43:09.339
74.0, -144695.4482430754, -144709.5074903378, -139098.6384866999, -142286.39957742687, -145185.4208332802, -145826.33475379166, -145933.2431475214, -156239.4760536523, -0.012, 0.972, 0.21, 192.0, 0.0, 0.0, 0.0, 0.0, 0.0, 0.0, 0.0, 0.0, 0.0, 1.740145389339506E9, 0.0, 2025-02-21 10:43:09.339
75.0, -143382.41736679286, -143402.6903990138, -140778.39443426067, -143663.7587742518, -143826.3006599308, -144569.65262528093, -144829.55870980726, -157516.25240042835, -0.012, 0.972, 0.21, 192.0, 0.0, 0.0, 0.0, 0.0, 0.0, 0.0, 0.0, 0.0, 0.0, 1.7401453893395855E9, 0.0, 2025-02-21 10:43:09.339
76.0, -144471.75198456668, -144505.19019427183, -140020.87146292586, -143043.3637551503, -144409.52472800313, -144500.71984538078, -144829.87163422964, -156968.34408859542, -0.012, 0.972, 0.21, 192.0, 0.0, 0.0, 0.0, 0.0, 0.0, 0.0, 0.0, 0.0, 0.0, 1.7401453893396776E9, 0.0, 2025-02-21 10:43:09.339
77.0, -145965.6978804705, -145996.2527151409, -138216.75040921575, -141562.18070533048, -145851.48046630388, -145725.17075838696, -145918.4909961809, -155598.45037441855, -0.012, 0.972, 0.21, 192.0, 0.0, 0.0, 0.0, 0.0, 0.0, 0.0, 0.0, 0.0, 0.0, 1.7401453893397765E9, 0.0, 2025-02-21 10:43:09.339
78.0, -145012.48538642947, -145028.19866278156, -138764.61401755977, -142005.4157978792, -145430.64182169936, -145959.3946885341, -146056.17774202558, -155972.305652178, -0.008, 0.964, 0.21, 192.0, 255.0, 192.0, 30.0, 32.0, 6.0, 144.0, 0.0, 0.0, 0.0, 1.7401453893398614E9, 0.0, 2025-02-21 10:43:09.339
79.0, -143417.08492244303, -143435.03337324064, -140628.72715338794, -143532.3305168546, -143929.05162919185, -144735.83784530615, -144963.73623177246, -157378.58800632812, -0.008, 0.964, 0.21, 192.0, 0.0, 0.0, 0.0, 0.0, 0.0, 0.0, 0.0, 0.0, 0.0, 1.7401453893399563E9, 0.0, 2025-02-21 10:43:09.339
80.0, -144133.59244270236, -144165.64484425128, -140331.94069051035, -143290.84226975945, -144147.20465507565, -144352.70659359774, -144687.2451528603, -157181.80324814358, -0.008, 0.964, 0.21, 192.0, 0.0, 0.0, 0.0, 0.0, 0.0, 0.0, 0.0, 0.0, 0.0, 1.7401453893400395E9, 0.0, 2025-02-21 10:43:09.340
81.0, -145818.9139746325, -145851.5251697928, -138443.46415322594, -141741.26288190638, -145653.60047264106, -145488.42108111634, -145713.7937204592, -155755.4043239837, -0.008, 0.964, 0.21, 192.0, 0.0, 0.0, 0.0, 0.0, 0.0, 0.0, 0.0, 0.0, 0.0, 1.7401453893401265E9, 0.0, 2025-02-21 10:43:09.340
82.0, -145300.88994513632, -145318.01138138908, -138497.80124399677, -141781.1160422702, -145636.30022243265, -146041.20207324054, -146137.26987090945, -155758.9582513521, -0.008, 0.964, 0.21, 192.0, 0.0, 0.0, 0.0, 0.0, 0.0, 0.0, 0.0, 0.0, 0.0, 1.7401453893402166E9, 0.0, 2025-02-21 10:43:09.340
83.0, -143534.94567095587, -143551.01657521923, -140420.78887472022, -143354.7906106461, -144090.72179683708, -144925.7606179429, -145124.22175696158, -157199.72934719676, -0.008, 0.964, 0.21, 192.0, 0.0, 0.0, 0.0, 0.0, 0.0, 0.0, 0.0, 0.0, 0.0, 1.740145389340302E9, 0.0, 2025-02-21 10:43:09.340
84.0, -143835.08489550173, -143866.1538202946, -140581.00617897586, -143487.33645526605, -143931.97970771548, -144255.36474649486, -144589.14334644596, -157347.5414332797, -0.008, 0.964, 0.21, 192.0, 0.0, 0.0, 0.0, 0.0, 0.0, 0.0, 0.0, 0.0, 0.0, 1.7401453893403933E9, 0.0, 2025-02-21 10:43:09.340
85.0, -145598.615181281, -145633.39449565345, -138726.41488628567, -141965.7190997266, -145406.2784202431, -145235.64520307127, -145490.90212475086, -155952.77022752407, -0.008, 0.964, 0.21, 192.0, 0.0, 0.0, 0.0, 0.0, 0.0, 0.0, 0.0, 0.0, 0.0, 1.7401453893404777E9, 0.0, 2025-02-21 10:43:09.340
86.0, -145562.3606517745, -145582.43251829536, -138264.35962490554, -141582.74431022935, -145798.4621284559, -146069.0746985763, -146171.49039167052, -155570.08601070478, -0.008, 0.964, 0.21, 192.0, 0.0, 0.0, 0.0, 0.0, 0.0, 0.0, 0.0, 0.0, 0.0, 1.7401453893405633E9, 0.0, 2025-02-21 10:43:09.340
87.0, -143744.8732548801, -143759.8265719207, -140116.7157431502, -143097.81260464343, -144321.88353799385, -145151.69205089714, -145318.57017500047, -156948.6969052192, -0.008, 0.964, 0.21, 192.0, 0.0, 0.0, 0.0, 0.0, 0.0, 0.0, 0.0, 0.0, 0.0, 1.740145389340644E9, 0.0, 2025-02-21 10:43:09.340
88.0, -143576.92224704294, -143605.57718343462, -140770.59367544577, -143635.32735530465, -143770.0413191368, -144221.16657747826, -144545.02100289118, -157467.50324577134, -0.008, 0.966, 0.21, 192.0, 255.0, 192.0, 30.0, 48.0, 6.0, 144.0, 0.0, 0.0, 0.0, 1.7401453893407433E9, 0.0, 2025-02-21 10:43:09.340
89.0, -145311.46232026367, -145347.53803581453, -139069.08948052998, -142240.0197076821, -145120.511367382, -144979.80713603582, -145262.0873167619, -156194.8172682306, -0.008, 0.966, 0.21, 192.0, 0.0, 0.0, 0.0, 0.0, 0.0, 0.0, 0.0, 0.0, 0.0, 1.740145389340852E9, 0.0, 2025-02-21 10:43:09.340
90.0, -145758.49720936982, -145781.54185790324, -138126.6058238275, -141464.01184368276, -145892.76413831284, -146032.75311383643, -146150.8373797938, -155455.28745118232, -0.008, 0.966, 0.21, 192.0, 0.0, 0.0, 0.0, 0.0, 0.0, 0.0, 0.0, 0.0, 0.0, 1.7401453893409407E9, 0.0, 2025-02-21 10:43:09.340
91.0, -144002.96884810555, -144016.983391879, -139784.68057926663, -142818.37109546317, -144573.54182881617, -145364.14538194484, -145504.71550282426, -156678.4419630101, -0.008, 0.966, 0.21, 192.0, 0.0, 0.0, 0.0, 0.0, 0.0, 0.0, 0.0, 0.0, 0.0, 1.7401453893410187E9, 0.0, 2025-02-21 10:43:09.341
92.0, -143389.10053838498, -143414.62623055294, -140874.7081011186, -143713.29023996476, -143676.0522337022, -144245.1052957899, -144552.10650588354, -157522.80146155375, -0.008, 0.966, 0.21, 192.0, 0.0, 0.0, 0.0, 0.0, 0.0, 0.0, 0.0, 0.0, 0.0, 1.7401453893411036E9, 0.0, 2025-02-21 10:43:09.341
93.0, -144982.9140285151, -145018.36389522123, -139424.63867958053, -142524.2444901758, -144816.81821546773, -144736.17312147297, -145039.79921815387, -156444.28508809628, -0.008, 0.966, 0.21, 192.0, 0.0, 0.0, 0.0, 0.0, 0.0, 0.0, 0.0, 0.0, 0.0, 1.7401453893412163E9, 0.0, 2025-02-21 10:43:09.341
94.0, -145882.01294922983, -145907.42688267553, -138069.92179988883, -141411.0829128126, -145914.33357171222, -145935.90300511158, -146075.15437306816, -155400.88330517808, -0.008, 0.966, 0.21, 192.0, 0.0, 0.0, 0.0, 0.0, 0.0, 0.0, 0.0, 0.0, 0.0, 1.740145389341309E9, 0.0, 2025-02-21 10:43:09.341
95.0, -144308.98658144314, -144322.88936649435, -139424.4598656249, -142516.0413999607, -144847.6859745605, -145570.40727977842, -145688.0892143356, -156388.98687231386, -0.008, 0.966, 0.21, 192.0, 0.0, 0.0, 0.0, 0.0, 0.0, 0.0, 0.0, 0.0, 0.0, 1.7401453893413985E9, 0.0, 2025-02-21 10:43:09.341
96.0, -143268.33406309297, -143291.53517383756, -140892.63420017174, -143719.99576330135, -143649.83363745615, -144327.76204678562, -144611.33862869008, -157512.00556898184, -0.008, 0.966, 0.21, 192.0, 0.0, 0.0, 0.0, 0.0, 0.0, 0.0, 0.0, 0.0, 0.0, 1.7401453893415008E9, 0.0, 2025-02-21 10:43:09.341
97.0, -144632.95276557837, -144667.73207995083, -139785.97698044503, -142813.25254598292, -144514.53322345414, -144518.0200955892, -144839.6840500455, -156697.82092545283, -0.008, 0.966, 0.21, 192.0, 0.0, 0.0, 0.0, 0.0, 0.0, 0.0, 0.0, 0.0, 0.0, 1.7401453893415923E9, 0.0, 2025-02-21 10:43:09.341
98.0, -145909.70676060996, -145937.71349641247, -138121.9119574919, -141447.02451789673, -145851.21224537044, -145775.73040434485, -145944.30726102678, -155428.0406746913, -0.008, 0.968, 0.218, 192.0, 255.0, 192.0, 30.0, 64.0, 6.0, 208.0, 0.0, 0.0, 0.0, 1.7401453893416777E9, 0.0, 2025-02-21 10:43:09.341
99.0, -144624.4814544298, -144638.40659122547, -139078.1195852899, -142225.4687220417, -145109.0002189875, -145737.26305213728, -145840.34929756515, -156111.86994455697, -0.008, 0.968, 0.218, 192.0, 0.0, 0.0, 0.0, 0.0, 0.0, 0.0, 0.0, 0.0, 0.0, 1.740145389341782E9, 0.0, 2025-02-21 10:43:09.341
100.0, -143236.14755107733, -143255.92884492027, -140820.37101034774, -143653.07464040216, -143696.54878336773, -144458.11742044895, -144713.39669387302, -157433.75211164381, -0.008, 0.968, 0.218, 192.0, 0.0, 0.0, 0.0, 0.0, 0.0, 0.0, 0.0, 0.0, 0.0, 1.740145389341869E9, 0.0, 2025-02-21 10:43:09.341
101.0, -144289.71937772268, -144323.04582870554, -140117.58746118398, -143077.7183863781, -144235.58345265192, -144338.98262250217, -144671.30835906367, -156928.15565206477, -0.008, 0.968, 0.218, 192.0, 0.0, 0.0, 0.0, 0.0, 0.0, 0.0, 0.0, 0.0, 0.0, 1.7401453893419557E9, 0.0, 2025-02-21 10:43:09.341
102.0, -145847.65831800204, -145878.34726313918, -138262.81735453813, -141555.63164420507, -145720.11926414006, -145576.01756763668, -145775.37277643356, -155521.58272523675, -0.008, 0.968, 0.218, 192.0, 0.0, 0.0, 0.0, 0.0, 0.0, 0.0, 0.0, 0.0, 0.0, 1.7401453893420365E9, 0.0, 2025-02-21 10:43:09.342
103.0, -144953.20856013402, -144968.85478125274, -138740.6082440148, -141942.31682328187, -145364.74887904513, -145875.46388810442, -145970.48115378394, -155843.6266593488, -0.008, 0.968, 0.218, 192.0, 0.0, 0.0, 0.0, 0.0, 0.0, 0.0, 0.0, 0.0, 0.0, 1.7401453893421175E9, 0.0, 2025-02-21 10:43:09.342
104.0, -143299.73826405266, -143316.74794158316, -140649.0448890978, -143505.10609210804, -143826.68063958653, -144646.22970178482, -144869.7471463379, -157281.7155458588, -0.008, 0.968, 0.218, 192.0, 0.0, 0.0, 0.0, 0.0, 0.0, 0.0, 0.0, 0.0, 0.0, 1.7401453893422325E9, 0.0, 2025-02-21 10:43:09.342
105.0, -143960.5228853849, -143992.30706600036, -140418.41958980795, -143317.50790089465, -143986.7861851199, -144207.95669650516, -144544.64102323545, -157134.70812257627, -0.008, 0.968, 0.218, 192.0, 0.0, 0.0, 0.0, 0.0, 0.0, 0.0, 0.0, 0.0, 0.0, 1.7401453893423188E9, 0.0, 2025-02-21 10:43:09.342
106.0, -145694.28064754972, -145727.5400432992, -138498.47179633044, -141742.6486900626, -145519.86998556496, -145343.0006316901, -145573.33535830205, -155686.06921268336, -0.008, 0.968, 0.218, 192.0, 0.0, 0.0, 0.0, 0.0, 0.0, 0.0, 0.0, 0.0, 0.0, 1.7401453893424006E9, 0.0, 2025-02-21 10:43:09.342
107.0, -145248.36334566635, -145266.20003774168, -138465.5253250033, -141710.93156468053, -145571.97190189027, -145954.4102495206, -146049.36045996673, -155624.2219357755, -0.008, 0.968, 0.218, 192.0, 0.0, 0.0, 0.0, 0.0, 0.0, 0.0, 0.0, 0.0, 0.0, 1.7401453893424883E9, 0.0, 2025-02-21 10:43:09.342
108.0, -143444.86814080097, -143460.67082413088, -140409.18831934792, -143301.43699663127, -144014.3905895222, -144856.0902304757, -145048.9410816361, -157079.5216655161, -0.008, 0.972, 0.222, 192.0, 255.0, 192.0, 30.0, 96.0, 6.0, 240.0, 0.0, 0.0, 0.0, 1.7401453893425684E9, 0.0, 2025-02-21 10:43:09.342
109.0, -143669.52552432127, -143699.85684154712, -140658.18675258002, -143506.84952817555, -143784.54760128827, -144128.78681764446, -144463.05715597357, -157294.41133670943, -0.008, 0.972, 0.222, 192.0, 0.0, 0.0, 0.0, 0.0, 0.0, 0.0, 0.0, 0.0, 0.0, 1.7401453893426597E9, 0.0, 2025-02-21 10:43:09.342
110.0, -145460.8390284585, -145495.75245329767, -138798.34279994282, -141981.70059701212, -145265.41772668573, -145090.33651236733, -145351.06961143846, -155897.4943634861, -0.008, 0.972, 0.222, 192.0, 0.0, 0.0, 0.0, 0.0, 0.0, 0.0, 0.0, 0.0, 0.0, 1.7401453893427408E9, 0.0, 2025-02-21 10:43:09.342
111.0, -145502.56973535655, -145522.52984315515, -138250.1886189209, -141528.22840550286, -145726.1989386319, -145973.4539357965, -146077.5236579804, -155450.66064008005, -0.008, 0.972, 0.222, 192.0, 0.0, 0.0, 0.0, 0.0, 0.0, 0.0, 0.0, 0.0, 0.0, 1.7401453893428345E9, 0.0, 2025-02-21 10:43:09.342
112.0, -143666.93272196446, -143681.12607969358, -140100.063693531, -143040.94976674914, -144251.83317087093, -145081.6416837742, -145245.56937760944, -156826.29875258193, -0.008, 0.972, 0.222, 192.0, 0.0, 0.0, 0.0, 0.0, 0.0, 0.0, 0.0, 0.0, 0.0, 1.7401453893429208E9, 0.0, 2025-02-21 10:43:09.342
113.0, -143428.48431211524, -143456.1557717509, -140830.54105407489, -143641.16116060747, -143638.4565995284, -144108.15615751222, -144433.21757712576, -157402.77259382876, -0.008, 0.972, 0.222, 192.0, 0.0, 0.0, 0.0, 0.0, 0.0, 0.0, 0.0, 0.0, 0.0, 1.7401453893430629E9, 0.0, 2025-02-21 10:43:09.343
114.0, -145165.0136905925, -145200.530612532, -139143.45373433278, -142257.588178824, -144973.8168685218, -144835.14664592108, -145122.2995069384, -156141.37424723795, -0.008, 0.972, 0.222, 192.0, 0.0, 0.0, 0.0, 0.0, 0.0, 0.0, 0.0, 0.0, 0.0, 1.740145389343169E9, 0.0, 2025-02-21 10:43:09.343
115.0, -145688.42449050242, -145711.55854601366, -138119.6991347908, -141414.79330239218, -145806.73227390437, -145925.4423887065, -146044.84540758675, -155341.1594439935, -0.008, 0.972, 0.222, 192.0, 0.0, 0.0, 0.0, 0.0, 0.0, 0.0, 0.0, 0.0, 0.0, 1.7401453893432777E9, 0.0, 2025-02-21 10:43:09.343
116.0, -143938.99815547446, -143952.8338852923, -139751.7341079395, -142747.67252775104, -144510.64401991892, -145297.22425904564, -145432.65347870035, -156544.37619976714, -0.008, 0.972, 0.222, 192.0, 0.0, 0.0, 0.0, 0.0, 0.0, 0.0, 0.0, 0.0, 0.0, 1.7401453893433652E9, 0.0, 2025-02-21 10:43:09.343
117.0, -143246.2058360822, -143271.59741778343, -140916.17058708318, -143703.03078925976, -143551.19538917489, -144141.30379453945, -144445.600443554, -157443.98921060434, -0.008, 0.972, 0.222, 192.0, 0.0, 0.0, 0.0, 0.0, 0.0, 0.0, 0.0, 0.0, 0.0, 1.740145389343458E9, 0.0, 2025-02-21 10:43:09.343
118.0, -144827.14472140608, -144862.92986427902, -139501.7298462069, -142543.55639738517, -144664.98281538283, -144591.9373145029, -144899.02793157435, -156393.27840724928, -0.006, 0.972, 0.234, 192.0, 255.0, 208.0, 30.0, 96.0, 7.0, 80.0, 0.0, 0.0, 0.0, 1.7401453893435447E9, 0.0, 2025-02-21 10:43:09.343
119.0, -145798.5068319448, -145824.30074504623, -138083.0422738841, -141378.58347637457, -145815.6729716865, -145818.6234019546, -145960.4005170346, -155303.02736795275, -0.006, 0.972, 0.234, 192.0, 0.0, 0.0, 0.0, 0.0, 0.0, 0.0, 0.0, 0.0, 0.0, 1.740145389343683E9, 0.0, 2025-02-21 10:43:09.343
120.0, -144253.3530894939, -144267.30057803402, -139392.2510018648, -142446.59452993807, -144787.917409887, -145500.26750567765, -145613.85907099952, -156257.4915596833, -0.006, 0.972, 0.234, 192.0, 0.0, 0.0, 0.0, 0.0, 0.0, 0.0, 0.0, 0.0, 0.0, 1.7401453893437653E9, 0.0, 2025-02-21 10:43:09.343
121.0, -143148.4840093236, -143171.10397471237, -140923.43490403116, -143702.36023692612, -143544.378107116, -144239.47265618714, -144518.89181362293, -157428.29828599672, -0.006, 0.972, 0.234, 192.0, 0.0, 0.0, 0.0, 0.0, 0.0, 0.0, 0.0, 0.0, 0.0, 1.740145389794992E9, 0.0, 2025-02-21 10:43:09.794
122.0, -144480.15624048188, -144515.360237999, -139867.13616456225, -142837.10185731674, -144369.55980891702, -144384.5354777021, -144708.4122548595, -156652.44688420856, -0.006, 0.972, 0.234, 192.0, 0.0, 0.0, 0.0, 0.0, 0.0, 0.0, 0.0, 0.0, 0.0, 1.740145389795124E9, 0.0, 2025-02-21 10:43:09.795
123.0, -145814.7118466749, -145844.35025982265, -138156.13247825296, -141432.7417531898, -145744.5944243186, -145653.04167902967, -145825.50773924682, -155348.1108365191, -0.006, 0.972, 0.234, 192.0, 0.0, 0.0, 0.0, 0.0, 0.0, 0.0, 0.0, 0.0, 0.0, 1.7401453897952127E9, 0.0, 2025-02-21 10:43:09.795
124.0, -144573.2289043938, -144588.49514585675, -139046.53657037456, -142156.78181133055, -145051.9362153931, -145664.1728477684, -145764.97921526185, -155982.5203993941, -0.006, 0.972, 0.234, 192.0, 0.0, 0.0, 0.0, 0.0, 0.0, 0.0, 0.0, 0.0, 0.0, 1.740145389795333E9, 0.0, 2025-02-21 10:43:09.795
125.0, -143125.282898579, -143145.17595114422, -140834.1396849322, -143621.06694234218, -143601.97855257732, -144377.0252915651, -144628.50476843177, -157338.0866453751, -0.006, 0.972, 0.234, 192.0, 0.0, 0.0, 0.0, 0.0, 0.0, 0.0, 0.0, 0.0, 0.0, 1.7401453897954345E9, 0.0, 2025-02-21 10:43:09.795
126.0, -144131.11139906783, -144165.04134715098, -140199.4395493793, -143101.85827038984, -144087.9054770357, -144206.61559183785, -144541.37766854497, -156883.92154978772, -0.006, 0.972, 0.234, 192.0, 0.0, 0.0, 0.0, 0.0, 0.0, 0.0, 0.0, 0.0, 0.0, 1.7401453897957E9, 0.0, 2025-02-21 10:43:09.795
127.0, -145732.97151720186, -145765.09097398413, -138313.57816619612, -141554.40229826, -145594.8600882125, -145439.53781599257, -145643.74335333626, -155453.85693953716, -0.006, 0.972, 0.234, 192.0, 0.0, 0.0, 0.0, 0.0, 0.0, 0.0, 0.0, 0.0, 0.0, 1.740145389795796E9, 0.0, 2025-02-21 10:43:09.795
128.0, -144884.20872500047, -144900.57020194177, -138725.47611301852, -141886.66097958817, -145287.92593335224, -145782.81590733718, -145876.91675149402, -155726.4588149141, -0.008, 0.962, 0.242, 192.0, 255.0, 192.0, 30.0, 16.0, 7.0, 144.0, 0.0, 0.0, 0.0, 1.7401453897959013E9, 0.0, 2025-02-21 10:43:09.795
129.0, -143191.37700693336, -143208.78901586402, -140662.5006392599, -143472.7631178812, -143727.43889420497, -144553.98405241777, -144774.93104635848, -157186.60887320148, -0.008, 0.962, 0.242, 192.0, 0.0, 0.0, 0.0, 0.0, 0.0, 0.0, 0.0, 0.0, 0.0, 1.7401453897959988E9, 0.0, 2025-02-21 10:43:09.795
130.0, -143808.2404504109, -143840.04698277081, -140483.03848302824, -143326.76152309915, -143842.77389559435, -144076.41668038568, -144415.15736760586, -157077.75587770413, -0.008, 0.962, 0.242, 192.0, 0.0, 0.0, 0.0, 0.0, 0.0, 0.0, 0.0, 0.0, 0.0, 1.74014538979609E9, 0.0, 2025-02-21 10:43:09.796
131.0, -145568.66384371088, -145601.83383248257, -138548.89733182162, -141740.2570534059, -145385.33483568847, -145200.3294468319, -145436.11799909093, -155617.5834676723, -0.008, 0.962, 0.242, 192.0, 0.0, 0.0, 0.0, 0.0, 0.0, 0.0, 0.0, 0.0, 0.0, 1.7401453897961745E9, 0.0, 2025-02-21 10:43:09.796
132.0, -145183.45387976812, -145201.268220099, -138442.54773170326, -141648.27962497232, -145493.71844455224, -145856.8225332287, -145952.1080198417, -155500.97441684897, -0.008, 0.962, 0.242, 192.0, 0.0, 0.0, 0.0, 0.0, 0.0, 0.0, 0.0, 0.0, 0.0, 1.7401453897962568E9, 0.0, 2025-02-21 10:43:09.796
133.0, -143355.2376455352, -143370.32507304254, -140397.20778431985, -143247.99397563864, -143929.78923675886, -144776.09333707017, -144964.18326666157, -156965.66187926076, -0.008, 0.962, 0.242, 192.0, 0.0, 0.0, 0.0, 0.0, 0.0, 0.0, 0.0, 0.0, 0.0, 1.740145389796364E9, 0.0, 2025-02-21 10:43:09.796
134.0, -143521.46756904933, -143550.86011300804, -140714.87077651868, -143509.88936542146, -143647.08437288814, -144008.0873975858, -144341.77659055908, -157232.38524584594, -0.008, 0.962, 0.242, 192.0, 0.0, 0.0, 0.0, 0.0, 0.0, 0.0, 0.0, 0.0, 0.0, 1.740145389796449E9, 0.0, 2025-02-21 10:43:09.796
135.0, -145319.9559831567, -145354.42237310676, -138861.15120186226, -141989.21078314912, -145119.63964934822, -144943.17262687357, -145208.55488879143, -155838.35164765737, -0.008, 0.962, 0.242, 192.0, 0.0, 0.0, 0.0, 0.0, 0.0, 0.0, 0.0, 0.0, 0.0, 1.7401453897965395E9, 0.0, 2025-02-21 10:43:09.796
136.0, -145430.73122867718, -145450.8254469425, -138240.9349967164, -141476.95350372238, -145638.31187943363, -145865.78558275528, -145971.01759565086, -155338.27606895877, -0.008, 0.962, 0.242, 192.0, 0.0, 0.0, 0.0, 0.0, 0.0, 0.0, 0.0, 0.0, 0.0, 1.7401453897966323E9, 0.0, 2025-02-21 10:43:09.796
137.0, -143586.0864622696, -143599.67632289845, -140076.16967870828, -142977.3367020293, -144171.2327803651, -145001.2871624574, -145158.46462946708, -156703.45356505556, -0.008, 0.962, 0.242, 192.0, 0.0, 0.0, 0.0, 0.0, 0.0, 0.0, 0.0, 0.0, 0.0, 1.7401453897967176E9, 0.0, 2025-02-21 10:43:09.796
138.0, -143279.95697020972, -143307.11433972293, -140872.96466505108, -143631.5499104917, -143501.55216473964, -143990.80949912185, -144311.69114252224, -157329.25770631526, -0.006, 0.9560000000000001, 0.248, 192.0, 255.0, 208.0, 29.0, 224.0, 7.0, 192.0, 0.0, 0.0, 0.0, 1.7401453897968073E9, 0.0, 2025-02-21 10:43:09.796
139.0, -145011.34544746226, -145046.81766591285, -139211.5147961992, -142269.2334376852, -144819.433369569, -144684.11590863657, -144975.8061737783, -156086.16543843335, -0.006, 0.9560000000000001, 0.248, 192.0, 0.0, 0.0, 0.0, 0.0, 0.0, 0.0, 0.0, 0.0, 0.0, 1.7401453897968986E9, 0.0, 2025-02-21 10:43:09.796
140.0, -145604.113710417, -145626.8230827836, -138122.13547493643, -141372.74967107174, -145707.02114188924, -145805.0558930702, -145929.15277828608, -155237.0897218096, -0.006, 0.9560000000000001, 0.248, 192.0, 0.0, 0.0, 0.0, 0.0, 0.0, 0.0, 0.0, 0.0, 0.0, 1.7401453897969959E9, 0.0, 2025-02-21 10:43:09.796
141.0, -143856.52021843437, -143869.461878474, -139730.00821232895, -142685.64643688756, -144427.47317880072, -145209.49366205855, -145341.77128574508, -156422.71565469692, -0.006, 0.9560000000000001, 0.248, 192.0, 0.0, 0.0, 0.0, 0.0, 0.0, 0.0, 0.0, 0.0, 0.0, 1.740145389797093E9, 0.0, 2025-02-21 10:43:09.797
142.0, -143110.86602340534, -143135.31883183942, -140951.44163983365, -143688.23393443038, -143426.47265511425, -144031.31086007488, -144333.17116894378, -157366.07102943314, -0.006, 0.9560000000000001, 0.248, 192.0, 0.0, 0.0, 0.0, 0.0, 0.0, 0.0, 0.0, 0.0, 0.0, 1.740145389797178E9, 0.0, 2025-02-21 10:43:09.797
143.0, -144670.63780673002, -144706.04296994722, -139577.97164654394, -142562.4436214499, -144512.78978738663, -144446.87449298793, -144757.80961010573, -156345.42332237045, -0.006, 0.9560000000000001, 0.248, 192.0, 0.0, 0.0, 0.0, 0.0, 0.0, 0.0, 0.0, 0.0, 0.0, 1.7401453897972736E9, 0.0, 2025-02-21 10:43:09.797
144.0, -145703.60132498757, -145729.93167995595, -138103.7399892497, -141351.60492081702, -145705.94825815537, -145688.4915457358, -145836.21422484092, -155212.9274860534, -0.006, 0.9560000000000001, 0.248, 192.0, 0.0, 0.0, 0.0, 0.0, 0.0, 0.0, 0.0, 0.0, 0.0, 1.7401453897973647E9, 0.0, 2025-02-21 10:43:09.797
145.0, -144189.00241720706, -144202.74874004707, -139361.58440847212, -142377.79586050462, -144717.84469101962, -145417.6778099153, -145528.56481415808, -156129.81839535458, -0.006, 0.9560000000000001, 0.248, 192.0, 0.0, 0.0, 0.0, 0.0, 0.0, 0.0, 0.0, 0.0, 0.0, 1.7401453897974544E9, 0.0, 2025-02-21 10:43:09.797
146.0, -143022.82250199586, -143044.48134237307, -140937.20357861562, -143669.36906211008, -143431.14416970543, -144140.61089046134, -144415.24677458368, -157333.0798546171, -0.006, 0.9560000000000001, 0.248, 192.0, 0.0, 0.0, 0.0, 0.0, 0.0, 0.0, 0.0, 0.0, 0.0, 1.7401453897976031E9, 0.0, 2025-02-21 10:43:09.797
147.0, -144315.4685873352, -144349.97968077418, -139933.90082525025, -142846.89192138816, -144211.64473434028, -144238.73504862012, -144564.69053801187, -156595.6063980587, -0.006, 0.9560000000000001, 0.248, 192.0, 0.0, 0.0, 0.0, 0.0, 0.0, 0.0, 0.0, 0.0, 0.0, 1.7401453897976909E9, 0.0, 2025-02-21 10:43:09.797
148.0, -145701.12028135304, -145730.3340113561, -138185.34620825603, -141411.59700293507, -145617.6812193014, -145512.76213082817, -145689.81029865865, -155262.61541397756, 0.002, 0.96, 0.256, 192.0, 0.0, 16.0, 30.0, 0.0, 8.0, 0.0, 0.0, 0.0, 0.0, 1.740145389797796E9, 0.0, 2025-02-21 10:43:09.797
149.0, -144513.23682227574, -144527.85486314952, -139011.4666833242, -142083.8257174284, -144979.8741912692, -145577.51513451518, -145675.34871999608, -155850.51099664104, 0.002, 0.96, 0.256, 192.0, 0.0, 0.0, 0.0, 0.0, 0.0, 0.0, 0.0, 0.0, 0.0, 1.740145389797885E9, 0.0, 2025-02-21 10:43:09.797
150.0, -143022.73309501805, -143041.97794699407, -140829.11054242976, -143573.03304350772, -143506.58130724207, -144293.4968225356, -144538.71781095478, -157229.03248417765, 0.002, 0.96, 0.256, 192.0, 0.0, 0.0, 0.0, 0.0, 0.0, 0.0, 0.0, 0.0, 0.0, 1.7401453897979689E9, 0.0, 2025-02-21 10:43:09.797
151.0, -143972.9281035576, -144006.05338884037, -140262.02443385415, -143109.03318035998, -143937.94762348506, -144073.89093326224, -144409.05534136956, -156824.6670752367, 0.002, 0.96, 0.256, 192.0, 0.0, 0.0, 0.0, 0.0, 0.0, 0.0, 0.0, 0.0, 0.0, 1.7401453897980566E9, 0.0, 2025-02-21 10:43:09.798
152.0, -145611.0203994537, -145642.33519343557, -138360.11449815208, -141548.4567342349, -145461.62133951442, -145298.76652941306, -145507.19654645878, -155382.24195030236, 0.002, 0.96, 0.256, 192.0, 0.0, 0.0, 0.0, 0.0, 0.0, 0.0, 0.0, 0.0, 0.0, 1.7401453897981365E9, 0.0, 2025-02-21 10:43:09.798
153.0, -144833.35850636466, -144849.07178271672, -138691.70262714656, -141815.38126652018, -145219.84251974136, -145695.8899731505, -145787.37566320607, -155595.90227555064, 0.002, 0.96, 0.256, 192.0, 0.0, 0.0, 0.0, 0.0, 0.0, 0.0, 0.0, 0.0, 0.0, 1.740145389798222E9, 0.0, 2025-02-21 10:43:09.798
154.0, -143110.66485770524, -143126.86987243532, -140632.12461854515, -143403.71857925877, -143651.53237003475, -144485.07362426206, -144698.1975076434, -157058.0192873501, 0.002, 0.96, 0.256, 192.0, 0.0, 0.0, 0.0, 0.0, 0.0, 0.0, 0.0, 0.0, 0.0, 1.7401453897983005E9, 0.0, 2025-02-21 10:43:09.798
155.0, -143657.72380324887, -143688.4574518749, -140537.5767394992, -143327.58853764398, -143704.43894916045, -143960.00879526243, -144296.6037150149, -157012.82406006148, 0.002, 0.96, 0.256, 192.0, 0.0, 0.0, 0.0, 0.0, 0.0, 0.0, 0.0, 0.0, 0.0, 1.7401453897983973E9, 0.0, 2025-02-21 10:43:09.798
156.0, -145425.54562396355, -145458.44739180178, -138616.8242832213, -141751.67879482257, -145236.98630773858, -145054.61842472773, -145293.33505551043, -155561.90527223411, 0.002, 0.96, 0.256, 192.0, 0.0, 0.0, 0.0, 0.0, 0.0, 0.0, 0.0, 0.0, 0.0, 1.7401453897984824E9, 0.0, 2025-02-21 10:43:09.798
157.0, -145119.1479109702, -145136.6046233898, -138426.63328965107, -141591.28267661127, -145410.5252516896, -145753.1998459339, -145848.28416684677, -155383.53835148076, 0.002, 0.96, 0.256, 192.0, 0.0, 0.0, 0.0, 0.0, 0.0, 0.0, 0.0, 0.0, 0.0, 1.7401453897985835E9, 0.0, 2025-02-21 10:43:09.798
158.0, -143286.2825138906, -143300.40881638633, -140360.10388852406, -143173.36150090236, -143861.1023260477, -144706.73587402533, -144887.8967628356, -156832.17726137367, 0.002, 0.964, 0.262, 192.0, 0.0, 16.0, 30.0, 32.0, 8.0, 48.0, 0.0, 0.0, 0.0, 1.7401453897987287E9, 0.0, 2025-02-21 10:43:09.798
159.0, -143375.51067775616, -143403.9420967033, -140760.96007358553, -143503.38500778496, -143514.65028699045, -143898.42973928808, -144228.6320601263, -157161.01612580015, 0.002, 0.964, 0.262, 192.0, 0.0, 0.0, 0.0, 0.0, 0.0, 0.0, 0.0, 0.0, 0.0, 1.7401453897988188E9, 0.0, 2025-02-21 10:43:09.798
160.0, -145167.5617894604, -145201.75995847702, -138941.1480952678, -142010.98138224857, -144966.48549634047, -144797.3721977916, -145065.68253823312, -155792.5752750129, 0.002, 0.964, 0.262, 192.0, 0.0, 0.0, 0.0, 0.0, 0.0, 0.0, 0.0, 0.0, 0.0, 1.7401453897989044E9, 0.0, 2025-02-21 10:43:09.798
161.0, -145354.66824229577, -145374.44953613874, -138247.9310927309, -141439.35786954855, -145545.2615672662, -145753.8480465231, -145860.24235013037, -155238.92256485493, 0.002, 0.964, 0.262, 192.0, 0.0, 0.0, 0.0, 0.0, 0.0, 0.0, 0.0, 0.0, 0.0, 1.7401453897989848E9, 0.0, 2025-02-21 10:43:09.798
162.0, -143518.71830448133, -143531.23528137628, -140052.72269877468, -142914.61770708772, -144101.7188551091, -144926.8558534212, -145079.11593665075, -156581.48009556296, 0.002, 0.964, 0.262, 192.0, 0.0, 0.0, 0.0, 0.0, 0.0, 0.0, 0.0, 0.0, 0.0, 1.740145389799066E9, 0.0, 2025-02-21 10:43:09.799
163.0, -143151.56855005844, -143177.1389457153, -140910.26972654698, -143618.47413998534, -143386.6418464949, -143892.5065270074, -144210.21422269515, -157252.81474027812, 0.002, 0.964, 0.262, 192.0, 0.0, 0.0, 0.0, 0.0, 0.0, 0.0, 0.0, 0.0, 0.0, 1.7401453897991617E9, 0.0, 2025-02-21 10:43:09.799
164.0, -144854.436201386, -144889.19316401402, -139292.69633206088, -142291.65223737387, -144668.2461700733, -144544.05987787963, -144837.40417211107, -156041.35019080047, 0.002, 0.964, 0.262, 192.0, 0.0, 0.0, 0.0, 0.0, 0.0, 0.0, 0.0, 0.0, 0.0, 1.7401453897992418E9, 0.0, 2025-02-21 10:43:09.799
165.0, -145522.26162222167, -145545.41802947738, -138140.64271934543, -141344.54176956913, -145606.862974985, -145687.1504410685, -145812.70018967392, -155146.5651567656, 0.002, 0.964, 0.262, 192.0, 0.0, 0.0, 0.0, 0.0, 0.0, 0.0, 0.0, 0.0, 0.0, 1.7401453897993295E9, 0.0, 2025-02-21 10:43:09.799
166.0, -143819.9974679944, -143832.71561058945, -139685.0141507404, -142605.73895045984, -144379.9310183443, -145148.42869620665, -145275.4536599462, -156285.72181293034, 0.002, 0.964, 0.262, 192.0, 0.0, 0.0, 0.0, 0.0, 0.0, 0.0, 0.0, 0.0, 0.0, 1.7401453897994103E9, 0.0, 2025-02-21 10:43:09.799
167.0, -142993.4523097816, -143016.6087170373, -140971.93818949917, -143661.0095096838, -143324.41458993134, -143949.34701315727, -144246.2005312682, -157276.75345858975, 0.002, 0.964, 0.262, 192.0, 0.0, 0.0, 0.0, 0.0, 0.0, 0.0, 0.0, 0.0, 0.0, 1.7401453897994893E9, 0.0, 2025-02-21 10:43:09.799
168.0, -144512.58862168653, -144547.21147384783, -139659.10847891672, -142584.57184846068, -144359.99326229017, -144309.2100988877, -144623.4309224404, -156300.7868886932, 0.002, 0.964, 0.262, 192.0, 0.0, 0.0, 29.0, 240.0, 8.0, 112.0, 0.0, 0.0, 0.0, 1.7401453897996008E9, 0.0, 2025-02-21 10:43:09.799
169.0, -145602.99612319423, -145629.25942292923, -138136.9546815103, -141334.57289154208, -145588.53454453166, -145558.22557905025, -145710.26214483526, -155132.50590950323, 0.002, 0.964, 0.262, 192.0, 0.0, 0.0, 0.0, 0.0, 0.0, 0.0, 0.0, 0.0, 0.0, 1.7401453897996912E9, 0.0, 2025-02-21 10:43:09.799
170.0, -144134.10653282484, -144147.33876554237, -139327.74386736678, -142305.55502242508, -144650.2530157868, -145335.98218393113, -145444.79047593958, -155999.4183182023, 0.002, 0.964, 0.262, 192.0, 0.0, 0.0, 0.0, 0.0, 0.0, 0.0, 0.0, 0.0, 0.0, 1.7401453897997916E9, 0.0, 2025-02-21 10:43:09.799
171.0, -142915.4223698881, -142936.20949223154, -140945.98781418655, -143631.77342793625, -143332.14829351287, -144055.45074408661, -144325.97390722917, -157234.5757168026, 0.002, 0.964, 0.262, 192.0, 0.0, 0.0, 0.0, 0.0, 0.0, 0.0, 0.0, 0.0, 0.0, 1.7401453897998781E9, 0.0, 2025-02-21 10:43:09.799
172.0, -144157.3299953139, -144190.94701897466, -140010.43319826524, -142864.7286134635, -144059.20583715508, -144102.74703535403, -144431.31767884706, -156547.23722305743, 0.002, 0.964, 0.262, 192.0, 0.0, 0.0, 0.0, 0.0, 0.0, 0.0, 0.0, 0.0, 0.0, 1.740145389799979E9, 0.0, 2025-02-21 10:43:09.799
173.0, -145586.6569979974, -145615.44604485584, -138234.18476989088, -141407.0148953217, -145486.36472062644, -145370.40387039233, -145553.7552301592, -155193.43676488838, 0.002, 0.964, 0.262, 192.0, 0.0, 0.0, 0.0, 0.0, 0.0, 0.0, 0.0, 0.0, 0.0, 1.7401453898000696E9, 0.0, 2025-02-21 10:43:09.800
174.0, -144457.8491995155, -144471.70728107778, -138982.54352599903, -142015.3623241618, -144907.0522078338, -145485.5377060816, -145583.77362296268, -155723.28486720144, 0.002, 0.964, 0.262, 192.0, 0.0, 0.0, 0.0, 0.0, 0.0, 0.0, 0.0, 0.0, 0.0, 1.7401453898001645E9, 0.0, 2025-02-21 10:43:09.800
175.0, -142922.39611415818, -142940.16575100014, -140827.52356857344, -143526.38495282948, -143412.1004834295, -144208.00139999407, -144449.6461093004, -157121.83351777, 0.002, 0.964, 0.262, 192.0, 0.0, 0.0, 0.0, 0.0, 0.0, 0.0, 0.0, 0.0, 0.0, 1.7401453898002496E9, 0.0, 2025-02-21 10:43:09.800
176.0, -143810.8332527677, -143842.97506129445, -140332.05244923264, -143120.61138398785, -143783.22884836543, -143936.78533277338, -144273.53671473704, -156770.15117051022, 0.002, 0.964, 0.262, 192.0, 0.0, 0.0, 0.0, 0.0, 0.0, 0.0, 0.0, 0.0, 0.0, 1.740145389800334E9, 0.0, 2025-02-21 10:43:09.800
177.0, -145477.17815365532, -145508.58235461504, -138421.15711225953, -141553.0611935927, -145315.82091043246, -145146.79701886143, -145360.90437899882, -155320.84170828364, 0.002, 0.964, 0.262, 192.0, 0.0, 0.0, 0.0, 0.0, 0.0, 0.0, 0.0, 0.0, 0.0, 1.7401453898004265E9, 0.0, 2025-02-21 10:43:09.800
178.0, -144772.40529923502, -144788.14092733158, -138672.21190598153, -141754.67392857958, -145141.52200716996, -145596.5588207911, -145689.22915330282, -155475.47107642546, 0.002, 0.964, 0.262, 192.0, 0.0, 0.0, 29.0, 144.0, 8.0, 144.0, 0.0, 0.0, 0.0, 1.7401453898005326E9, 0.0, 2025-02-21 10:43:09.800
179.0, -143018.41920833816, -143033.93131899016, -140627.83308360973, -143355.1929420463, -143564.27115968123, -144403.10977734445, -144612.38916067948, -156949.12158836384, 0.002, 0.964, 0.262, 192.0, 0.0, 0.0, 0.0, 0.0, 0.0, 0.0, 0.0, 0.0, 0.0, 1.740145389800622E9, 0.0, 2025-02-21 10:43:09.800
180.0, -143496.54537398164, -143526.60847027405, -140607.9400310445, -143339.54672092758, -143552.9388252424, -143826.702991331, -144164.30373958393, -156958.66578324625, 0.002, 0.964, 0.262, 192.0, 0.0, 0.0, 0.0, 0.0, 0.0, 0.0, 0.0, 0.0, 0.0, 1.7401453898007147E9, 0.0, 2025-02-21 10:43:09.800
181.0, -145281.73450013812, -145314.65861972078, -138687.41109221114, -141763.9051990396, -145084.65916927566, -144898.6479519186, -145143.77953335995, -155507.210553552, 0.002, 0.964, 0.262, 192.0, 0.0, 0.0, 0.0, 0.0, 0.0, 0.0, 0.0, 0.0, 0.0, 1.7401453898008015E9, 0.0, 2025-02-21 10:43:09.800
182.0, -145052.20443632657, -145069.90701793515, -138411.74702784384, -141533.61517591658, -145324.82866344796, -145645.06210625914, -145741.8898632395, -155265.05175412318, 0.002, 0.964, 0.262, 192.0, 0.0, 0.0, 0.0, 0.0, 0.0, 0.0, 0.0, 0.0, 0.0, 1.7401453898008924E9, 0.0, 2025-02-21 10:43:09.800
183.0, -143206.88911758532, -143221.06012357, -140338.40034465794, -143109.88254664929, -143782.26772335384, -144627.54364342018, -144804.81532869523, -156708.39330058018, 0.002, 0.964, 0.262, 192.0, 0.0, 0.0, 0.0, 0.0, 0.0, 0.0, 0.0, 0.0, 0.0, 1.740145389800979E9, 0.0, 2025-02-21 10:43:09.800
184.0, -143224.2564230271, -143252.88900767436, -140813.3972660777, -143500.16635658342, -143374.32603530004, -143776.3892145621, -144106.9715150561, -157092.0386424111, 0.002, 0.964, 0.262, 192.0, 0.0, 0.0, 0.0, 0.0, 0.0, 0.0, 0.0, 0.0, 0.0, 1.740145389801087E9, 0.0, 2025-02-21 10:43:09.801
185.0, -145013.7817876079, -145048.494046747, -139011.89136646883, -142022.64899285426, -144808.99510490836, -144642.65342267198, -144916.12701608267, -155736.27123072997, 0.002, 0.964, 0.262, 192.0, 0.0, 0.0, 0.0, 0.0, 0.0, 0.0, 0.0, 0.0, 0.0, 1.740145389801185E9, 0.0, 2025-02-21 10:43:09.801
186.0, -145274.11255527884, -145294.76556715555, -138242.99135720628, -141389.0664445241, -145445.2822143176, -145633.21568169782, -145742.62747080653, -155126.113310589, 0.002, 0.964, 0.262, 192.0, 0.0, 0.0, 0.0, 0.0, 0.0, 0.0, 0.0, 0.0, 0.0, 1.7401453898012745E9, 0.0, 2025-02-21 10:43:09.801
187.0, -143448.22090246927, -143461.43078344237, -140016.78109369054, -142838.7111829175, -144026.70640071708, -144845.65196581508, -144994.40282516513, -156445.2238613634, 0.002, 0.964, 0.262, 192.0, 0.0, 0.0, 0.0, 0.0, 0.0, 0.0, 0.0, 0.0, 0.0, 1.7401453898013773E9, 0.0, 2025-02-21 10:43:09.801
188.0, -143006.7068942436, -143032.92549048967, -140950.74873575554, -143605.06309331217, -143252.79960069654, -143778.7361477299, -144094.0522067609, -157173.5554544396, 0.002, 0.9540000000000001, 0.278, 192.0, 0.0, 16.0, 29.0, 208.0, 8.0, 176.0, 0.0, 0.0, 0.0, 1.7401453898014684E9, 0.0, 2025-02-21 10:43:09.801
189.0, -144693.61540003007, -144728.79704580273, -139370.65921672096, -142309.17600502682, -144506.4642437058, -144390.4810417272, -144688.00511217178, -155990.1646959978, 0.002, 0.9540000000000001, 0.278, 192.0, 0.0, 0.0, 0.0, 0.0, 0.0, 0.0, 0.0, 0.0, 0.0, 1.7401453898015645E9, 0.0, 2025-02-21 10:43:09.801
190.0, -145428.80897865404, -145452.7253452212, -138153.24910321823, -141308.57781274055, -145495.7971567866, -145556.97388136075, -145686.92692362392, -155046.38463811693, 0.002, 0.9540000000000001, 0.278, 192.0, 0.0, 0.0, 0.0, 0.0, 0.0, 0.0, 0.0, 0.0, 0.0, 1.7401453898016505E9, 0.0, 2025-02-21 10:43:09.801
191.0, -143749.96945261591, -143763.42520277802, -139652.55941779132, -142532.67109783544, -144304.49388080763, -145063.06738413183, -145187.23132458108, -156151.54429096513, 0.002, 0.9540000000000001, 0.278, 192.0, 0.0, 0.0, 0.0, 0.0, 0.0, 0.0, 0.0, 0.0, 0.0, 1.740145389801752E9, 0.0, 2025-02-21 10:43:09.801
192.0, -142860.66059597261, -142884.53225905087, -140999.45318692367, -143636.93668090543, -143203.67046638377, -143845.9031398181, -144139.00156486055, -157187.45823949078, 0.002, 0.9540000000000001, 0.278, 192.0, 0.0, 0.0, 0.0, 0.0, 0.0, 0.0, 0.0, 0.0, 0.0, 1.740145389801855E9, 0.0, 2025-02-21 10:43:09.801
193.0, -144343.78824756006, -144379.01459682162, -139737.49604672147, -142602.162671347, -144197.56313533345, -144159.36400405932, -144476.46820264676, -156248.70732411236, 0.002, 0.9540000000000001, 0.278, 192.0, 0.0, 0.0, 0.0, 0.0, 0.0, 0.0, 0.0, 0.0, 0.0, 1.7401453898019397E9, 0.0, 2025-02-21 10:43:09.801
194.0, -145493.9419619968, -145521.3899041879, -138168.73886212576, -141314.16574885437, -145464.90704594937, -145419.1306733049, -145575.8611054255, -155045.75878927216, 0.002, 0.9540000000000001, 0.278, 192.0, 0.0, 0.0, 0.0, 0.0, 0.0, 0.0, 0.0, 0.0, 0.0, 1.7401453898020377E9, 0.0, 2025-02-21 10:43:09.802
195.0, -144071.43224137215, -144085.42443340117, -139292.80809078313, -142230.54256803307, -144578.50391608523, -145249.19036021119, -145355.45055335172, -155862.98327004712, 0.002, 0.9540000000000001, 0.278, 192.0, 0.0, 0.0, 0.0, 0.0, 0.0, 0.0, 0.0, 0.0, 0.0, 1.7401453898021445E9, 0.0, 2025-02-21 10:43:09.802
196.0, -142796.1981649635, -142817.16410126258, -140954.54853231294, -143592.16613676146, -143227.1621498063, -143964.2779784534, -144230.040220027, -157130.14836670738, 0.002, 0.9540000000000001, 0.278, 192.0, 0.0, 0.0, 0.0, 0.0, 0.0, 0.0, 0.0, 0.0, 0.0, 1.740145389802231E9, 0.0, 2025-02-21 10:43:09.802
197.0, -143988.46256595405, -144022.81719718187, -140085.40094916834, -142879.36900608172, -143901.73779746745, -143961.05932725183, -144291.306351579, -156492.07311774173, 0.002, 0.9540000000000001, 0.278, 192.0, 0.0, 0.0, 0.0, 0.0, 0.0, 0.0, 0.0, 0.0, 0.0, 1.7401453898023236E9, 0.0, 2025-02-21 10:43:09.802
198.0, -145462.56011278156, -145492.98083698523, -138275.0884622441, -141393.4697381818, -145353.64006205084, -145227.53151983398, -145414.63797266936, -155112.366987749, 0.01, 0.9460000000000001, 0.278, 192.0, 0.0, 80.0, 29.0, 144.0, 8.0, 176.0, 0.0, 0.0, 0.0, 1.7401453898024049E9, 0.0, 2025-02-21 10:43:09.802
199.0, -144391.0398353386, -144406.59664947947, -138950.1558482833, -141942.07095409287, -144832.2856226308, -145395.2143067377, -145490.05275846156, -155587.94505452455, 0.01, 0.9460000000000001, 0.278, 192.0, 0.0, 0.0, 0.0, 0.0, 0.0, 0.0, 0.0, 0.0, 0.0, 1.7401453898025098E9, 0.0, 2025-02-21 10:43:09.802
200.0, -142821.25447049792, -142840.52167421838, -140820.10278941426, -143473.63483591497, -143323.14054049738, -144128.27272752198, -144363.6813001253, -157005.49268788012, 0.01, 0.9460000000000001, 0.278, 192.0, 0.0, 0.0, 0.0, 0.0, 0.0, 0.0, 0.0, 0.0, 0.0, 1.7401453898026104E9, 0.0, 2025-02-21 10:43:09.802
201.0, -143653.74519273583, -143687.49632686333, -140397.0960255976, -143127.40631430226, -143640.95999490737, -143812.77785453532, -144149.2163120766, -156708.236838369, 0.01, 0.9460000000000001, 0.278, 192.0, 0.0, 0.0, 0.0, 0.0, 0.0, 0.0, 0.0, 0.0, 0.0, 1.7401453898026965E9, 0.0, 2025-02-21 10:43:09.802
202.0, -145336.42921882024, -145369.57685584747, -138478.60109550966, -141552.9047313815, -145170.9592546176, -144999.2308019675, -145217.58499355137, -155251.9983353613, 0.01, 0.9460000000000001, 0.278, 192.0, 0.0, 0.0, 0.0, 0.0, 0.0, 0.0, 0.0, 0.0, 0.0, 1.7401453898028033E9, 0.0, 2025-02-21 10:43:09.802
203.0, -144700.2985716222, -144717.97880148637, -138647.89320801417, -141687.46223300247, -145056.6971369621, -145492.28793290711, -145584.66769274088, -155345.49568241785, 0.01, 0.9460000000000001, 0.278, 192.0, 0.0, 0.0, 0.0, 0.0, 0.0, 0.0, 0.0, 0.0, 0.0, 1.740145389802899E9, 0.0, 2025-02-21 10:43:09.802
204.0, -142934.86838756423, -142951.90041683917, -140596.8312140502, -143282.43801384425, -143486.84471688804, -144327.22560491867, -144530.3135550396, -156813.78177568698, 0.01, 0.9460000000000001, 0.278, 192.0, 0.0, 0.0, 0.0, 0.0, 0.0, 0.0, 0.0, 0.0, 0.0, 1.740145389802991E9, 0.0, 2025-02-21 10:43:09.802
205.0, -143340.7760668726, -143372.49319225468, -140654.699880445, -143330.1366365119, -143413.7545125192, -143708.14933874004, -144043.33609859183, -156881.2393404531, 0.01, 0.9460000000000001, 0.278, 192.0, 0.0, 0.0, 0.0, 0.0, 0.0, 0.0, 0.0, 0.0, 0.0, 1.740145389803112E9, 0.0, 2025-02-21 10:43:09.803
206.0, -145126.2110622181, -145161.28094926846, -138753.9075319657, -141770.6107223762, -144929.53806275583, -144746.72314485587, -144995.25219145443, -155444.3350963992, 0.01, 0.9460000000000001, 0.278, 192.0, 0.0, 0.0, 0.0, 0.0, 0.0, 0.0, 0.0, 0.0, 0.0, 1.7401453898032E9, 0.0, 2025-02-21 10:43:09.803
207.0, -144969.19005741956, -144989.1278134737, -138405.15326322953, -141480.9991694688, -145229.00673496805, -145530.53176767012, -145628.45476012884, -155148.53211027768, 0.01, 0.9460000000000001, 0.278, 192.0, 0.0, 0.0, 0.0, 0.0, 0.0, 0.0, 0.0, 0.0, 0.0, 1.74014538980331E9, 0.0, 2025-02-21 10:43:09.803
208.0, -143124.0759043784, -143139.81153247494, -140306.7726262537, -143036.18884518015, -143701.91320203702, -144543.79165694615, -144716.34712414112, -156572.51704603637, 0.022, 0.9540000000000001, 0.274, 192.0, 0.0, 176.0, 29.0, 208.0, 8.0, 144.0, 0.0, 0.0, 0.0, 1.7401453898033972E9, 0.0, 2025-02-21 10:43:09.803
209.0, -143073.1139270203, -143103.13231982378, -140848.4895048725, -143480.74269065174, -143239.63442321235, -143659.73546024985, -143987.8367171093, -157005.53739136906, 0.022, 0.9540000000000001, 0.274, 192.0, 0.0, 0.0, 0.0, 0.0, 0.0, 0.0, 0.0, 0.0, 0.0, 1.740145389803492E9, 0.0, 2025-02-21 10:43:09.803
210.0, -144844.71319254796, -144881.50416392137, -139084.1322045484, -142033.534292404, -144644.21804478383, -144484.62658937296, -144762.2129037634, -155677.17321839015, 0.022, 0.9540000000000001, 0.274, 192.0, 0.0, 0.0, 0.0, 0.0, 0.0, 0.0, 0.0, 0.0, 0.0, 1.7401453898035884E9, 0.0, 2025-02-21 10:43:09.803
211.0, -145178.78236517697, -145201.84936545484, -138246.16530491892, -141343.7147550243, -145336.22805312014, -145503.53086036813, -145616.2283559118, -155016.27683833562, 0.022, 0.9540000000000001, 0.274, 192.0, 0.0, 0.0, 0.0, 0.0, 0.0, 0.0, 0.0, 0.0, 0.0, 1.7401453898036747E9, 0.0, 2025-02-21 10:43:09.803
212.0, -143373.65548296637, -143388.76526221816, -139982.6946833962, -142763.18463840304, -143951.33631841379, -144761.67646189648, -144906.02402758886, -156308.27472308575, 0.022, 0.9540000000000001, 0.274, 192.0, 0.0, 0.0, 0.0, 0.0, 0.0, 0.0, 0.0, 0.0, 0.0, 1.7401453898037667E9, 0.0, 2025-02-21 10:43:09.803
213.0, -142870.16008736612, -142897.25040164596, -140972.80990753294, -143574.99999701977, -143131.36257307083, -143672.31949237818, -143984.39454846317, -157078.04645038207, 0.022, 0.9540000000000001, 0.274, 192.0, 0.0, 0.0, 0.0, 0.0, 0.0, 0.0, 0.0, 0.0, 0.0, 1.7401453898038535E9, 0.0, 2025-02-21 10:43:09.803
214.0, -144525.48557823725, -144561.9636251883, -139445.9622437909, -142323.1011418225, -144345.93401502777, -144240.9031678323, -144541.17650284487, -155934.5088523041, 0.022, 0.9540000000000001, 0.274, 192.0, 0.0, 0.0, 0.0, 0.0, 0.0, 0.0, 0.0, 0.0, 0.0, 1.740145389803956E9, 0.0, 2025-02-21 10:43:09.803
215.0, -145326.43798904872, -145352.27660563905, -138177.23252501877, -141281.1969257828, -145380.17158271928, -145424.00335359614, -145557.93500637234, -154953.73665734968, 0.022, 0.9540000000000001, 0.274, 192.0, 0.0, 0.0, 0.0, 0.0, 0.0, 0.0, 0.0, 0.0, 0.0, 1.740145389804054E9, 0.0, 2025-02-21 10:43:09.804
216.0, -143680.58963782663, -143695.14062346704, -139626.18435933403, -142464.3865185245, -144231.1354555053, -144977.63901682367, -145098.8972304937, -156021.90417312435, 0.022, 0.9540000000000001, 0.274, 192.0, 0.0, 0.0, 0.0, 0.0, 0.0, 0.0, 0.0, 0.0, 0.0, 1.74014538980414E9, 0.0, 2025-02-21 10:43:09.804
217.0, -142731.55691999875, -142755.54034179932, -141017.289878999, -143603.92315434496, -143088.20135452764, -143744.0238885908, -144033.4566275426, -157089.5352470321, 0.022, 0.9540000000000001, 0.274, 192.0, 0.0, 0.0, 0.0, 0.0, 0.0, 0.0, 0.0, 0.0, 0.0, 1.740145389804228E9, 0.0, 2025-02-21 10:43:09.804
218.0, -144174.51848680002, -144210.01305699506, -139811.92735575765, -142615.23844185335, -144037.41288631118, -144012.9377261326, -144331.27127066508, -156193.14088739644, 0.032, 0.9500000000000001, 0.276, 192.0, 1.0, 0.0, 29.0, 176.0, 8.0, 160.0, 0.0, 0.0, 0.0, 1.740145389804312E9, 0.0, 2025-02-21 10:43:09.804
219.0, -145380.12687923037, -145407.91009758832, -138201.10418809703, -141293.13275732193, -145337.9491374432, -145277.01828205804, -145437.74967643616, -154959.30224171904, 0.032, 0.9500000000000001, 0.276, 192.0, 0.0, 0.0, 0.0, 0.0, 0.0, 0.0, 0.0, 0.0, 0.0, 1.7401453898044035E9, 0.0, 2025-02-21 10:43:09.804
220.0, -144013.56357497736, -144027.77928445092, -139253.35726181953, -142151.17152347227, -144510.4205024744, -145163.1137923138, -145266.5353139085, -155723.53073639044, 0.032, 0.9500000000000001, 0.276, 192.0, 0.0, 0.0, 0.0, 0.0, 0.0, 0.0, 0.0, 0.0, 0.0, 1.740145389804483E9, 0.0, 2025-02-21 10:43:09.804
221.0, -142684.28298047578, -142705.09245456368, -140956.13550616926, -143546.16624667242, -143128.85917769186, -143879.3637012677, -144139.09097183836, -157021.09420550993, 0.032, 0.9500000000000001, 0.276, 192.0, 0.0, 0.0, 0.0, 0.0, 0.0, 0.0, 0.0, 0.0, 0.0, 1.7401453898045645E9, 0.0, 2025-02-21 10:43:09.804
222.0, -143819.70689531649, -143854.12858177765, -140157.01593840314, -142890.00843644244, -143743.5768537017, -143819.5951365942, -144151.0715068664, -156434.85265193615, 0.032, 0.9500000000000001, 0.276, 192.0, 0.0, 0.0, 0.0, 0.0, 0.0, 0.0, 0.0, 0.0, 0.0, 1.740145389804666E9, 0.0, 2025-02-21 10:43:09.804
223.0, -145337.03271592053, -145367.52049535757, -138319.5013784768, -141381.89153455396, -145216.40035109525, -145079.2500471175, -145270.9833110551, -155034.91819321134, 0.032, 0.9500000000000001, 0.276, 192.0, 0.0, 0.0, 0.0, 0.0, 0.0, 0.0, 0.0, 0.0, 0.0, 1.74014538980475E9, 0.0, 2025-02-21 10:43:09.804
224.0, -144329.77370378657, -144344.72702082718, -138920.293917691, -141870.59007532478, -144757.78725836126, -145301.85107014788, -145395.1696032488, -155456.06976223824, 0.032, 0.9500000000000001, 0.276, 192.0, 0.0, 0.0, 0.0, 0.0, 0.0, 0.0, 0.0, 0.0, 0.0, 1.7401453898048425E9, 0.0, 2025-02-21 10:43:09.804
225.0, -142715.9777541134, -142733.61328048864, -140817.8899667132, -143424.77392253565, -143227.07274282846, -144043.06787765835, -144272.26266530307, -156893.86807607033, 0.032, 0.9500000000000001, 0.276, 192.0, 0.0, 0.0, 0.0, 0.0, 0.0, 0.0, 0.0, 0.0, 0.0, 1.7401453898049283E9, 0.0, 2025-02-21 10:43:09.804
226.0, -143489.75044366723, -143522.2275283608, -140471.08029974464, -143140.9291196977, -143487.33645526605, -143677.661559303, -144014.3458860333, -156654.23502376498, 0.032, 0.9500000000000001, 0.276, 192.0, 0.0, 0.0, 0.0, 0.0, 0.0, 0.0, 0.0, 0.0, 0.0, 1.740145389805024E9, 0.0, 2025-02-21 10:43:09.805
227.0, -145203.95042943364, -145236.6286798273, -138541.72242185145, -141557.6656529505, -145029.60682268225, -144850.65875657307, -145074.26560810395, -155190.15105845346, 0.032, 0.9500000000000001, 0.276, 192.0, 0.0, 0.0, 0.0, 0.0, 0.0, 0.0, 0.0, 0.0, 0.0, 1.740145389805117E9, 0.0, 2025-02-21 10:43:09.805
228.0, -144636.70785864687, -144653.6057774551, -138632.11287642873, -141627.939537518, -144979.24834242446, -145394.34258870396, -145487.0352729601, -155225.3327042261, 0.042, 0.9500000000000001, 0.278, 192.0, 1.0, 80.0, 29.0, 176.0, 8.0, 176.0, 0.0, 0.0, 0.0, 1.7401453898052027E9, 0.0, 2025-02-21 10:43:09.805
229.0, -142844.1650085646, -142859.9676918945, -140592.00323724787, -143232.12423707536, -143403.11508215847, -144249.32977549193, -144447.7462110217, -156702.04540515487, 0.042, 0.9500000000000001, 0.278, 192.0, 0.0, 0.0, 0.0, 0.0, 0.0, 0.0, 0.0, 0.0, 0.0, 1.7401453898053117E9, 0.0, 2025-02-21 10:43:09.805
230.0, -143183.799765563, -143214.24284151112, -140727.18658771357, -143343.0782965515, -143269.6751677603, -143582.8901628125, -143919.37332384268, -156827.52809852696, 0.042, 0.9500000000000001, 0.278, 192.0, 0.0, 0.0, 0.0, 0.0, 0.0, 0.0, 0.0, 0.0, 0.0, 1.740145389805401E9, 0.0, 2025-02-21 10:43:09.805
231.0, -144986.4232523946, -145020.53201443338, -138826.77421889, -141783.68649288255, -144784.20702030743, -144597.52525061672, -144852.87157927413, -155390.5791509842, 0.042, 0.9500000000000001, 0.278, 192.0, 0.0, 0.0, 0.0, 0.0, 0.0, 0.0, 0.0, 0.0, 0.0, 1.7401453898054917E9, 0.0, 2025-02-21 10:43:09.805
232.0, -144901.91130660908, -144920.709123696, -138404.14743472904, -141434.26167181274, -145147.13229502825, -145427.84785364245, -145528.07307578006, -155040.57318455854, 0.042, 0.9500000000000001, 0.278, 192.0, 0.0, 0.0, 0.0, 0.0, 0.0, 0.0, 0.0, 0.0, 0.0, 1.7401453898055837E9, 0.0, 2025-02-21 10:43:09.805
233.0, -143040.97211849358, -143054.98666226707, -140301.7658354957, -142986.255048067, -143622.07277084264, -144465.87347577495, -144634.3832772235, -156461.36182086013, 0.042, 0.9500000000000001, 0.278, 192.0, 0.0, 0.0, 0.0, 0.0, 0.0, 0.0, 0.0, 0.0, 0.0, 1.7401453898056796E9, 0.0, 2025-02-21 10:43:09.805
234.0, -142925.1900822151, -142953.39798371767, -140911.52142423647, -143485.83888838755, -143103.93698262417, -143542.6346710485, -143870.04302382984, -156944.91946040624, 0.042, 0.9500000000000001, 0.278, 192.0, 0.0, 0.0, 0.0, 0.0, 0.0, 0.0, 0.0, 0.0, 0.0, 1.7401453898057652E9, 0.0, 2025-02-21 10:43:09.805
235.0, -144698.86805997707, -144734.04970574973, -139164.5090776097, -142052.80149612445, -144496.51771742318, -144339.34025041346, -144621.7321898618, -155629.5863544448, 0.042, 0.9500000000000001, 0.278, 192.0, 0.0, 0.0, 0.0, 0.0, 0.0, 0.0, 0.0, 0.0, 0.0, 1.7401453898058505E9, 0.0, 2025-02-21 10:43:09.805
236.0, -145109.0896259653, -145130.97198378708, -138250.05450845417, -141300.7994056701, -145249.45858114466, -145396.15308000482, -145511.48808139423, -154911.84948824043, 0.042, 0.9500000000000001, 0.278, 192.0, 0.0, 0.0, 0.0, 0.0, 0.0, 0.0, 0.0, 0.0, 0.0, 1.740145389805941E9, 0.0, 2025-02-21 10:43:09.805
237.0, -143312.9257932813, -143326.6274126324, -139951.49164813658, -142691.18966951247, -143888.99730312792, -144693.86126921908, -144834.4760935874, -156176.98057615527, 0.042, 0.9500000000000001, 0.278, 192.0, 0.0, 0.0, 0.0, 0.0, 0.0, 0.0, 0.0, 0.0, 0.0, 1.740145389806098E9, 0.0, 2025-02-21 10:43:09.806
238.0, -142727.37714378562, -142753.05929816476, -141015.6358499093, -143562.81829629163, -143005.79047272092, -143569.47911613932, -143879.07312858978, -157001.312911667, 0.044, 0.9560000000000001, 0.28200000000000003, 192.0, 1.0, 96.0, 29.0, 224.0, 8.0, 208.0, 0.0, 0.0, 0.0, 1.740145389806186E9, 0.0, 2025-02-21 10:43:09.806
239.0, -144365.24592223717, -144400.00288486516, -139524.70743950695, -142339.66378446386, -144187.21427765064, -144091.7052735931, -144396.27014354113, -155883.85979936837, 0.044, 0.9560000000000001, 0.28200000000000003, 192.0, 0.0, 0.0, 0.0, 0.0, 0.0, 0.0, 0.0, 0.0, 0.0, 1.7401453898062863E9, 0.0, 2025-02-21 10:43:09.806
240.0, -145234.5276158485, -145258.35457543787, -138191.60469670352, -141244.94239627628, -145270.37981395482, -145297.02309334555, -145434.30750779004, -154854.6513741793, 0.044, 0.9560000000000001, 0.28200000000000003, 192.0, 0.0, 0.0, 0.0, 0.0, 0.0, 0.0, 0.0, 0.0, 0.0, 1.740145389806373E9, 0.0, 2025-02-21 10:43:09.806
241.0, -143615.72487541733, -143627.92892788994, -139596.81416711977, -142392.88328801194, -144159.25224533706, -144897.01627457337, -145014.89937483065, -155890.90059887178, 0.044, 0.9560000000000001, 0.28200000000000003, 192.0, 0.0, 0.0, 0.0, 0.0, 0.0, 0.0, 0.0, 0.0, 0.0, 1.7401453902754445E9, 0.0, 2025-02-21 10:43:10.275
242.0, -142610.09754062863, -142631.64462228355, -141042.23442581113, -143577.19046797638, -142978.3425305298, -143649.94539617843, -143936.04772520636, -156999.9941587441, 0.044, 0.9560000000000001, 0.28200000000000003, 192.0, 0.0, 0.0, 0.0, 0.0, 0.0, 0.0, 0.0, 0.0, 0.0, 1.740145390275601E9, 0.0, 2025-02-21 10:43:10.275
243.0, -144016.3351912898, -144049.9075114617, -139889.89024041776, -142631.7563810058, -143885.1528030816, -143873.28402677586, -144194.6350568098, -156142.78240713864, 0.044, 0.9560000000000001, 0.28200000000000003, 192.0, 0.0, 0.0, 0.0, 0.0, 0.0, 0.0, 0.0, 0.0, 0.0, 1.7401453902756853E9, 0.0, 2025-02-21 10:43:10.275
244.0, -145272.61498840034, -145299.43708174673, -138237.69399377037, -141275.56428618007, -145215.88626097277, -145141.767876359, -145307.21548881716, -154877.62896747937, 0.044, 0.9560000000000001, 0.28200000000000003, 192.0, 0.0, 0.0, 0.0, 0.0, 0.0, 0.0, 0.0, 0.0, 0.0, 1.7401453902757955E9, 0.0, 2025-02-21 10:43:10.275
245.0, -143943.24498692097, -143956.0748882383, -139234.4253342659, -142088.05019713048, -144431.76471373616, -145072.9468551811, -145174.7143476861, -155600.26086571944, 0.044, 0.9560000000000001, 0.28200000000000003, 192.0, 0.0, 0.0, 0.0, 0.0, 0.0, 0.0, 0.0, 0.0, 0.0, 1.7401453902758856E9, 0.0, 2025-02-21 10:43:10.275
246.0, -142571.18315353195, -142590.4056537635, -140965.07620395138, -143505.10609210804, -143022.97896420705, -143782.78181347632, -144039.6480607567, -156918.14207054878, 0.044, 0.9560000000000001, 0.28200000000000003, 192.0, 0.0, 0.0, 0.0, 0.0, 0.0, 0.0, 0.0, 0.0, 0.0, 1.7401453902759929E9, 0.0, 2025-02-21 10:43:10.275
247.0, -143663.98229169636, -143697.2193357014, -140224.62996538045, -142897.74214002397, -143596.56943041916, -143687.3175129077, -144020.2467465695, -156376.44754367444, 0.044, 0.9560000000000001, 0.28200000000000003, 192.0, 0.0, 0.0, 0.0, 0.0, 0.0, 0.0, 0.0, 0.0, 0.0, 1.740145390276084E9, 0.0, 2025-02-21 10:43:10.276
248.0, -145213.09229291586, -145243.26714793054, -138373.3020273807, -141378.89640079695, -145083.74274775301, -144938.8587401937, -145136.1575885007, -154966.49950343365, 0.048, 0.9540000000000001, 0.28200000000000003, 192.0, 1.0, 128.0, 29.0, 208.0, 8.0, 208.0, 0.0, 0.0, 0.0, 1.740145390276176E9, 0.0, 2025-02-21 10:43:10.276
249.0, -144263.85840938787, -144278.72231945067, -138903.66421981624, -141809.79333040636, -144680.65138824598, -145206.56558353492, -145300.37585501384, -155335.43739741296, 0.048, 0.9540000000000001, 0.28200000000000003, 192.0, 0.0, 0.0, 0.0, 0.0, 0.0, 0.0, 0.0, 0.0, 0.0, 1.7401453902762687E9, 0.0, 2025-02-21 10:43:10.276
250.0, -142624.80498848023, -142641.70290728842, -140806.31176308534, -143367.21818056324, -143142.11376215384, -143960.34407142928, -144186.94605671716, -156776.34260372433, 0.048, 0.9540000000000001, 0.28200000000000003, 192.0, 0.0, 0.0, 0.0, 0.0, 0.0, 0.0, 0.0, 0.0, 0.0, 1.7401453902763517E9, 0.0, 2025-02-21 10:43:10.276
251.0, -143335.2328342477, -143366.45822125176, -140522.98105036988, -143134.67063125022, -143345.6934506528, -143552.11181069753, -143889.6231519727, -156582.955310697, 0.048, 0.9540000000000001, 0.28200000000000003, 192.0, 0.0, 0.0, 0.0, 0.0, 0.0, 0.0, 0.0, 0.0, 0.0, 1.7401453902764559E9, 0.0, 2025-02-21 10:43:10.276
252.0, -145055.91482590613, -145087.87782047724, -138603.03325689238, -141558.93970238444, -144876.92205630805, -144698.13045241006, -144926.23000457644, -155125.39805476644, 0.048, 0.9540000000000001, 0.28200000000000003, 192.0, 0.0, 0.0, 0.0, 0.0, 0.0, 0.0, 0.0, 0.0, 0.0, 1.7401453902765396E9, 0.0, 2025-02-21 10:43:10.276
253.0, -144567.64096827997, -144583.95774173233, -138610.7669604739, -141561.77837393028, -144892.99296057143, -145287.1436222963, -145380.37274841938, -155099.5594381761, 0.048, 0.9540000000000001, 0.28200000000000003, 192.0, 0.0, 0.0, 0.0, 0.0, 0.0, 0.0, 0.0, 0.0, 0.0, 1.7401453902766232E9, 0.0, 2025-02-21 10:43:10.276
254.0, -142763.96694945896, -142778.58499033272, -140552.70887049544, -143150.3392041134, -143325.085142265, -144169.66815825322, -144363.01074779162, -156561.63174648664, 0.048, 0.9540000000000001, 0.28200000000000003, 192.0, 0.0, 0.0, 0.0, 0.0, 0.0, 0.0, 0.0, 0.0, 0.0, 1.740145390276716E9, 0.0, 2025-02-21 10:43:10.276
255.0, -143030.01976371047, -143059.34525243583, -140759.79778287385, -143319.65366836236, -143129.41797130322, -143462.0119287982, -143796.30461887177, -156740.1998329401, 0.048, 0.9540000000000001, 0.28200000000000003, 192.0, 0.0, 0.0, 0.0, 0.0, 0.0, 0.0, 0.0, 0.0, 0.0, 1.7401453902767997E9, 0.0, 2025-02-21 10:43:10.276
0.0, -144826.65298302806, -144860.27000668884, -138892.15307142175, -141787.88862084015, -144624.14617826298, -144443.87935923092, -144702.08671117865, -155328.55306012073, 0.048, 0.9540000000000001, 0.28200000000000003, 192.0, 0.0, 0.0, 0.0, 0.0, 0.0, 0.0, 0.0, 0.0, 0.0, 1.740145390276889E9, 0.0, 2025-02-21 10:43:10.276
1.0, -144819.27690735782, -144837.8735587446, -138394.20090844642, -141376.97415077378, -145046.81766591285, -145307.72957893964, -145409.09474004444, -154922.8688982569, 0.048, 0.9540000000000001, 0.28200000000000003, 192.0, 0.0, 0.0, 0.0, 0.0, 0.0, 0.0, 0.0, 0.0, 0.0, 1.7401453902769723E9, 0.0, 2025-02-21 10:43:10.276
2.0, -142972.41931824916, -142985.42803352216, -140259.856314642, -142902.83833775978, -143551.35185138608, -144389.11758531543, -144552.75470647274, -156320.21055462488, 0.052000000000000005, 0.9480000000000001, 0.28200000000000003, 192.0, 1.0, 160.0, 29.0, 160.0, 8.0, 208.0, 0.0, 0.0, 0.0, 1.7401453902770667E9, 0.0, 2025-02-21 10:43:10.277
3.0, -142784.21762993548, -142810.99501979293, -140942.9256251962, -143462.6154258985, -142977.1355363292, -143434.47457962926, -143759.938330643, -156858.90994774224, 0.052000000000000005, 0.9480000000000001, 0.28200000000000003, 192.0, 0.0, 0.0, 0.0, 0.0, 0.0, 0.0, 0.0, 0.0, 0.0, 1.7401453902771788E9, 0.0, 2025-02-21 10:43:10.277
4.0, -144535.29799405314, -144569.6749770254, -139237.80044767863, -142063.9326648632, -144336.41217188982, -144188.24245789557, -144474.65771134588, -155574.55635959582, 0.052000000000000005, 0.9480000000000001, 0.28200000000000003, 192.0, 0.0, 0.0, 0.0, 0.0, 0.0, 0.0, 0.0, 0.0, 0.0, 1.7401453902772655E9, 0.0, 2025-02-21 10:43:10.277
5.0, -145017.93921207657, -145039.19572105358, -138256.20123817938, -141256.9452830488, -145141.29848972542, -145268.1893429982, -145386.94416128926, -154806.9974550006, 0.052000000000000005, 0.9480000000000001, 0.28200000000000003, 192.0, 0.0, 0.0, 0.0, 0.0, 0.0, 0.0, 0.0, 0.0, 0.0, 1.7401453902773635E9, 0.0, 2025-02-21 10:43:10.277
6.0, -143244.97649013717, -143257.38170830987, -139911.14674939474, -142609.22582259486, -143816.4882441149, -144611.24922171226, -144748.37717394557, -156037.1704145873, 0.052000000000000005, 0.9480000000000001, 0.28200000000000003, 192.0, 0.0, 0.0, 0.0, 0.0, 0.0, 0.0, 0.0, 0.0, 0.0, 1.740145390277452E9, 0.0, 2025-02-21 10:43:10.277
7.0, -142591.2103165639, -142615.55136627573, -141040.96037637716, -143534.8339122336, -142883.0793956613, -143463.62125439898, -143770.46600228144, -156910.74364313408, 0.052000000000000005, 0.9480000000000001, 0.28200000000000003, 192.0, 0.0, 0.0, 0.0, 0.0, 0.0, 0.0, 0.0, 0.0, 0.0, 1.7401453902775412E9, 0.0, 2025-02-21 10:43:10.277
8.0, -144195.17149867673, -144229.7496473491, -139600.81512937727, -142353.23129334825, -144024.31476406037, -143939.28872815237, -144247.6086911689, -155831.28849640948, 0.052000000000000005, 0.9480000000000001, 0.28200000000000003, 192.0, 0.0, 0.0, 0.0, 0.0, 0.0, 0.0, 0.0, 0.0, 0.0, 1.7401453902776244E9, 0.0, 2025-02-21 10:43:10.277
9.0, -145127.0157250185, -145151.78145787495, -138213.8223306921, -141214.4322650948, -145149.45687645162, -145157.50350445553, -145300.01822710256, -154762.1822073677, 0.052000000000000005, 0.9480000000000001, 0.28200000000000003, 192.0, 0.0, 0.0, 0.0, 0.0, 0.0, 0.0, 0.0, 0.0, 0.0, 1.7401453902777092E9, 0.0, 2025-02-21 10:43:10.277
10.0, -143546.05448795017, -143558.70557531185, -139562.6383498476, -142316.10504580798, -144083.748052567, -144807.47518628542, -144923.48074000844, -155756.07487631738, 0.052000000000000005, 0.9480000000000001, 0.28200000000000003, 192.0, 0.0, 0.0, 0.0, 0.0, 0.0, 0.0, 0.0, 0.0, 0.0, 1.7401453902778096E9, 0.0, 2025-02-21 10:43:10.277
11.0, -142481.46325128834, -142503.2785538767, -141055.31019631747, -143538.87957798, -142863.3651570517, -143549.36254612953, -143832.08976174472, -156900.01480579554, 0.052000000000000005, 0.9480000000000001, 0.28200000000000003, 192.0, 0.0, 0.0, 0.0, 0.0, 0.0, 0.0, 0.0, 0.0, 0.0, 1.7401453902778957E9, 0.0, 2025-02-21 10:43:10.277
12.0, -143847.98185205244, -143882.02355885788, -139958.6218546178, -142639.1548084205, -143725.38253371508, -143727.3271354827, -144050.89098821772, -156084.60081632147, 0.066, 0.9520000000000001, 0.28, 192.0, 2.0, 16.0, 29.0, 192.0, 8.0, 192.0, 0.0, 0.0, 0.0, 1.7401453902779963E9, 0.0, 2025-02-21 10:43:10.277
13.0, -145157.97289108907, -145185.2196675801, -138268.20412495185, -141251.9384922908, -145088.32485536634, -145000.99658977945, -145170.40046100624, -154791.35123388187, 0.066, 0.9520000000000001, 0.28, 192.0, 0.0, 0.0, 0.0, 0.0, 0.0, 0.0, 0.0, 0.0, 0.0, 1.7401453902780948E9, 0.0, 2025-02-21 10:43:10.278
14.0, -143886.203335071, -143899.39086429964, -139194.08043552405, -142006.9133647577, -144364.26244548112, -144989.3289791738, -145088.16839315515, -155461.38947741862, 0.066, 0.9520000000000001, 0.28, 192.0, 0.0, 0.0, 0.0, 0.0, 0.0, 0.0, 0.0, 0.0, 0.0, 1.7401453902781785E9, 0.0, 2025-02-21 10:43:10.278
15.0, -142456.5857597096, -142475.18241109638, -140965.18796267366, -143456.84867582904, -142921.65850659116, -143697.10757697912, -143948.16237070112, -156808.9090953957, 0.066, 0.9520000000000001, 0.28, 192.0, 0.0, 0.0, 0.0, 0.0, 0.0, 0.0, 0.0, 0.0, 0.0, 1.7401453902783692E9, 0.0, 2025-02-21 10:43:10.278
16.0, -143496.6794844484, -143529.29067960868, -140297.25078311574, -142909.09682620727, -143439.52607387616, -143549.11667694052, -143882.716462936, -156322.1551563925, 0.066, 0.9520000000000001, 0.28, 192.0, 0.0, 0.0, 0.0, 0.0, 0.0, 0.0, 0.0, 0.0, 0.0, 1.7401453902784607E9, 0.0, 2025-02-21 10:43:10.278
17.0, -145083.40747158616, -145113.51527136748, -138424.88985358356, -141372.59320886055, -144942.6585367511, -144790.64432271055, -144991.65356059713, -154896.40443282182, 0.066, 0.9520000000000001, 0.28, 192.0, 0.0, 0.0, 0.0, 0.0, 0.0, 0.0, 0.0, 0.0, 0.0, 1.740145390278588E9, 0.0, 2025-02-21 10:43:10.278
18.0, -144203.21812668064, -144217.97027802115, -138868.10259438786, -141731.94220446853, -144604.85662279805, -145111.45891087758, -145203.74926373354, -155199.31527368014, 0.066, 0.9520000000000001, 0.28, 192.0, 0.0, 0.0, 0.0, 0.0, 0.0, 0.0, 0.0, 0.0, 0.0, 1.740145390278681E9, 0.0, 2025-02-21 10:43:10.278
19.0, -142525.5855948431, -142542.05883050666, -140790.35261754427, -143305.68382807777, -143052.52797037698, -143880.8612681462, -144101.1153580088, -156654.5702999318, 0.066, 0.9520000000000001, 0.28, 192.0, 0.0, 0.0, 0.0, 0.0, 0.0, 0.0, 0.0, 0.0, 0.0, 1.7401453902787673E9, 0.0, 2025-02-21 10:43:10.278
20.0, -143169.36053864486, -143200.63062913783, -140592.60673434817, -143143.6336807768, -143192.4051871783, -143420.1471114334, -143757.7925631753, -156526.4948042029, 0.066, 0.9520000000000001, 0.28, 192.0, 0.0, 0.0, 0.0, 0.0, 0.0, 0.0, 0.0, 0.0, 0.0, 1.7401453902788684E9, 0.0, 2025-02-21 10:43:10.278
21.0, -144920.68677195153, -144953.05209792283, -138661.8183448098, -141559.0738128512, -144733.73678132734, -144549.89368318245, -144783.31295052922, -155061.27089992416, 0.066, 0.9520000000000001, 0.28, 192.0, 0.0, 0.0, 0.0, 0.0, 0.0, 0.0, 0.0, 0.0, 0.0, 1.7401453902789571E9, 0.0, 2025-02-21 10:43:10.278
22.0, -144497.1435662679, -144513.6168019315, -138591.23153581997, -141497.53946036572, -144808.61512525263, -145184.2138390796, -145277.57707566943, -154976.15545703835, 0.07, 0.962, 0.28200000000000003, 192.0, 2.0, 48.0, 30.0, 16.0, 8.0, 208.0, 0.0, 0.0, 0.0, 1.740145390279046E9, 0.0, 2025-02-21 10:43:10.279
23.0, -142671.6318931141, -142686.04876828776, -140540.59422500065, -143092.64935167425, -143238.11450458938, -144088.5983811138, -144276.66595896077, -156443.927460185, 0.07, 0.962, 0.28200000000000003, 192.0, 0.0, 0.0, 0.0, 0.0, 0.0, 0.0, 0.0, 0.0, 0.0, 1.7401453902791376E9, 0.0, 2025-02-21 10:43:10.279
24.0, -142875.7703752244, -142904.84999476076, -140820.21454813654, -143321.55356664106, -142986.9032486562, -143339.4349622053, -143672.92298947848, -156677.6373002097, 0.07, 0.962, 0.28200000000000003, 192.0, 0.0, 0.0, 0.0, 0.0, 0.0, 0.0, 0.0, 0.0, 0.0, 1.740145390279237E9, 0.0, 2025-02-21 10:43:10.279
25.0, -144679.31028357867, -144712.904955495, -138962.8516391339, -141798.01396107842, -144473.18249621184, -144294.56970626948, -144557.2697588527, -155273.76893446076, 0.07, 0.962, 0.28200000000000003, 192.0, 0.0, 0.0, 0.0, 0.0, 0.0, 0.0, 0.0, 0.0, 0.0, 1.7401453902793477E9, 0.0, 2025-02-21 10:43:10.279
26.0, -144744.84559832164, -144763.665767153, -138388.5235653548, -141324.62636525946, -144956.22604563547, -145197.6695892417, -145299.95117186918, -154810.95371376918, 0.07, 0.962, 0.28200000000000003, 192.0, 0.0, 0.0, 0.0, 0.0, 0.0, 0.0, 0.0, 0.0, 0.0, 1.740145390279428E9, 0.0, 2025-02-21 10:43:10.279
27.0, -142896.5798493123, -142909.58856458528, -140233.7494771182, -142833.77144739288, -143475.84765861603, -144311.5123285666, -144469.6509205879, -156192.33622459607, 0.07, 0.962, 0.28200000000000003, 192.0, 0.0, 0.0, 0.0, 0.0, 0.0, 0.0, 0.0, 0.0, 0.0, 1.7401453902795079E9, 0.0, 2025-02-21 10:43:10.279
28.0, -142643.49104684487, -142670.08962274666, -140986.35506467285, -143450.79135308164, -142849.5741307228, -143326.8285783325, -143648.26901534427, -156783.89749335023, 0.07, 0.962, 0.28200000000000003, 192.0, 0.0, 0.0, 0.0, 0.0, 0.0, 0.0, 0.0, 0.0, 0.0, 1.740145390279595E9, 0.0, 2025-02-21 10:43:10.279
29.0, -144378.56756193252, -144413.10100711597, -139316.36682943904, -142080.6294179713, -144181.20165839215, -144041.9502904356, -144330.51131135362, -155526.09777761673, 0.07, 0.962, 0.28200000000000003, 192.0, 0.0, 0.0, 0.0, 0.0, 0.0, 0.0, 0.0, 0.0, 0.0, 1.7401453902796743E9, 0.0, 2025-02-21 10:43:10.279
30.0, -144930.3203738118, -144952.44860082254, -138267.26535168473, -141218.0308959521, -145036.64762218567, -145145.8135421054, -145266.71412786414, -154707.73335787456, 0.07, 0.962, 0.28200000000000003, 192.0, 0.0, 0.0, 0.0, 0.0, 0.0, 0.0, 0.0, 0.0, 0.0, 1.7401453902797594E9, 0.0, 2025-02-21 10:43:10.279
31.0, -143188.11365224287, -143200.51887041557, -139880.83778391336, -142537.2979089377, -143753.14340032858, -144538.71781095478, -144671.68833871942, -155907.86557291338, 0.07, 0.962, 0.28200000000000003, 192.0, 0.0, 0.0, 0.0, 0.0, 0.0, 0.0, 0.0, 0.0, 0.0, 1.7401453902798388E9, 0.0, 2025-02-21 10:43:10.279
32.0, -142472.32138780612, -142496.10364390656, -141069.92823719123, -143511.76691195572, -142776.70744379848, -143374.97423588924, -143677.5050970918, -156826.58932525985, 0.068, 0.968, 0.28400000000000003, 192.0, 2.0, 32.0, 30.0, 64.0, 8.0, 224.0, 0.0, 0.0, 0.0, 1.7401453902799337E9, 0.0, 2025-02-21 10:43:10.279
33.0, -144042.33027009133, -144076.66254957468, -139683.3154181618, -142374.2642848807, -143876.92736112207, -143805.87116549865, -144115.59928841583, -155787.83670518838, 0.068, 0.968, 0.28400000000000003, 192.0, 0.0, 0.0, 0.0, 0.0, 0.0, 0.0, 0.0, 0.0, 0.0, 1.740145390280025E9, 0.0, 2025-02-21 10:43:10.280
34.0, -145037.0276018414, -145062.01685214243, -138246.94761597487, -141195.00859916315, -145042.7720001664, -145036.1782355521, -145181.64338846726, -154681.9170930287, 0.068, 0.968, 0.28400000000000003, 192.0, 0.0, 0.0, 0.0, 0.0, 0.0, 0.0, 0.0, 0.0, 0.0, 1.7401453902801187E9, 0.0, 2025-02-21 10:43:10.280
35.0, -143500.50163275024, -143513.19742360085, -139521.73465749438, -142235.48230355768, -144027.0416768839, -144736.418990662, -144848.06595421623, -155619.25984850645, 0.068, 0.968, 0.28400000000000003, 192.0, 0.0, 0.0, 0.0, 0.0, 0.0, 0.0, 0.0, 0.0, 0.0, 1.7401453902802048E9, 0.0, 2025-02-21 10:43:10.280
36.0, -142370.24097087872, -142391.27396241116, -141059.31115857497, -143494.31019953612, -142765.3974611041, -143467.64456840092, -143744.00153684636, -156796.012138845, 0.068, 0.968, 0.28400000000000003, 192.0, 0.0, 0.0, 0.0, 0.0, 0.0, 0.0, 0.0, 0.0, 0.0, 1.7401453902802896E9, 0.0, 2025-02-21 10:43:10.280
37.0, -143685.99875998482, -143719.63813539007, -140036.27181485557, -142655.04689872824, -143573.21185746335, -143592.65787513947, -143917.54048079735, -156036.6786762093, 0.068, 0.968, 0.28400000000000003, 192.0, 0.0, 0.0, 0.0, 0.0, 0.0, 0.0, 0.0, 0.0, 0.0, 1.7401453902803748E9, 0.0, 2025-02-21 10:43:10.280
38.0, -145039.41923849814, -145067.9400644231, -138315.81334064167, -141242.90838753086, -144959.57880730377, -144861.1864282115, -145036.02177334094, -154720.65266616974, 0.068, 0.968, 0.28400000000000003, 192.0, 0.0, 0.0, 0.0, 0.0, 0.0, 0.0, 0.0, 0.0, 0.0, 1.7401453902804534E9, 0.0, 2025-02-21 10:43:10.280
39.0, -143825.4959971304, -143839.44348567052, -139164.88905726542, -141934.8513406338, -144292.08866263495, -144897.7985856293, -144996.0345025104, -155333.09046424515, 0.068, 0.968, 0.28400000000000003, 192.0, 0.0, 0.0, 0.0, 0.0, 0.0, 0.0, 0.0, 0.0, 0.0, 1.7401453902805333E9, 0.0, 2025-02-21 10:43:10.280
40.0, -142366.3964708324, -142384.68019779684, -140956.2249131471, -143402.01984668017, -142839.18056955107, -143620.93283187543, -143867.1596487951, -156696.81509695234, 0.068, 0.968, 0.28400000000000003, 192.0, 0.0, 0.0, 0.0, 0.0, 0.0, 0.0, 0.0, 0.0, 0.0, 1.740145390280629E9, 0.0, 2025-02-21 10:43:10.280
41.0, -143342.85477910697, -143375.19775333378, -140362.85315309206, -142915.06474197685, -143296.49726110665, -143423.0975417015, -143757.8372666642, -156266.00757432074, 0.068, 0.968, 0.28400000000000003, 192.0, 0.0, 0.0, 0.0, 0.0, 0.0, 0.0, 0.0, 0.0, 0.0, 1.7401453902810032E9, 0.0, 2025-02-21 10:43:10.281
42.0, -144955.10845841272, -144985.50683087192, -138479.40575831005, -141369.2180954478, -144806.64817174055, -144647.16847505193, -144853.81035254127, -154831.2938012235, 0.07, 0.9560000000000001, 0.29, 192.0, 2.0, 48.0, 29.0, 224.0, 9.0, 16.0, 0.0, 0.0, 0.0, 1.740145390281114E9, 0.0, 2025-02-21 10:43:10.281
43.0, -144139.20273056065, -144153.7313644566, -138852.65753896924, -141671.72660490594, -144527.87721489396, -145014.8770230862, -145107.56970734237, -155082.88503681243, 0.07, 0.9560000000000001, 0.29, 192.0, 0.0, 0.0, 0.0, 0.0, 0.0, 0.0, 0.0, 0.0, 0.0, 1.7401453902812672E9, 0.0, 2025-02-21 10:43:10.281
44.0, -142440.64896591296, -142455.91520737592, -140777.09803308226, -143247.2116645827, -142972.2405042935, -143802.67486604155, -144018.6374209687, -156540.21877529845, 0.07, 0.9560000000000001, 0.29, 192.0, 0.0, 0.0, 0.0, 0.0, 0.0, 0.0, 0.0, 0.0, 0.0, 1.74014539028138E9, 0.0, 2025-02-21 10:43:10.281
45.0, -143018.84389148283, -143048.7058220751, -140645.6921274295, -143138.87275920782, -143053.5561506219, -143298.1736419408, -143635.57322449365, -156461.31711737122, 0.07, 0.9560000000000001, 0.29, 192.0, 0.0, 0.0, 0.0, 0.0, 0.0, 0.0, 0.0, 0.0, 0.0, 1.740145390281596E9, 0.0, 2025-02-21 10:43:10.281
46.0, -144779.55785746072, -144811.14087237607, -138734.81914220087, -141571.23316183485, -144588.4727941123, -144403.71327444474, -144642.0499255717, -155011.3818062999, 0.07, 0.9560000000000001, 0.29, 192.0, 0.0, 0.0, 0.0, 0.0, 0.0, 0.0, 0.0, 0.0, 0.0, 1.740145390281706E9, 0.0, 2025-02-21 10:43:10.281
47.0, -144426.0426671556, -144442.2476818857, -138589.0187131189, -141448.25386384176, -144722.04681897722, -145077.05957616086, -145172.23330405157, -154870.297595298, 0.07, 0.9560000000000001, 0.29, 192.0, 0.0, 0.0, 0.0, 0.0, 0.0, 0.0, 0.0, 0.0, 0.0, 1.740145390281829E9, 0.0, 2025-02-21 10:43:10.281
48.0, -142594.5630782322, -142608.28704932774, -140523.09280909214, -143030.89148174424, -143162.40914611926, -144009.92024063115, -144194.59035332088, -156327.2066506394, 0.07, 0.9560000000000001, 0.29, 192.0, 0.0, 0.0, 0.0, 0.0, 0.0, 0.0, 0.0, 0.0, 0.0, 1.740145390281918E9, 0.0, 2025-02-21 10:43:10.281
49.0, -142732.67450722153, -142760.77065000185, -140868.33785394882, -143313.30577293705, -142857.08431685978, -143226.1563213058, -143558.72792705632, -156610.20208718802, 0.07, 0.9560000000000001, 0.29, 192.0, 0.0, 0.0, 0.0, 0.0, 0.0, 0.0, 0.0, 0.0, 0.0, 1.7401453902820644E9, 0.0, 2025-02-21 10:43:10.282
50.0, -144521.99870610223, -144555.19104661836, -139037.28294817006, -141810.24036529547, -144315.64740129083, -144141.05792535044, -144408.31773380254, -155223.9468960699, 0.07, 0.9560000000000001, 0.29, 192.0, 0.0, 0.0, 0.0, 0.0, 0.0, 0.0, 0.0, 0.0, 0.0, 1.7401453902821655E9, 0.0, 2025-02-21 10:43:10.282
51.0, -144668.4473357734, -144687.08869064914, -138384.83552751967, -141273.01618731217, -144861.2981869338, -145080.05470991787, -145185.6667024692, -154702.92773281666, 0.07, 0.9560000000000001, 0.29, 192.0, 0.0, 0.0, 0.0, 0.0, 0.0, 0.0, 0.0, 0.0, 0.0, 1.740145390282274E9, 0.0, 2025-02-21 10:43:10.282
52.0, -142829.8598921132, -142841.54985446334, -140201.2500406802, -142759.34013835673, -143407.8983554719, -144238.42212419774, -144392.24682953916, -156064.0819149115, 0.08, 0.9480000000000001, 0.292, 192.0, 2.0, 128.0, 29.0, 160.0, 9.0, 32.0, 0.0, 0.0, 0.0, 1.7401453902823608E9, 0.0, 2025-02-21 10:43:10.282
53.0, -142500.88691722, -142526.21144368785, -141024.10716105785, -143433.37934415095, -142721.07395184922, -143217.72971364614, -143537.00203144577, -156708.16978313564, 0.08, 0.9480000000000001, 0.292, 192.0, 0.0, 0.0, 0.0, 0.0, 0.0, 0.0, 0.0, 0.0, 0.0, 1.7401453902824469E9, 0.0, 2025-02-21 10:43:10.282
54.0, -144219.4901966441, -144253.3977929828, -139389.88171695254, -142092.2299733436, -144023.42069428216, -143891.70186420702, -144184.64382703826, -155476.0969252702, 0.08, 0.9480000000000001, 0.292, 192.0, 0.0, 0.0, 0.0, 0.0, 0.0, 0.0, 0.0, 0.0, 0.0, 1.7401453902825508E9, 0.0, 2025-02-21 10:43:10.282
55.0, -144845.3837448816, -144867.17669572553, -138284.05151177067, -141184.27976182458, -144935.48362678094, -145026.32111624733, -145150.82033286337, -154616.31472305235, 0.08, 0.9480000000000001, 0.292, 192.0, 0.0, 0.0, 0.0, 0.0, 0.0, 0.0, 0.0, 0.0, 0.0, 1.7401453902826614E9, 0.0, 2025-02-21 10:43:10.282
56.0, -143118.5326717535, -143130.44615154818, -139857.70372840212, -142470.80146918315, -143679.3602918816, -144457.8491995155, -144586.5728958336, -155786.8308766879, 0.08, 0.9480000000000001, 0.292, 192.0, 0.0, 0.0, 0.0, 0.0, 0.0, 0.0, 0.0, 0.0, 0.0, 1.7401453902827587E9, 0.0, 2025-02-21 10:43:10.282
57.0, -142335.77458092864, -142358.68511899534, -141098.58317358294, -143486.88942037695, -142652.45409637142, -143267.0153101701, -143566.17105795993, -156743.9996294975, 0.08, 0.9480000000000001, 0.292, 192.0, 0.0, 0.0, 0.0, 0.0, 0.0, 0.0, 0.0, 0.0, 0.0, 1.740145390282854E9, 0.0, 2025-02-21 10:43:10.282
58.0, -143879.72132917898, -143913.20424237303, -139753.52224749592, -142382.7579477737, -143717.69353362246, -143655.48862880334, -143969.3294727003, -155735.26540222947, 0.08, 0.9480000000000001, 0.292, 192.0, 0.0, 0.0, 0.0, 0.0, 0.0, 0.0, 0.0, 0.0, 0.0, 1.7401453902829323E9, 0.0, 2025-02-21 10:43:10.282
59.0, -144935.59538550323, -144960.00349044843, -138261.25273242628, -141157.3235580115, -144926.0064871319, -144901.6430856756, -145052.3385467933, -154586.29633024888, 0.08, 0.9480000000000001, 0.292, 192.0, 0.0, 0.0, 0.0, 0.0, 0.0, 0.0, 0.0, 0.0, 0.0, 1.7401453902830014E9, 0.0, 2025-02-21 10:43:10.283
60.0, -143432.0605912281, -143443.61644311147, -139490.10693909012, -142161.07334626597, -143952.0739259808, -144650.11890532004, -144759.8212671067, -155490.55850393279, 0.08, 0.9480000000000001, 0.292, 192.0, 0.0, 0.0, 0.0, 0.0, 0.0, 0.0, 0.0, 0.0, 0.0, 1.7401453902830815E9, 0.0, 2025-02-21 10:43:10.283
61.0, -142249.2286263977, -142268.87580977392, -141081.1935163967, -143464.604731155, -142655.6280440841, -143372.49319225468, -143645.96678566537, -156709.42148082514, 0.08, 0.9480000000000001, 0.292, 192.0, 0.0, 0.0, 0.0, 0.0, 0.0, 0.0, 0.0, 0.0, 0.0, 1.7401453902831528E9, 0.0, 2025-02-21 10:43:10.283
62.0, -143525.8261592181, -143558.41500263393, -140110.94899308073, -142668.3238349347, -143419.43185561083, -143451.19368448184, -143780.36782507514, -155989.15886749732, 0.082, 0.9560000000000001, 0.296, 192.0, 2.0, 144.0, 29.0, 224.0, 9.0, 64.0, 0.0, 0.0, 0.0, 1.740145390283246E9, 0.0, 2025-02-21 10:43:10.283
63.0, -144930.8568156787, -144958.17064740308, -138356.71703299487, -141228.580919335, -144835.54897732128, -144723.1197027111, -144905.12995781066, -154647.29424086743, 0.082, 0.9560000000000001, 0.296, 192.0, 0.0, 0.0, 0.0, 0.0, 0.0, 0.0, 0.0, 0.0, 0.0, 1.740145390283329E9, 0.0, 2025-02-21 10:43:10.283
64.0, -143758.66428120903, -143771.0918511262, -139147.03001344562, -141872.42291837014, -144215.1316064753, -144807.72105547442, -144905.17466129956, -155215.7885093437, 0.082, 0.9560000000000001, 0.296, 192.0, 0.0, 0.0, 0.0, 0.0, 0.0, 0.0, 0.0, 0.0, 0.0, 1.7401453902834113E9, 0.0, 2025-02-21 10:43:10.283
65.0, -142252.89431248835, -142269.76987955213, -140972.0722999659, -143367.26288405215, -142734.61910898914, -143527.0778569076, -143770.46600228144, -156605.5752760858, 0.082, 0.9560000000000001, 0.296, 192.0, 0.0, 0.0, 0.0, 0.0, 0.0, 0.0, 0.0, 0.0, 0.0, 1.7401453902834857E9, 0.0, 2025-02-21 10:43:10.283
66.0, -143181.27401843955, -143212.52175718805, -140434.51284581577, -142925.74887582648, -143144.8406749774, -143286.75190052413, -143624.01737261028, -156216.43140511887, 0.082, 0.9560000000000001, 0.296, 192.0, 0.0, 0.0, 0.0, 0.0, 0.0, 0.0, 0.0, 0.0, 0.0, 1.7401453902835655E9, 0.0, 2025-02-21 10:43:10.283
67.0, -144828.61993654014, -144858.45951538798, -138534.2569392034, -141366.0664994796, -144669.38610904053, -144502.0162465592, -144715.5648130852, -154768.23953011507, 0.082, 0.9560000000000001, 0.296, 192.0, 0.0, 0.0, 0.0, 0.0, 0.0, 0.0, 0.0, 0.0, 0.0, 1.74014539028366E9, 0.0, 2025-02-21 10:43:10.283
68.0, -144080.32823566537, -144094.2086689721, -138826.72951540106, -141602.59265930566, -144454.83171401403, -144922.87724290817, -145015.8828515867, -154959.19048299678, 0.082, 0.9560000000000001, 0.296, 192.0, 0.0, 0.0, 0.0, 0.0, 0.0, 0.0, 0.0, 0.0, 0.0, 1.7401453902837603E9, 0.0, 2025-02-21 10:43:10.283
69.0, -142347.15161885638, -142361.2555696077, -140764.89398060966, -143189.00772202108, -142885.78395674037, -143723.39322845856, -143934.43839960557, -156427.11894835462, 0.082, 0.9560000000000001, 0.296, 192.0, 0.0, 0.0, 0.0, 0.0, 0.0, 0.0, 0.0, 0.0, 0.0, 1.7401453902838795E9, 0.0, 2025-02-21 10:43:10.283
70.0, -142862.29227331784, -142891.30483762085, -140703.98547696896, -143138.1351516408, -142909.3203436518, -143172.4450793797, -143510.26934507722, -156401.3250352532, 0.082, 0.9560000000000001, 0.296, 192.0, 0.0, 0.0, 0.0, 0.0, 0.0, 0.0, 0.0, 0.0, 0.0, 1.7401453902839797E9, 0.0, 2025-02-21 10:43:10.283
71.0, -144636.66315515796, -144668.31322530666, -138792.3078289399, -141569.3109118117, -144440.92892896282, -144254.73889765012, -144498.64113314642, -154949.10984624742, 0.082, 0.9560000000000001, 0.296, 192.0, 0.0, 0.0, 0.0, 0.0, 0.0, 0.0, 0.0, 0.0, 0.0, 1.7401453902840612E9, 0.0, 2025-02-21 10:43:10.284
72.0, -144359.30035821206, -144375.19244851978, -138573.19367804454, -141387.03243577867, -144640.46295171537, -144976.1190982007, -145072.76804122544, -154754.09087587488, 0.078, 0.9540000000000001, 0.294, 192.0, 2.0, 112.0, 29.0, 208.0, 9.0, 48.0, 0.0, 0.0, 0.0, 1.7401453902841368E9, 0.0, 2025-02-21 10:43:10.284
73.0, -142519.0365337177, -142531.3523449126, -140498.6623524025, -142962.76336464446, -143089.34129349486, -143938.23819616297, -144117.38742797225, -156205.45669859133, 0.078, 0.9540000000000001, 0.294, 192.0, 0.0, 0.0, 0.0, 0.0, 0.0, 0.0, 0.0, 0.0, 0.0, 1.7401453902842107E9, 0.0, 2025-02-21 10:43:10.284
74.0, -142586.58350546163, -142613.33854357465, -140920.3056598074, -143307.91900252333, -142724.7396379399, -143114.59876472937, -143445.24812045673, -156546.36550502366, 0.078, 0.9540000000000001, 0.294, 192.0, 0.0, 0.0, 0.0, 0.0, 0.0, 0.0, 0.0, 0.0, 0.0, 1.7401453902842827E9, 0.0, 2025-02-21 10:43:10.284
75.0, -144373.6278264079, -144406.37313203493, -139116.85515843096, -141827.8311881818, -144166.65067275174, -143996.57624919133, -144269.37929026835, -155180.49510484876, 0.078, 0.9540000000000001, 0.294, 192.0, 0.0, 0.0, 0.0, 0.0, 0.0, 0.0, 0.0, 0.0, 0.0, 1.740145390284352E9, 0.0, 2025-02-21 10:43:10.284
76.0, -144591.3785208915, -144609.93046878942, -138391.54105085623, -141230.6372798249, -144768.7619648888, -144968.1618771746, -145076.76900348294, -154604.35653976878, 0.078, 0.9540000000000001, 0.294, 192.0, 0.0, 0.0, 0.0, 0.0, 0.0, 0.0, 0.0, 0.0, 0.0, 1.740145390284433E9, 0.0, 2025-02-21 10:43:10.284
77.0, -142757.17201914455, -142768.37024311666, -140178.20539214677, -142691.99433231287, -143333.6235086469, -144160.05690813743, -144308.65130527632, -155943.31543961947, 0.078, 0.9540000000000001, 0.294, 192.0, 0.0, 0.0, 0.0, 0.0, 0.0, 0.0, 0.0, 0.0, 0.0, 1.7401453902845092E9, 0.0, 2025-02-21 10:43:10.284
78.0, -142365.12242139847, -142389.32936064355, -141058.6853097302, -143412.97220146324, -142597.58056373365, -143111.3801135278, -143426.91969000336, -156630.83274732027, 0.078, 0.9540000000000001, 0.294, 192.0, 0.0, 0.0, 0.0, 0.0, 0.0, 0.0, 0.0, 0.0, 0.0, 1.74014539028459E9, 0.0, 2025-02-21 10:43:10.284
79.0, -144058.57998831035, -144091.99584627102, -139463.4189562105, -142103.42819731572, -143866.33263425026, -143742.95100485696, -144039.6480607567, -155426.6325147906, 0.078, 0.9540000000000001, 0.294, 192.0, 0.0, 0.0, 0.0, 0.0, 0.0, 0.0, 0.0, 0.0, 0.0, 1.7401453902846885E9, 0.0, 2025-02-21 10:43:10.284
80.0, -144751.61817689158, -144773.58994169117, -138289.61709614005, -141138.88336883587, -144824.37310509363, -144894.98226582794, -145023.97418307952, -154514.41312008063, 0.078, 0.9540000000000001, 0.294, 192.0, 0.0, 0.0, 0.0, 0.0, 0.0, 0.0, 0.0, 0.0, 0.0, 1.7401453902847753E9, 0.0, 2025-02-21 10:43:10.284
81.0, -143065.2237612276, -143076.5784474109, -139803.21017542007, -142376.4994593262, -143617.82593939613, -144382.14384104538, -144506.6654094059, -155640.9410406281, 0.078, 0.9540000000000001, 0.294, 192.0, 0.0, 0.0, 0.0, 0.0, 0.0, 0.0, 0.0, 0.0, 0.0, 1.7401453902848637E9, 0.0, 2025-02-21 10:43:10.284
82.0, -142215.3657335479, -142237.3822018364, -141106.92037426477, -143444.46580940078, -142546.77504858674, -143179.10589922738, -143472.6737109034, -156646.47896843898, 0.08, 0.9540000000000001, 0.3, 192.0, 2.0, 128.0, 29.0, 208.0, 9.0, 96.0, 0.0, 0.0, 0.0, 1.7401453902849326E9, 0.0, 2025-02-21 10:43:10.284
83.0, -143712.08324576417, -143745.54380721378, -139828.98173677706, -142395.4090351354, -143559.91256951244, -143514.27030733472, -143829.98869776592, -155687.4997243285, 0.08, 0.9540000000000001, 0.3, 192.0, 0.0, 0.0, 0.0, 0.0, 0.0, 0.0, 0.0, 0.0, 0.0, 1.740145390285004E9, 0.0, 2025-02-21 10:43:10.285
84.0, -144823.18846263748, -144848.02125072732, -138303.07284630215, -141142.92903458228, -144800.38968329306, -144762.83875260816, -144918.7645219284, -154513.56375379133, 0.08, 0.9540000000000001, 0.3, 192.0, 0.0, 0.0, 0.0, 0.0, 0.0, 0.0, 0.0, 0.0, 0.0, 1.7401453902850842E9, 0.0, 2025-02-21 10:43:10.285
85.0, -143380.5398202586, -143392.45330005328, -139455.81936309568, -142084.4292145287, -143888.1702885831, -144566.14340140147, -144674.03527188723, -155362.03597331478, 0.08, 0.9540000000000001, 0.3, 192.0, 0.0, 0.0, 0.0, 0.0, 0.0, 0.0, 0.0, 0.0, 0.0, 1.7401453902851524E9, 0.0, 2025-02-21 10:43:10.285
86.0, -142150.52332288306, -142169.74582311462, -141068.56478077947, -143404.9032217149, -142567.71863314137, -143293.54683083855, -143560.4937148683, -156596.79104051483, 0.08, 0.9540000000000001, 0.3, 192.0, 0.0, 0.0, 0.0, 0.0, 0.0, 0.0, 0.0, 0.0, 0.0, 1.7401453902852256E9, 0.0, 2025-02-21 10:43:10.285
87.0, -143364.40186076186, -143396.5436692886, -140172.61745603292, -142669.24025645736, -143270.63629277187, -143320.81595907404, -143649.52071303377, -155931.22314586915, 0.08, 0.9540000000000001, 0.3, 192.0, 0.0, 0.0, 0.0, 0.0, 0.0, 0.0, 0.0, 0.0, 0.0, 1.740145390285312E9, 0.0, 2025-02-21 10:43:10.285
88.0, -144800.38968329306, -144827.81527373975, -138403.0298475063, -141216.64508779589, -144696.72229250937, -144576.73812827328, -144763.44224970846, -154576.37215571073, 0.08, 0.9540000000000001, 0.3, 192.0, 0.0, 0.0, 0.0, 0.0, 0.0, 0.0, 0.0, 0.0, 0.0, 1.740145390285395E9, 0.0, 2025-02-21 10:43:10.285
89.0, -143705.0200945163, -143717.44766443345, -139107.02039087063, -141790.23555400796, -144146.33293704188, -144715.34129564062, -144812.66079099904, -155081.6556908674, 0.08, 0.9540000000000001, 0.3, 192.0, 0.0, 0.0, 0.0, 0.0, 0.0, 0.0, 0.0, 0.0, 0.0, 1.7401453902854867E9, 0.0, 2025-02-21 10:43:10.285
90.0, -142167.801221347, -142183.7156633992, -140940.08695365035, -143291.24460115965, -142658.51141911882, -143455.97695779527, -143692.7713385548, -156478.10327745715, 0.08, 0.9540000000000001, 0.3, 192.0, 0.0, 0.0, 0.0, 0.0, 0.0, 0.0, 0.0, 0.0, 0.0, 1.7401453902855687E9, 0.0, 2025-02-21 10:43:10.285
91.0, -143022.80015025142, -143053.0644122439, -140490.34750346513, -142921.85967229126, -143001.32012382988, -143163.92906474223, -143499.85343216104, -156154.67353518886, 0.08, 0.9540000000000001, 0.3, 192.0, 0.0, 0.0, 0.0, 0.0, 0.0, 0.0, 0.0, 0.0, 0.0, 1.7401453902856624E9, 0.0, 2025-02-21 10:43:10.285
92.0, -144682.23836210233, -144711.8544235056, -138602.8767946812, -141372.95083677184, -144518.98122060075, -144350.7619918301, -144568.5126863137, -154715.13178528927, 0.084, 0.9460000000000001, 0.302, 192.0, 2.0, 160.0, 29.0, 144.0, 9.0, 112.0, 0.0, 0.0, 0.0, 1.740145390285758E9, 0.0, 2025-02-21 10:43:10.285
93.0, -144010.2778685424, -144024.35946754928, -138815.4195327067, -141544.12049581058, -144370.2750647396, -144816.90762244555, -144910.13674856862, -154847.40940897577, 0.084, 0.9460000000000001, 0.302, 192.0, 0.0, 0.0, 0.0, 0.0, 0.0, 0.0, 0.0, 0.0, 0.0, 1.7401453902858443E9, 0.0, 2025-02-21 10:43:10.285
94.0, -142264.5842748385, -142278.82233605653, -140743.7268786105, -143122.15365435526, -142807.55285114681, -143644.67038448696, -143849.94880556452, -156308.72175797485, 0.084, 0.9460000000000001, 0.302, 192.0, 0.0, 0.0, 0.0, 0.0, 0.0, 0.0, 0.0, 0.0, 0.0, 1.7401453902859375E9, 0.0, 2025-02-21 10:43:10.285
95.0, -142713.1837860565, -142741.9504811705, -140754.20984676003, -143130.06617189242, -142774.91930424207, -143056.55128437892, -143392.20743086428, -156336.39321761052, 0.084, 0.9460000000000001, 0.302, 192.0, 0.0, 0.0, 0.0, 0.0, 0.0, 0.0, 0.0, 0.0, 0.0, 1.740145390286022E9, 0.0, 2025-02-21 10:43:10.286
96.0, -144483.03961551664, -144514.44381647633, -138865.26392284202, -141579.61506600562, -144285.47254627617, -144102.1211865093, -144350.5161226411, -154899.53367704555, 0.084, 0.9460000000000001, 0.302, 192.0, 0.0, 0.0, 0.0, 0.0, 0.0, 0.0, 0.0, 0.0, 0.0, 1.7401453902861102E9, 0.0, 2025-02-21 10:43:10.286
97.0, -144287.01481664358, -144302.97396218468, -138558.84385810423, -141325.43102805986, -144549.82662794908, -144861.20877995598, -144960.09289742625, -154638.66646750766, 0.084, 0.9460000000000001, 0.302, 192.0, 0.0, 0.0, 0.0, 0.0, 0.0, 0.0, 0.0, 0.0, 0.0, 1.7401453902861912E9, 0.0, 2025-02-21 10:43:10.286
98.0, -142450.88606487348, -142462.7324894348, -140456.32814840414, -142878.0279014144, -143022.44252234013, -143865.68443366105, -144039.6927642456, -156069.6922027698, 0.084, 0.9460000000000001, 0.302, 192.0, 0.0, 0.0, 0.0, 0.0, 0.0, 0.0, 0.0, 0.0, 0.0, 1.7401453902862697E9, 0.0, 2025-02-21 10:43:10.286
99.0, -142441.94536709136, -142468.29807380415, -140959.64473004875, -143290.39523487035, -142595.7030171994, -143005.499900043, -143333.86937783592, -156472.4929895989, 0.084, 0.9460000000000001, 0.302, 192.0, 0.0, 0.0, 0.0, 0.0, 0.0, 0.0, 0.0, 0.0, 0.0, 1.7401453902863674E9, 0.0, 2025-02-21 10:43:10.286
100.0, -144216.9868012651, -144249.48623770312, -139193.34282795704, -141841.2869383439, -144012.0883598433, -143849.2559014864, -144125.45640772063, -155134.18229033737, 0.084, 0.9460000000000001, 0.302, 192.0, 0.0, 0.0, 0.0, 0.0, 0.0, 0.0, 0.0, 0.0, 0.0, 1.7401453902864516E9, 0.0, 2025-02-21 10:43:10.286
101.0, -144513.32622925358, -144531.78877017365, -138394.80440554672, -141184.50327926915, -144673.72234746485, -144850.92697750652, -144962.88686548316, -154503.28195134187, 0.084, 0.9460000000000001, 0.302, 192.0, 0.0, 0.0, 0.0, 0.0, 0.0, 0.0, 0.0, 0.0, 0.0, 1.7401453902866056E9, 0.0, 2025-02-21 10:43:10.286
102.0, -142701.71734115094, -142712.5355854673, -140136.8770166489, -142609.18111910595, -143275.9113044633, -144090.67709334817, -144236.52222591903, -155809.22732463208, 0.094, 0.9380000000000001, 0.308, 192.0, 2.0, 240.0, 29.0, 80.0, 9.0, 160.0, 0.0, 0.0, 0.0, 1.7401453902867308E9, 0.0, 2025-02-21 10:43:10.286
103.0, -142229.7155534882, -142253.40840261083, -141096.66092355977, -143395.35902683248, -142479.94333266537, -143013.47947281355, -143326.80622658806, -156557.13904585113, 0.094, 0.9380000000000001, 0.308, 192.0, 0.0, 0.0, 0.0, 0.0, 0.0, 0.0, 0.0, 0.0, 0.0, 1.7401453902868264E9, 0.0, 2025-02-21 10:43:10.286
104.0, -143900.30728582232, -143933.16435017163, -139548.46734386295, -142124.57294757044, -143712.32911495317, -143599.3410467316, -143899.6143817442, -155388.00870037184, 0.094, 0.9380000000000001, 0.308, 192.0, 0.0, 0.0, 0.0, 0.0, 0.0, 0.0, 0.0, 0.0, 0.0, 1.7401453902869236E9, 0.0, 2025-02-21 10:43:10.286
105.0, -144662.97115838184, -144684.56294352567, -138312.97466909586, -141109.96021151068, -144720.77276954328, -144772.9193893575, -144905.28642002185, -154429.2529737059, 0.094, 0.9380000000000001, 0.308, 192.0, 0.0, 0.0, 0.0, 0.0, 0.0, 0.0, 0.0, 0.0, 0.0, 1.740145390756215E9, 0.0, 2025-02-21 10:43:10.756
106.0, -143001.2977720854, -143011.7583884905, -139785.37348334474, -142313.91457485134, -143550.9942234748, -144304.24801161862, -144426.51205378916, -155525.53898400534, 0.094, 0.9380000000000001, 0.308, 192.0, 0.0, 0.0, 0.0, 0.0, 0.0, 0.0, 0.0, 0.0, 0.0, 1.7401453907564554E9, 0.0, 2025-02-21 10:43:10.756
107.0, -142093.034636144, -142113.93351720972, -141143.93486308277, -143426.83028302554, -142438.3243844896, -143084.8262411149, -143375.64478822288, -156573.00878441439, 0.094, 0.9380000000000001, 0.308, 192.0, 0.0, 0.0, 0.0, 0.0, 0.0, 0.0, 0.0, 0.0, 0.0, 1.7401453907565465E9, 0.0, 2025-02-21 10:43:10.756
108.0, -143559.21966543433, -143591.76380536126, -139912.0184674285, -142415.43619816736, -143412.7933875076, -143377.52233475714, -143696.168803712, -155648.07124710933, 0.094, 0.9380000000000001, 0.308, 192.0, 0.0, 0.0, 0.0, 0.0, 0.0, 0.0, 0.0, 0.0, 0.0, 1.7401453907566345E9, 0.0, 2025-02-21 10:43:10.756
109.0, -144728.77469405826, -144753.36161295912, -138331.32545129364, -141117.73861858115, -144691.2014116289, -144636.95372783588, -144797.0369216248, -154431.44344466252, 0.094, 0.9380000000000001, 0.308, 192.0, 0.0, 0.0, 0.0, 0.0, 0.0, 0.0, 0.0, 0.0, 0.0, 1.740145390756724E9, 0.0, 2025-02-21 10:43:10.756
110.0, -143313.5292903816, -143324.39223818688, -139433.13234247355, -142016.8598910403, -143816.53294760382, -144483.93368529485, -144589.389215635, -155240.73305615582, 0.094, 0.9380000000000001, 0.308, 192.0, 0.0, 0.0, 0.0, 0.0, 0.0, 0.0, 0.0, 0.0, 0.0, 1.7401453907568107E9, 0.0, 2025-02-21 10:43:10.756
111.0, -142024.5265393885, -142042.4749901861, -141098.0020282271, -143379.71280571376, -142454.3729370085, -143193.92510580126, -143458.8156293411, -156515.31893197526, 0.094, 0.9380000000000001, 0.308, 192.0, 0.0, 0.0, 0.0, 0.0, 0.0, 0.0, 0.0, 0.0, 0.0, 1.7401453907569344E9, 0.0, 2025-02-21 10:43:10.756
112.0, -143204.07279778397, -143235.54405397704, -140251.2955965156, -142684.57355315372, -143116.6774769637, -143178.70356782718, -143509.75525495474, -155887.01139533657, 0.09, 0.9400000000000001, 0.316, 192.0, 2.0, 208.0, 29.0, 96.0, 9.0, 224.0, 0.0, 0.0, 0.0, 1.7401453907570226E9, 0.0, 2025-02-21 10:43:10.757
113.0, -144691.91666745147, -144719.27520266478, -138444.31351951524, -141201.91528819982, -144574.63706429448, -144442.22533014123, -144631.94693707788, -154503.66193099762, 0.09, 0.9400000000000001, 0.316, 192.0, 0.0, 0.0, 0.0, 0.0, 0.0, 0.0, 0.0, 0.0, 0.0, 1.7401453907571137E9, 0.0, 2025-02-21 10:43:10.757
114.0, -143646.63733799904, -143658.81903872718, -139083.30519000354, -141722.28625086384, -144078.74126180905, -144632.17045452245, -144727.14301671303, -154959.81633184152, 0.09, 0.9400000000000001, 0.316, 192.0, 0.0, 0.0, 0.0, 0.0, 0.0, 0.0, 0.0, 0.0, 0.0, 1.74014539075722E9, 0.0, 2025-02-21 10:43:10.757
115.0, -142062.79272589597, -142078.34954003687, -140950.86049447782, -143251.2573303291, -142564.5893889176, -143371.82263992104, -143604.6831136564, -156382.5495699107, 0.09, 0.9400000000000001, 0.316, 192.0, 0.0, 0.0, 0.0, 0.0, 0.0, 0.0, 0.0, 0.0, 0.0, 1.7401453907573068E9, 0.0, 2025-02-21 10:43:10.757
116.0, -142867.6790437316, -142897.6303813017, -140563.25889387834, -142932.7896753299, -142855.966729637, -143034.13248469026, -143370.83916316502, -156106.12554623195, 0.09, 0.9400000000000001, 0.316, 192.0, 0.0, 0.0, 0.0, 0.0, 0.0, 0.0, 0.0, 0.0, 0.0, 1.740145390757426E9, 0.0, 2025-02-21 10:43:10.757
117.0, -144563.5282473002, -144593.59134359256, -138651.2683214269, -141363.85367677853, -144390.21282079373, -144213.8352052969, -144435.8997864604, -154647.27188912296, 0.09, 0.9400000000000001, 0.316, 192.0, 0.0, 0.0, 0.0, 0.0, 0.0, 0.0, 0.0, 0.0, 0.0, 1.7401453907575457E9, 0.0, 2025-02-21 10:43:10.757
118.0, -143955.15846671563, -143969.59769363375, -138785.8481747923, -141471.0302914417, -144301.565802284, -144728.0594382357, -144821.31091610325, -154720.16092779173, 0.09, 0.9400000000000001, 0.316, 192.0, 0.0, 0.0, 0.0, 0.0, 0.0, 0.0, 0.0, 0.0, 0.0, 1.7401453907576232E9, 0.0, 2025-02-21 10:43:10.757
119.0, -142185.68261691125, -142199.20542230672, -140725.4207999016, -143058.38412742427, -142735.55788225625, -143576.43050866493, -143777.35033957366, -156190.68219550638, 0.09, 0.9400000000000001, 0.316, 192.0, 0.0, 0.0, 0.0, 0.0, 0.0, 0.0, 0.0, 0.0, 0.0, 1.7401453907577007E9, 0.0, 2025-02-21 10:43:10.757
120.0, -142561.16957201596, -142589.48923224083, -140814.02311492243, -143129.70854398116, -142635.33266011867, -142936.20949223154, -143272.24561837263, -156276.95992910385, 0.09, 0.9400000000000001, 0.316, 192.0, 0.0, 0.0, 0.0, 0.0, 0.0, 0.0, 0.0, 0.0, 0.0, 1.7401453907577848E9, 0.0, 2025-02-21 10:43:10.757
121.0, -144348.48211389568, -144380.1768875333, -138928.5864148839, -141582.9678276739, -144145.9753091306, -143961.34989992977, -144214.4834058861, -154842.80494961797, 0.09, 0.9400000000000001, 0.316, 192.0, 0.0, 0.0, 0.0, 0.0, 0.0, 0.0, 0.0, 0.0, 0.0, 1.740145390757941E9, 0.0, 2025-02-21 10:43:10.757
122.0, -144218.86434779936, -144235.4940456741, -138550.01491904436, -141269.8869430884, -144468.46627813176, -144760.5141711848, -144861.1417247226, -154527.5782975648, 0.08600000000000001, 0.9380000000000001, 0.326, 192.0, 2.0, 176.0, 29.0, 80.0, 10.0, 48.0, 0.0, 0.0, 0.0, 1.7401453907580996E9, 0.0, 2025-02-21 10:43:10.758
123.0, -142376.4994593262, -142388.79291877663, -140433.90934871548, -142810.59268839273, -142950.33579472732, -143790.51551705785, -143961.30519644084, -155948.47869258866, 0.08600000000000001, 0.9380000000000001, 0.326, 192.0, 0.0, 0.0, 0.0, 0.0, 0.0, 0.0, 0.0, 0.0, 0.0, 1.7401453907581997E9, 0.0, 2025-02-21 10:43:10.758
124.0, -142297.75426361017, -142323.86110113395, -141004.54938465948, -143277.34181610844, -142465.50410574724, -142892.66829403263, -143219.71901890266, -156401.90618060902, 0.08600000000000001, 0.9380000000000001, 0.326, 192.0, 0.0, 0.0, 0.0, 0.0, 0.0, 0.0, 0.0, 0.0, 0.0, 1.740145390758356E9, 0.0, 2025-02-21 10:43:10.758
125.0, -144067.76655528147, -144100.7577300975, -139258.9675496778, -141845.44436281256, -143862.57754118176, -143703.09784449314, -143983.65694089615, -155078.347632688, 0.08600000000000001, 0.9380000000000001, 0.326, 192.0, 0.0, 0.0, 0.0, 0.0, 0.0, 0.0, 0.0, 0.0, 0.0, 1.7401453907584574E9, 0.0, 2025-02-21 10:43:10.758
126.0, -144432.92700444782, -144452.28361514612, -138391.675161323, -141132.62488038838, -144578.45921259632, -144736.10606623962, -144851.21755018443, -154395.50183957838, 0.08600000000000001, 0.9380000000000001, 0.326, 192.0, 0.0, 0.0, 0.0, 0.0, 0.0, 0.0, 0.0, 0.0, 0.0, 1.7401453907585363E9, 0.0, 2025-02-21 10:43:10.758
127.0, -142640.9205962325, -142651.80589578222, -140095.92862080678, -142525.87616752103, -143211.94061183222, -144016.67046745666, -144159.7216319706, -155673.61929102175, 0.08600000000000001, 0.9380000000000001, 0.326, 192.0, 0.0, 0.0, 0.0, 0.0, 0.0, 0.0, 0.0, 0.0, 0.0, 1.7401453907586272E9, 0.0, 2025-02-21 10:43:10.758
128.0, -142101.3941885703, -142124.81881675945, -141120.08555174895, -143364.44656425077, -142366.57528478806, -142916.40584664416, -143226.71511491717, -156470.34722213118, 0.08600000000000001, 0.9380000000000001, 0.326, 192.0, 0.0, 0.0, 0.0, 0.0, 0.0, 0.0, 0.0, 0.0, 0.0, 1.7401453907587311E9, 0.0, 2025-02-21 10:43:10.758
129.0, -143739.419429233, -143772.54471451577, -139620.5964232202, -142133.98303198614, -143558.0797264671, -143457.0498415291, -143759.80422017624, -155337.18083348047, 0.08600000000000001, 0.9380000000000001, 0.326, 192.0, 0.0, 0.0, 0.0, 0.0, 0.0, 0.0, 0.0, 0.0, 0.0, 1.7401453907588346E9, 0.0, 2025-02-21 10:43:10.758
130.0, -144562.83534322208, -144585.00827372173, -138334.6558612175, -141078.4442518287, -144606.60005886556, -144643.36867849453, -144780.45192723893, -154340.3824377516, 0.08600000000000001, 0.9380000000000001, 0.326, 192.0, 0.0, 0.0, 0.0, 0.0, 0.0, 0.0, 0.0, 0.0, 0.0, 1.740145390758926E9, 0.0, 2025-02-21 10:43:10.758
131.0, -142929.16869272813, -142940.0986957668, -139755.735070197, -142239.3715070929, -143472.74076613676, -144214.0810744859, -144334.91460501132, -155397.91052316554, 0.08600000000000001, 0.9380000000000001, 0.326, 192.0, 0.0, 0.0, 0.0, 0.0, 0.0, 0.0, 0.0, 0.0, 0.0, 1.7401453907590137E9, 0.0, 2025-02-21 10:43:10.759
132.0, -141975.1738876312, -141995.87160299678, -141147.84641836243, -143378.86343942446, -142329.851368648, -142985.42803352216, -143273.58672303997, -156470.8389605092, 0.084, 0.934, 0.332, 192.0, 2.0, 160.0, 29.0, 48.0, 10.0, 96.0, 0.0, 0.0, 0.0, 1.7401453907590983E9, 0.0, 2025-02-21 10:43:10.759
133.0, -143393.6379425094, -143425.7573992917, -139973.1951920027, -142414.45272141133, -143256.7111559762, -143235.52170223257, -143555.46457236583, -155588.1238684802, 0.084, 0.934, 0.332, 192.0, 0.0, 0.0, 0.0, 0.0, 0.0, 0.0, 0.0, 0.0, 0.0, 1.7401453907591794E9, 0.0, 2025-02-21 10:43:10.759
