%OpenBCI Raw EXG Data
%Number of channels = 8
%Sample Rate = 250 Hz
%Board = OpenBCI_GUI$BoardCytonSerial
Sample Index, EXG Channel 0, EXG Channel 1, EXG Channel 2, EXG Channel 3, EXG Channel 4, EXG Channel 5, EXG Channel 6, EXG Channel 7, Accel Channel 0, Accel Channel 1, Accel Channel 2, Not Used, Digital Channel 0 (D11), Digital Channel 1 (D12), Digital Channel 2 (D13), Digital Channel 3 (D17), Not Used, Digital Channel 4 (D18), Analog Channel 0, Analog Channel 1, Analog Channel 2, Timestamp, Marker Channel, Timestamp (Formatted)
79.0, -5773.813220717099, -5623.520090999615, -6055.5793113207, -6011.658133466021, -47741.40390651273, -38802.31544999069, -89440.19251348883, -64742.341904919376, 0.0, 0.0, 0.0, 192.0, 0.0, 0.0, 0.0, 0.0, 0.0, 0.0, 0.0, 0.0, 0.0, 1.7393886558825085E9, 0.0, 2025-02-12 16:30:55.882
80.0, -5858.459276969347, -5673.856219512966, -6058.127410188605, -5996.369540258592, -47730.94329010764, -38764.92098151696, -89418.13134171144, -64708.65782602523, 0.0, 0.0, 0.0, 192.0, 0.0, 0.0, 0.0, 0.0, 0.0, 0.0, 0.0, 0.0, 0.0, 1.739388655882553E9, 0.0, 2025-02-12 16:30:55.882
81.0, -6032.713476742921, -5818.159081716429, -6025.784435961776, -5953.744763582321, -47727.612880183806, -38731.66158576746, -89365.15770735237, -64660.623927190776, 0.0, 0.0, 0.0, 192.0, 0.0, 0.0, 0.0, 0.0, 0.0, 0.0, 0.0, 0.0, 0.0, 1.7393886558825848E9, 0.0, 2025-02-12 16:30:55.882
82.0, -5969.882723079053, -5785.346720856038, -6018.318953313703, -5962.104316008606, -47736.419467499196, -38764.67511232795, -89379.01578891466, -64686.93193041467, 0.0, 0.0, 0.0, 192.0, 0.0, 0.0, 0.0, 0.0, 0.0, 0.0, 0.0, 0.0, 0.0, 1.739388655882615E9, 0.0, 2025-02-12 16:30:55.882
83.0, -5788.274799379683, -5637.35582081745, -6050.237244395882, -6005.734921185365, -47739.39224951175, -38802.6060226686, -89432.81643781859, -64737.35746590584, 0.0, 0.0, 0.0, 192.0, 0.0, 0.0, 0.0, 0.0, 0.0, 0.0, 0.0, 0.0, 0.0, 1.739388655882648E9, 0.0, 2025-02-12 16:30:55.882
84.0, -5827.5691661321125, -5650.789219235089, -6061.860151512641, -6002.270400794792, -47728.73046740657, -38773.72756883235, -89423.853388292, -64715.60921855083, 0.0, 0.0, 0.0, 192.0, 0.0, 0.0, 0.0, 0.0, 0.0, 0.0, 0.0, 0.0, 0.0, 1.7393886558826768E9, 0.0, 2025-02-12 16:30:55.882
85.0, -6014.273287567293, -5800.344741385548, -6031.752351731343, -5958.013946773284, -47724.14835979323, -38733.13680090151, -89368.62222774295, -64662.568528958385, 0.0, 0.0, 0.0, 192.0, 0.0, 0.0, 0.0, 0.0, 0.0, 0.0, 0.0, 0.0, 0.0, 1.7393886558827293E9, 0.0, 2025-02-12 16:30:55.882
86.0, -5999.454080993424, -5806.156194943928, -6016.642572479555, -5955.622310116567, -47734.74308666505, -38758.461327369376, -89371.46089928877, -64678.147694843734, 0.0, 0.0, 0.0, 192.0, 0.0, 0.0, 0.0, 0.0, 0.0, 0.0, 0.0, 0.0, 0.0, 1.739388655882758E9, 0.0, 2025-02-12 16:30:55.882
87.0, -5811.051226979641, -5657.40533559386, -6045.00693619334, -5999.007046104318, -47740.398078012244, -38803.70125814692, -89427.13909472694, -64733.35650364835, 0.058, 0.9400000000000001, 0.342, 192.0, 1.0, 208.0, 29.0, 96.0, 10.0, 176.0, 0.0, 0.0, 0.0, 1.7393886558827865E9, 0.0, 2025-02-12 16:30:55.882
88.0, -5804.479814109781, -5634.785370205089, -6066.397555637069, -6009.065331109206, -47733.24551978654, -38788.2562027283, -89433.84461806354, -64727.947381490165, 0.058, 0.9400000000000001, 0.342, 192.0, 0.0, 0.0, 0.0, 0.0, 0.0, 0.0, 0.0, 0.0, 0.0, 1.7393886558828185E9, 0.0, 2025-02-12 16:30:55.882
89.0, -5990.960418100407, -5779.356453342015, -6039.8213314797085, -5965.725298610366, -47725.75768539401, -38741.76457426126, -89378.72521623674, -64671.665688951696, 0.058, 0.9400000000000001, 0.342, 192.0, 0.0, 0.0, 0.0, 0.0, 0.0, 0.0, 0.0, 0.0, 0.0, 1.7393886558828616E9, 0.0, 2025-02-12 16:30:55.882
90.0, -6021.135273115072, -5819.634296850479, -6013.960363144918, -5948.425048401958, -47730.65271742973, -38751.33112088813, -89364.4424515298, -64668.715258683595, 0.058, 0.9400000000000001, 0.342, 192.0, 0.0, 0.0, 0.0, 0.0, 0.0, 0.0, 0.0, 0.0, 0.0, 1.739388655882892E9, 0.0, 2025-02-12 16:30:55.882
91.0, -5836.599270892057, -5677.9465887482875, -6035.19452037746, -5987.160621543005, -47738.20760705562, -38799.74499937832, -89417.75136205571, -64724.54991633295, 0.058, 0.9400000000000001, 0.342, 192.0, 0.0, 0.0, 0.0, 0.0, 0.0, 0.0, 0.0, 0.0, 0.0, 1.7393886558829324E9, 0.0, 2025-02-12 16:30:55.882
92.0, -5778.842363219544, -5614.914669384321, -6059.356756133647, -6005.042017107251, -47733.80431339792, -38796.481644687854, -89437.93498729885, -64733.96000074864, 0.058, 0.9400000000000001, 0.342, 192.0, 0.0, 0.0, 0.0, 0.0, 0.0, 0.0, 0.0, 0.0, 0.0, 1.739388655882962E9, 0.0, 2025-02-12 16:30:55.882
93.0, -5957.432801417447, -5749.606281472002, -6041.475360569401, -5968.608673645101, -47726.45058947213, -38750.705272043386, -89388.35881809698, -64680.516979756, 0.058, 0.9400000000000001, 0.342, 192.0, 0.0, 0.0, 0.0, 0.0, 0.0, 0.0, 0.0, 0.0, 0.0, 1.7393886558829913E9, 0.0, 2025-02-12 16:30:55.882
94.0, -6040.871863469108, -5832.665363867923, -6016.2849445682705, -5946.927481523452, -47729.848054629336, -38750.21353366537, -89361.7378904507, -64664.513130726, 0.058, 0.9400000000000001, 0.342, 192.0, 0.0, 0.0, 0.0, 0.0, 0.0, 0.0, 0.0, 0.0, 0.0, 1.739388655883021E9, 0.0, 2025-02-12 16:30:55.883
95.0, -5872.272655042727, -5707.585001896025, -6029.360715074625, -5978.465792949891, -47735.68185993217, -38795.408760954, -89405.43555086083, -64714.156355161234, 0.058, 0.9400000000000001, 0.342, 192.0, 0.0, 0.0, 0.0, 0.0, 0.0, 0.0, 0.0, 0.0, 0.0, 1.7393886558831673E9, 0.0, 2025-02-12 16:30:55.883
96.0, -5770.482810793258, -5611.696018182757, -6058.954424733452, -6006.673694452488, -47735.65950818772, -38805.82467387017, -89440.75130710022, -64739.34677116237, 0.058, 0.9400000000000001, 0.342, 192.0, 0.0, 0.0, 0.0, 0.0, 0.0, 0.0, 0.0, 0.0, 0.0, 1.7393886558831997E9, 0.0, 2025-02-12 16:30:55.883
97.0, -5925.022771957251, -5723.253574759195, -6048.113828672627, -5976.4317842044575, -47727.814045883904, -38761.38940589302, -89400.62992580295, -64691.13405837227, 0.06, 0.9380000000000001, 0.332, 192.0, 1.0, 224.0, 29.0, 80.0, 10.0, 96.0, 0.0, 0.0, 0.0, 1.739388655883231E9, 0.0, 2025-02-12 16:30:55.883
98.0, -6048.829084495197, -5835.481683669292, -6018.788339947265, -5945.765190811777, -47728.17167379519, -38748.246580153296, -89361.98375963971, -64661.60740394681, 0.06, 0.9380000000000001, 0.332, 192.0, 0.0, 0.0, 0.0, 0.0, 0.0, 0.0, 0.0, 0.0, 0.0, 1.7393886558832653E9, 0.0, 2025-02-12 16:30:55.883
99.0, -5910.717655505855, -5738.586871455535, -6025.739732472865, -5971.536752168746, -47735.65950818772, -38791.92188881897, -89397.07599843455, -64705.81915447941, 0.06, 0.9380000000000001, 0.332, 192.0, 0.0, 0.0, 0.0, 0.0, 0.0, 0.0, 0.0, 0.0, 0.0, 1.739388655883296E9, 0.0, 2025-02-12 16:30:55.883
100.0, -5771.131011382462, -5615.786387418078, -6057.590968321678, -6006.80780491922, -47737.671165188694, -38813.84895012963, -89442.24887397872, -64742.78893980849, 0.06, 0.9380000000000001, 0.332, 192.0, 0.0, 0.0, 0.0, 0.0, 0.0, 0.0, 0.0, 0.0, 0.0, 1.7393886558833487E9, 0.0, 2025-02-12 16:30:55.883
101.0, -5891.6069139965675, -5696.856164557477, -6054.48407584239, -5984.5901709306445, -47729.982165096066, -38773.92873453245, -89412.14107419743, -64703.18164863368, 0.06, 0.9380000000000001, 0.332, 192.0, 0.0, 0.0, 0.0, 0.0, 0.0, 0.0, 0.0, 0.0, 0.0, 1.739388655883387E9, 0.0, 2025-02-12 16:30:55.883
102.0, -6047.331517616692, -5830.541948144669, -6022.319915571203, -5946.323984423159, -47726.33883074985, -38748.26893189776, -89361.6931869618, -64660.9144998687, 0.06, 0.9380000000000001, 0.332, 192.0, 0.0, 0.0, 0.0, 0.0, 0.0, 0.0, 0.0, 0.0, 0.0, 1.739388655883418E9, 0.0, 2025-02-12 16:30:55.883
103.0, -5945.720487322866, -5765.319557824083, -6019.503595769835, -5961.456115419402, -47731.390324996755, -38784.0540747707, -89382.97204768324, -64693.07866013988, 0.06, 0.9380000000000001, 0.332, 192.0, 0.0, 0.0, 0.0, 0.0, 0.0, 0.0, 0.0, 0.0, 0.0, 1.7393886558834493E9, 0.0, 2025-02-12 16:30:55.883
104.0, -5777.545962041136, -5623.788311933078, -6051.824218252208, -6001.71160718341, -47735.77126690999, -38816.17353155298, -89436.79504833162, -64740.173785707215, 0.06, 0.9380000000000001, 0.332, 192.0, 0.0, 0.0, 0.0, 0.0, 0.0, 0.0, 0.0, 0.0, 0.0, 1.739388655883479E9, 0.0, 2025-02-12 16:30:55.883
105.0, -5854.860646112043, -5668.022414210131, -6056.093401443172, -5988.881705866063, -47729.15515055122, -38783.45057767041, -89419.91948126788, -64711.96588420462, 0.06, 0.9380000000000001, 0.332, 192.0, 0.0, 0.0, 0.0, 0.0, 0.0, 0.0, 0.0, 0.0, 0.0, 1.7393886558835168E9, 0.0, 2025-02-12 16:30:55.883
106.0, -6034.747485488354, -5816.952087515841, -6025.404456306035, -5947.754496068299, -47723.79073188195, -38748.67126329795, -89363.63778872941, -64661.40623824671, 0.06, 0.9380000000000001, 0.332, 192.0, 0.0, 0.0, 0.0, 0.0, 0.0, 0.0, 0.0, 0.0, 0.0, 1.739388655883546E9, 0.0, 2025-02-12 16:30:55.883
107.0, -5979.695138894933, -5790.755843014222, -6015.726150956888, -5953.297728693215, -47727.38936273925, -38776.18626072243, -89371.41619579986, -64681.1204768563, 0.056, 0.936, 0.34, 192.0, 1.0, 192.0, 29.0, 64.0, 10.0, 160.0, 0.0, 0.0, 0.0, 1.7393886558835833E9, 0.0, 2025-02-12 16:30:55.883
108.0, -5791.851078492532, -5637.579338262002, -6044.381087348591, -5994.3355315131585, -47732.68672617516, -38816.464104230894, -89428.63666160544, -64734.787015293485, 0.056, 0.936, 0.34, 192.0, 0.0, 0.0, 0.0, 0.0, 0.0, 0.0, 0.0, 0.0, 0.0, 1.7393886558836148E9, 0.0, 2025-02-12 16:30:55.883
109.0, -5820.528366628691, -5641.35678307495, -6054.797000264764, -5991.005121589318, -47727.1658452947, -38792.52538591926, -89425.23919644824, -64719.45371859714, 0.056, 0.936, 0.34, 192.0, 0.0, 0.0, 0.0, 0.0, 0.0, 0.0, 0.0, 0.0, 0.0, 1.739388655883644E9, 0.0, 2025-02-12 16:30:55.883
110.0, -6011.099339854639, -5793.818032004599, -6025.918546428507, -5947.642737346022, -47718.82864461287, -38748.112469686566, -89366.20823934177, -64661.29447952443, 0.056, 0.936, 0.34, 192.0, 0.0, 0.0, 0.0, 0.0, 0.0, 0.0, 0.0, 0.0, 0.0, 1.7393886558837078E9, 0.0, 2025-02-12 16:30:55.883
111.0, -6007.456005508424, -5810.358322901527, -6012.060464866217, -5945.273452433759, -47723.07547605938, -38767.62554259605, -89362.81077418456, -64669.341107528344, 0.056, 0.936, 0.34, 192.0, 0.0, 0.0, 0.0, 0.0, 0.0, 0.0, 0.0, 0.0, 0.0, 1.7393886558837385E9, 0.0, 2025-02-12 16:30:55.883
112.0, -5817.332067171582, -5660.735745517701, -6039.6425175240665, -5988.5240779547785, -47731.792656396945, -38815.81590364169, -89421.39469640193, -64728.707340801644, 0.056, 0.936, 0.34, 192.0, 0.0, 0.0, 0.0, 0.0, 0.0, 0.0, 0.0, 0.0, 0.0, 1.739388655883768E9, 0.0, 2025-02-12 16:30:55.883
113.0, -5798.757767529222, -5627.141073601374, -6058.90972124454, -5997.844755392642, -47729.89275811824, -38805.087066303146, -89433.28582445215, -64729.73552104658, 0.056, 0.936, 0.34, 192.0, 0.0, 0.0, 0.0, 0.0, 0.0, 0.0, 0.0, 0.0, 0.0, 1.739388655883798E9, 0.0, 2025-02-12 16:30:55.883
114.0, -5989.306389010714, -5774.9755114287755, -6036.110941900128, -5957.5892636286335, -47722.40492372572, -38758.50603085828, -89377.6970359918, -64672.33624128536, 0.056, 0.936, 0.34, 192.0, 0.0, 0.0, 0.0, 0.0, 0.0, 0.0, 0.0, 0.0, 0.0, 1.739388655883828E9, 0.0, 2025-02-12 16:30:55.883
115.0, -6032.467607553913, -5827.189186476372, -6013.267459066804, -5942.233615187838, -47722.226109770076, -38763.64693208301, -89356.79815492609, -64663.08261908086, 0.056, 0.936, 0.34, 192.0, 0.0, 0.0, 0.0, 0.0, 0.0, 0.0, 0.0, 0.0, 0.0, 1.7393886558838582E9, 0.0, 2025-02-12 16:30:55.883
116.0, -5847.596329164068, -5685.680292329824, -6032.758180231832, -5979.739842383843, -47728.797522639936, -38811.25614777281, -89408.14011193992, -64718.40318660774, 0.056, 0.936, 0.34, 192.0, 0.0, 0.0, 0.0, 0.0, 0.0, 0.0, 0.0, 0.0, 0.0, 1.7393886558839226E9, 0.0, 2025-02-12 16:30:55.883
117.0, -5778.931770197364, -5613.327695527994, -6056.29456714327, -5997.9118106260075, -47727.21054878361, -38811.39025823954, -89433.9116732969, -64732.685951314685, 0.062, 0.934, 0.342, 192.0, 1.0, 240.0, 29.0, 48.0, 10.0, 176.0, 0.0, 0.0, 0.0, 1.7393886558839529E9, 0.0, 2025-02-12 16:30:55.883
118.0, -5955.935234538942, -5746.2758715481605, -6040.6259942801, -5962.819571831175, -47720.81794986939, -38765.54683036171, -89387.44239657432, -64679.80172393343, 0.062, 0.934, 0.342, 192.0, 0.0, 0.0, 0.0, 0.0, 0.0, 0.0, 0.0, 0.0, 0.0, 1.7393886558839848E9, 0.0, 2025-02-12 16:30:55.883
119.0, -6046.057468182739, -5834.274689468705, -6013.71449395591, -5938.322059908159, -47719.834473113355, -38759.04247272521, -89353.95948338027, -64657.13705505575, 0.062, 0.934, 0.342, 192.0, 0.0, 0.0, 0.0, 0.0, 0.0, 0.0, 0.0, 0.0, 0.0, 1.7393886558840249E9, 0.0, 2025-02-12 16:30:55.884
120.0, -5880.54280049119, -5712.301219976094, -6025.426808050491, -5969.569798656678, -47725.19889178263, -38804.61767966958, -89395.04198968911, -64706.4226515797, 0.062, 0.934, 0.342, 192.0, 0.0, 0.0, 0.0, 0.0, 0.0, 0.0, 0.0, 0.0, 0.0, 1.7393886558840656E9, 0.0, 2025-02-12 16:30:55.884
121.0, -5769.365223570493, -5608.477366981193, -6053.6794130419985, -5997.464775736902, -47726.5176447055, -38817.84991238712, -89433.53169364115, -64734.943477504676, 0.062, 0.934, 0.342, 192.0, 0.0, 0.0, 0.0, 0.0, 0.0, 0.0, 0.0, 0.0, 0.0, 1.7393886558841064E9, 0.0, 2025-02-12 16:30:55.884
122.0, -5920.261850388271, -5716.436292700326, -6044.828122237697, -5968.340452711636, -47719.87917660227, -38774.37576942155, -89395.82430074505, -64688.451849037636, 0.062, 0.934, 0.342, 192.0, 0.0, 0.0, 0.0, 0.0, 0.0, 0.0, 0.0, 0.0, 0.0, 1.739388655884138E9, 0.0, 2025-02-12 16:30:55.884
123.0, -6052.204197907949, -5835.235814480283, -6016.6202207351, -5937.6515075745, -47718.18044402367, -38757.72371980235, -89353.4900967467, -64654.83482537685, 0.062, 0.934, 0.342, 192.0, 0.0, 0.0, 0.0, 0.0, 0.0, 0.0, 0.0, 0.0, 0.0, 1.7393886558841698E9, 0.0, 2025-02-12 16:30:55.884
124.0, -5920.306553877182, -5744.487731991736, -6023.9739446608955, -5964.674766620966, -47726.47294121658, -38801.86841510158, -89389.34229485302, -64698.934817187175, 0.062, 0.934, 0.342, 192.0, 0.0, 0.0, 0.0, 0.0, 0.0, 0.0, 0.0, 0.0, 0.0, 1.7393886558842075E9, 0.0, 2025-02-12 16:30:55.884
125.0, -5770.907493937909, -5613.640619950369, -6052.628881052599, -5998.202383303927, -47728.73046740657, -38825.002470612824, -89437.5103041542, -64737.89390777277, 0.062, 0.934, 0.342, 192.0, 0.0, 0.0, 0.0, 0.0, 0.0, 0.0, 0.0, 0.0, 0.0, 1.7393886558842416E9, 0.0, 2025-02-12 16:30:55.884
126.0, -5886.264847071749, -5689.770661565145, -6051.220721151915, -5977.281150493759, -47722.851958614825, -38787.0045050388, -89409.45886486278, -64700.83471546588, 0.062, 0.934, 0.342, 192.0, 0.0, 0.0, 0.0, 0.0, 0.0, 0.0, 0.0, 0.0, 0.0, 1.7393886558842869E9, 0.0, 2025-02-12 16:30:55.884
127.0, -6052.718288030421, -5832.330087701093, -6023.817482449709, -5942.36772565457, -47720.50502544702, -38761.97055124886, -89357.71457644875, -64658.54521495643, 0.068, 0.9440000000000001, 0.34400000000000003, 192.0, 2.0, 32.0, 29.0, 128.0, 10.0, 192.0, 0.0, 0.0, 0.0, 1.739388655884316E9, 0.0, 2025-02-12 16:30:55.884
128.0, -5962.931330553452, -5778.060052163608, -6024.890366183564, -5961.299653208215, -47728.104618561825, -38800.70612438991, -89380.66981800436, -64692.788087461966, 0.068, 0.9440000000000001, 0.34400000000000003, 192.0, 0.0, 0.0, 0.0, 0.0, 0.0, 0.0, 0.0, 0.0, 0.0, 1.7393886558843477E9, 0.0, 2025-02-12 16:30:55.884
129.0, -5787.5371918126575, -5630.851463180955, -6054.931110731496, -6000.817537405198, -47733.29022327545, -38834.39020328405, -89437.24208322074, -64741.850166541364, 0.068, 0.9440000000000001, 0.34400000000000003, 192.0, 0.0, 0.0, 0.0, 0.0, 0.0, 0.0, 0.0, 0.0, 0.0, 1.7393886558843763E9, 0.0, 2025-02-12 16:30:55.884
130.0, -5855.531198445702, -5666.904826987366, -6058.976776477907, -5988.121746554583, -47727.65758367271, -38801.86841510158, -89423.29459468063, -64715.005721450536, 0.068, 0.9440000000000001, 0.34400000000000003, 192.0, 0.0, 0.0, 0.0, 0.0, 0.0, 0.0, 0.0, 0.0, 0.0, 1.739388655884406E9, 0.0, 2025-02-12 16:30:55.884
131.0, -6039.3519448461475, -5818.695523583356, -6029.204252863437, -5946.74866756781, -47721.39909522523, -38764.876278028045, -89366.00707364167, -64662.300308024925, 0.068, 0.9440000000000001, 0.34400000000000003, 192.0, 0.0, 0.0, 0.0, 0.0, 0.0, 0.0, 0.0, 0.0, 0.0, 1.7393886558844445E9, 0.0, 2025-02-12 16:30:55.884
132.0, -5994.782566402265, -5801.708197797322, -6020.5094242703235, -5952.828342059654, -47724.97537433808, -38792.905365575, -89371.81852720006, -64681.34399430085, 0.068, 0.9440000000000001, 0.34400000000000003, 192.0, 0.0, 0.0, 0.0, 0.0, 0.0, 0.0, 0.0, 0.0, 0.0, 1.7393886558844736E9, 0.0, 2025-02-12 16:30:55.884
133.0, -5806.111491455018, -5648.598748278469, -6049.432581595491, -5994.894325124541, -47730.78682789646, -38834.77018293979, -89427.8543505495, -64736.396340894265, 0.068, 0.9440000000000001, 0.34400000000000003, 192.0, 0.0, 0.0, 0.0, 0.0, 0.0, 0.0, 0.0, 0.0, 0.0, 1.7393886558845031E9, 0.0, 2025-02-12 16:30:55.884
134.0, -5827.457407409836, -5646.140056388385, -6062.240131168382, -5994.38023500207, -47727.456417972615, -38813.42426698498, -89427.8543505495, -64724.460509355136, 0.068, 0.9440000000000001, 0.34400000000000003, 192.0, 0.0, 0.0, 0.0, 0.0, 0.0, 0.0, 0.0, 0.0, 0.0, 1.7393886558845325E9, 0.0, 2025-02-12 16:30:55.884
135.0, -6020.6882382259655, -5800.545907085647, -6036.692087255966, -5953.633004860045, -47722.38257198127, -38771.58180136464, -89373.18198361182, -64669.31875578389, 0.068, 0.9440000000000001, 0.34400000000000003, 192.0, 0.0, 0.0, 0.0, 0.0, 0.0, 0.0, 0.0, 0.0, 0.0, 1.7393886558845623E9, 0.0, 2025-02-12 16:30:55.884
136.0, -6023.325744071692, -5821.645953851456, -6019.704761469932, -5947.441571645924, -47724.34952549333, -38787.22802248335, -89365.42592828584, -64672.716220941096, 0.068, 0.9440000000000001, 0.34400000000000003, 192.0, 0.0, 0.0, 0.0, 0.0, 0.0, 0.0, 0.0, 0.0, 0.0, 1.7393886558845987E9, 0.0, 2025-02-12 16:30:55.884
137.0, -5832.82182607911, -5672.3139491455495, -6045.409267593535, -5989.172278543982, -47731.18915929666, -38833.76435443931, -89421.17117895737, -64729.757872791044, 0.066, 0.934, 0.34800000000000003, 192.0, 2.0, 16.0, 29.0, 48.0, 10.0, 224.0, 0.0, 0.0, 0.0, 1.7393886558846283E9, 0.0, 2025-02-12 16:30:55.884
138.0, -5804.569221087601, -5630.762056203134, -6064.564712591733, -5998.962342615408, -47728.12697030628, -38823.72842117887, -89435.0069087752, -64732.03775072548, 0.066, 0.934, 0.34800000000000003, 192.0, 0.0, 0.0, 0.0, 0.0, 0.0, 0.0, 0.0, 0.0, 0.0, 1.73938865588466E9, 0.0, 2025-02-12 16:30:55.884
139.0, -5992.2791710232705, -5775.623712017979, -6042.168264647516, -5959.2879962072375, -47721.175577780676, -38778.75671133479, -89381.94386743831, -64676.87364540978, 0.066, 0.934, 0.34800000000000003, 192.0, 0.0, 0.0, 0.0, 0.0, 0.0, 0.0, 0.0, 0.0, 0.0, 1.739388655884689E9, 0.0, 2025-02-12 16:30:55.884
140.0, -6044.202273392949, -5834.7887795911765, -6019.14596785855, -5943.328850666148, -47721.9131853477, -38783.338818948134, -89359.54741949409, -64666.6141947048, 0.066, 0.934, 0.34800000000000003, 192.0, 0.0, 0.0, 0.0, 0.0, 0.0, 0.0, 0.0, 0.0, 0.0, 1.7393886558847191E9, 0.0, 2025-02-12 16:30:55.884
141.0, -5861.566169448634, -5695.448004656792, -6036.692087255966, -5978.555199927712, -47726.87527261678, -38827.46116250291, -89407.46955960627, -64718.00085520755, 0.066, 0.934, 0.34800000000000003, 192.0, 0.0, 0.0, 0.0, 0.0, 0.0, 0.0, 0.0, 0.0, 0.0, 1.7393886558847883E9, 0.0, 2025-02-12 16:30:55.884
142.0, -5784.05031967763, -5616.032256607086, -6059.7814392782975, -5996.257781536315, -47723.746028393034, -38826.477685746875, -89433.33052794106, -64731.4789571141, 0.066, 0.934, 0.34800000000000003, 192.0, 0.0, 0.0, 0.0, 0.0, 0.0, 0.0, 0.0, 0.0, 0.0, 1.7393886558848186E9, 0.0, 2025-02-12 16:30:55.884
143.0, -5953.610653115589, -5742.073743590563, -6042.257671625337, -5960.204417729905, -47715.38647596675, -38781.26010671379, -89386.32480935154, -64679.622909977785, 0.066, 0.934, 0.34800000000000003, 192.0, 0.0, 0.0, 0.0, 0.0, 0.0, 0.0, 0.0, 0.0, 0.0, 1.739388655884848E9, 0.0, 2025-02-12 16:30:55.884
144.0, -6049.700802528954, -5834.408799935437, -6013.446273022446, -5934.298745906204, -47713.84420559934, -38774.599286866105, -89351.00905311217, -64656.421799233176, 0.066, 0.934, 0.34800000000000003, 192.0, 0.0, 0.0, 0.0, 0.0, 0.0, 0.0, 0.0, 0.0, 0.0, 1.7393886558848777E9, 0.0, 2025-02-12 16:30:55.884
145.0, -5895.004379153774, -5722.650077658901, -6029.3160115857145, -5969.011005045296, -47723.70132490413, -38822.163799067, -89395.73489376724, -64707.33907310237, 0.066, 0.934, 0.34800000000000003, 192.0, 0.0, 0.0, 0.0, 0.0, 0.0, 0.0, 0.0, 0.0, 0.0, 1.7393886558849084E9, 0.0, 2025-02-12 16:30:55.884
146.0, -5778.417680074893, -5615.093483339963, -6059.200293922459, -5998.291790281748, -47724.88596736026, -38835.351328295634, -89435.63275761995, -64736.17282344971, 0.066, 0.934, 0.34800000000000003, 192.0, 0.0, 0.0, 0.0, 0.0, 0.0, 0.0, 0.0, 0.0, 0.0, 1.7393886558849387E9, 0.0, 2025-02-12 16:30:55.884
147.0, -5918.764283509766, -5713.418807198859, -6047.733849016888, -5967.714603866888, -47715.74410387804, -38791.027819040755, -89396.51720482316, -64689.502381027036, 0.066, 0.9380000000000001, 0.338, 192.0, 2.0, 16.0, 29.0, 80.0, 10.0, 144.0, 0.0, 0.0, 0.0, 1.739388655884976E9, 0.0, 2025-02-12 16:30:55.884
148.0, -6055.512256087334, -5835.4369801803805, -6018.184842846971, -5935.84101627362, -47715.02884805547, -38775.26983919976, -89353.62420721343, -64656.37709574427, 0.066, 0.9380000000000001, 0.338, 192.0, 0.0, 0.0, 0.0, 0.0, 0.0, 0.0, 0.0, 0.0, 0.0, 1.7393886558850267E9, 0.0, 2025-02-12 16:30:55.885
149.0, -5931.772998782754, -5751.528531495158, -6024.28686908327, -5960.271472963271, -47722.02494406998, -38817.1123048201, -89385.40838782888, -64697.03491890847, 0.066, 0.9380000000000001, 0.338, 192.0, 0.0, 0.0, 0.0, 0.0, 0.0, 0.0, 0.0, 0.0, 0.0, 1.739388655885058E9, 0.0, 2025-02-12 16:30:55.885
150.0, -5783.357415599516, -5622.938945643777, -6058.529741588801, -5999.074101337684, -47727.031734827964, -38843.08503187717, -89435.8562750645, -64738.922088017716, 0.066, 0.9380000000000001, 0.338, 192.0, 0.0, 0.0, 0.0, 0.0, 0.0, 0.0, 0.0, 0.0, 0.0, 1.7393886558850892E9, 0.0, 2025-02-12 16:30:55.885
151.0, -5888.723538961833, -5690.798841810089, -6057.76978227732, -5980.164525528494, -47721.22028126959, -38806.58463318165, -89411.78344628614, -64704.63451202327, 0.066, 0.9380000000000001, 0.338, 192.0, 0.0, 0.0, 0.0, 0.0, 0.0, 0.0, 0.0, 0.0, 0.0, 1.7393886558851287E9, 0.0, 2025-02-12 16:30:55.885
152.0, -6052.33830837468, -5829.737285344278, -6024.845662694653, -5940.244309931316, -47716.61582191179, -38778.68965610143, -89360.06150961656, -64659.79691264593, 0.066, 0.9380000000000001, 0.338, 192.0, 0.0, 0.0, 0.0, 0.0, 0.0, 0.0, 0.0, 0.0, 0.0, 1.7393886558851604E9, 0.0, 2025-02-12 16:30:55.885
153.0, -5969.3239294676705, -5780.7646132427, -6022.386970804569, -5954.75059208281, -47722.762551637, -38813.69248791844, -89378.38994006992, -64689.27886358248, 0.066, 0.9380000000000001, 0.338, 192.0, 0.0, 0.0, 0.0, 0.0, 0.0, 0.0, 0.0, 0.0, 0.0, 1.739388655885194E9, 0.0, 2025-02-12 16:30:55.885
154.0, -5795.181488416372, -5635.679439983302, -6055.065221198228, -5996.213078047404, -47727.41171448371, -38847.2201046014, -89431.87766455146, -64737.71509381713, 0.066, 0.9380000000000001, 0.338, 192.0, 0.0, 0.0, 0.0, 0.0, 0.0, 0.0, 0.0, 0.0, 0.0, 1.739388655885224E9, 0.0, 2025-02-12 16:30:55.885
155.0, -5855.7323641458, -5665.519018831136, -6061.413116623535, -5986.2889035092485, -47721.0638190584, -38817.13465656456, -89419.76301905669, -64713.79872724995, 0.066, 0.9380000000000001, 0.338, 192.0, 0.0, 0.0, 0.0, 0.0, 0.0, 0.0, 0.0, 0.0, 0.0, 1.739388655885254E9, 0.0, 2025-02-12 16:30:55.885
156.0, -6036.557976789234, -5813.1299392139845, -6028.153720874038, -5941.920690765463, -47713.73244687706, -38779.80724332419, -89363.03429162911, -64661.18272080216, 0.066, 0.9380000000000001, 0.338, 192.0, 0.0, 0.0, 0.0, 0.0, 0.0, 0.0, 0.0, 0.0, 0.0, 1.7393886558852832E9, 0.0, 2025-02-12 16:30:55.885
157.0, -6000.191688560449, -5802.870488508998, -6017.849566680142, -5946.279280934248, -47719.141569035244, -38806.405819226005, -89367.9963788982, -64678.39356403275, 0.066, 0.93, 0.338, 192.0, 2.0, 16.0, 29.0, 16.0, 10.0, 144.0, 0.0, 0.0, 0.0, 1.7393886558853269E9, 0.0, 2025-02-12 16:30:55.885
158.0, -5813.442863636358, -5652.68911751379, -6048.583215306189, -5989.798127388732, -47725.44476097164, -38847.13069762358, -89424.54629237013, -64731.925992003205, 0.066, 0.93, 0.338, 192.0, 0.0, 0.0, 0.0, 0.0, 0.0, 0.0, 0.0, 0.0, 0.0, 1.7393886558853655E9, 0.0, 2025-02-12 16:30:55.885
159.0, -5828.016201021219, -5645.760076732645, -6065.034099225295, -5992.882668123564, -47722.695496403634, -38828.69050844795, -89429.03899300564, -64723.43232911019, 0.066, 0.93, 0.338, 192.0, 0.0, 0.0, 0.0, 0.0, 0.0, 0.0, 0.0, 0.0, 0.0, 1.7393886558853955E9, 0.0, 2025-02-12 16:30:55.885
160.0, -6015.569688745701, -5794.063901193607, -6035.149816888549, -5948.357993168592, -47714.64886839973, -38785.90926956049, -89371.41619579986, -64667.79883716093, 0.066, 0.93, 0.338, 192.0, 0.0, 0.0, 0.0, 0.0, 0.0, 0.0, 0.0, 0.0, 0.0, 1.739388655885425E9, 0.0, 2025-02-12 16:30:55.885
161.0, -6027.661982496022, -5822.383561418482, -6016.843738179653, -5941.406600642991, -47717.97927832357, -38802.136636035044, -89360.62030322794, -64671.106895340316, 0.066, 0.93, 0.338, 192.0, 0.0, 0.0, 0.0, 0.0, 0.0, 0.0, 0.0, 0.0, 0.0, 1.739388655885455E9, 0.0, 2025-02-12 16:30:55.885
162.0, -5839.549701160157, -5675.26437941365, -6041.944747202962, -5982.310292996203, -47723.52251094848, -38845.45431678943, -89413.5045306092, -64724.39345412177, 0.066, 0.93, 0.338, 192.0, 0.0, 0.0, 0.0, 0.0, 0.0, 0.0, 0.0, 0.0, 0.0, 1.739388655885494E9, 0.0, 2025-02-12 16:30:55.885
163.0, -5806.066787966107, -5630.5161870141255, -6066.017575981328, -5996.7942234032425, -47722.986069081555, -38838.52527600828, -89433.0623070076, -64730.47312861361, 0.066, 0.93, 0.338, 192.0, 0.0, 0.0, 0.0, 0.0, 0.0, 0.0, 0.0, 0.0, 0.0, 1.7393886558855255E9, 0.0, 2025-02-12 16:30:55.885
164.0, -5989.686368666455, -5771.533342782658, -6043.777590248298, -5957.499856650813, -47716.79463586744, -38795.27465048726, -89382.36855058296, -64677.72301169908, 0.066, 0.93, 0.338, 192.0, 0.0, 0.0, 0.0, 0.0, 0.0, 0.0, 0.0, 0.0, 0.0, 1.7393886558855555E9, 0.0, 2025-02-12 16:30:55.885
165.0, -6048.426753095002, -5835.794608091665, -6018.229546335882, -5938.880853519542, -47717.755760879016, -38799.16385402249, -89358.31807354905, -64666.144808071236, 0.066, 0.93, 0.338, 192.0, 0.0, 0.0, 0.0, 0.0, 0.0, 0.0, 0.0, 0.0, 0.0, 1.7393886558855853E9, 0.0, 2025-02-12 16:30:55.885
166.0, -5872.026785853718, -5702.757025093678, -6036.803845978242, -5975.157734770505, -47723.142531292746, -38843.68852897746, -89405.6590683054, -64716.95032321815, 0.066, 0.93, 0.338, 192.0, 0.0, 0.0, 0.0, 0.0, 0.0, 0.0, 0.0, 0.0, 0.0, 1.7393886558856225E9, 0.0, 2025-02-12 16:30:55.885
167.0, -5790.398215102937, -5620.994343876165, -6064.274139913815, -5997.7329966703655, -47721.62261266978, -38846.057813889725, -89434.49281865274, -64734.295276915465, 0.066, 0.9420000000000001, 0.34400000000000003, 192.0, 2.0, 16.0, 29.0, 112.0, 10.0, 192.0, 0.0, 0.0, 0.0, 1.7393886558856514E9, 0.0, 2025-02-12 16:30:55.885
168.0, -5955.488199649835, -5742.498426735214, -6048.3373461171805, -5963.423068931469, -47714.71592363309, -38802.226043012866, -89389.81168148658, -64685.009680391515, 0.066, 0.9420000000000001, 0.34400000000000003, 192.0, 0.0, 0.0, 0.0, 0.0, 0.0, 0.0, 0.0, 0.0, 0.0, 1.7393886558856833E9, 0.0, 2025-02-12 16:30:55.885
169.0, -6060.027308467306, -5841.3601924610375, -6020.196499847949, -5937.383286641037, -47716.213490511596, -38796.615755154584, -89356.57463748154, -64662.52382546948, 0.066, 0.9420000000000001, 0.34400000000000003, 192.0, 0.0, 0.0, 0.0, 0.0, 0.0, 0.0, 0.0, 0.0, 0.0, 1.7393886558857188E9, 0.0, 2025-02-12 16:30:55.885
170.0, -5909.98004793883, -5733.825949886555, -6033.875767454597, -5969.3239294676705, -47724.528339448974, -38841.90038942103, -89398.1041786795, -64710.043634181464, 0.066, 0.9420000000000001, 0.34400000000000003, 192.0, 0.0, 0.0, 0.0, 0.0, 0.0, 0.0, 0.0, 0.0, 0.0, 1.7393886558857484E9, 0.0, 2025-02-12 16:30:55.885
171.0, -5787.2466191347385, -5622.424855521304, -6065.078802714205, -6000.683426938466, -47724.796560382434, -38855.69141574996, -89438.1585047434, -64739.749102562564, 0.066, 0.9420000000000001, 0.34400000000000003, 192.0, 0.0, 0.0, 0.0, 0.0, 0.0, 0.0, 0.0, 0.0, 0.0, 1.7393886558857796E9, 0.0, 2025-02-12 16:30:55.885
172.0, -5921.245327144305, -5715.251650244195, -6054.841703753675, -5971.827324846665, -47716.19113876714, -38812.82076988468, -89402.01573395917, -64695.649110752245, 0.066, 0.9420000000000001, 0.34400000000000003, 192.0, 0.0, 0.0, 0.0, 0.0, 0.0, 0.0, 0.0, 0.0, 0.0, 1.7393886558858273E9, 0.0, 2025-02-12 16:30:55.885
173.0, -6061.346061390169, -5838.63327963749, -6022.230508593382, -5936.422161629458, -47714.179481766165, -38794.89467083153, -89357.20048632628, -64660.17689230167, 0.066, 0.9420000000000001, 0.34400000000000003, 192.0, 0.0, 0.0, 0.0, 0.0, 0.0, 0.0, 0.0, 0.0, 0.0, 1.739388655885859E9, 0.0, 2025-02-12 16:30:55.885
174.0, -5944.871121033564, -5761.09507812203, -6027.371409818103, -5959.667975862977, -47721.42144696968, -38835.64190097355, -89386.05658841808, -64698.73365148708, 0.066, 0.9420000000000001, 0.34400000000000003, 192.0, 0.0, 0.0, 0.0, 0.0, 0.0, 0.0, 0.0, 0.0, 0.0, 1.73938865588589E9, 0.0, 2025-02-12 16:30:55.885
175.0, -5789.638255791457, -5627.20812883474, -6060.161418934038, -5997.665941437, -47723.63426967076, -38859.71472975192, -89434.13519074145, -64738.78797755099, 0.066, 0.9420000000000001, 0.34400000000000003, 192.0, 0.0, 0.0, 0.0, 0.0, 0.0, 0.0, 0.0, 0.0, 0.0, 1.7393886558859277E9, 0.0, 2025-02-12 16:30:55.885
176.0, -5887.538896505702, -5688.675426086835, -6060.474343356413, -5979.985711572852, -47717.7110573901, -38824.30956653471, -89413.14690269792, -64706.556762046435, 0.066, 0.9420000000000001, 0.34400000000000003, 192.0, 0.0, 0.0, 0.0, 0.0, 0.0, 0.0, 0.0, 0.0, 0.0, 1.7393886558859591E9, 0.0, 2025-02-12 16:30:55.885
177.0, -6057.099229943661, -5832.218328978816, -6029.181901118983, -5941.339545409625, -47715.96762132259, -38798.649763900015, -89363.61543698495, -64664.08844758135, 0.07, 0.936, 0.34800000000000003, 192.0, 2.0, 48.0, 29.0, 64.0, 10.0, 224.0, 0.0, 0.0, 0.0, 1.7393886558859901E9, 0.0, 2025-02-12 16:30:55.885
178.0, -5980.790374373242, -5788.699482524334, -6023.996296405351, -5953.141266482028, -47720.460321958104, -38830.948034637935, -89377.16059412487, -64689.99411940505, 0.07, 0.936, 0.34800000000000003, 192.0, 0.0, 0.0, 0.0, 0.0, 0.0, 0.0, 0.0, 0.0, 0.0, 1.7393886558860312E9, 0.0, 2025-02-12 16:30:55.886
179.0, -5803.183412931373, -5641.2003208637625, -6056.428677610002, -5995.006083846818, -47723.92484234868, -38863.670988520505, -89430.38009767295, -64737.446872883665, 0.07, 0.936, 0.34800000000000003, 192.0, 0.0, 0.0, 0.0, 0.0, 0.0, 0.0, 0.0, 0.0, 0.0, 1.739388655886063E9, 0.0, 2025-02-12 16:30:55.886
180.0, -5857.408744979947, -5666.234274653706, -6066.241093425881, -5988.837002377153, -47719.990935324546, -38837.25122657433, -89424.0098505032, -64718.09026218537, 0.07, 0.936, 0.34800000000000003, 192.0, 0.0, 0.0, 0.0, 0.0, 0.0, 0.0, 0.0, 0.0, 0.0, 1.7393886558860986E9, 0.0, 2025-02-12 16:30:55.886
181.0, -6041.721229758409, -5816.706218326834, -6034.501616299345, -5945.720487322866, -47714.89473758874, -38801.801359868216, -89368.46576553176, -64667.35180227183, 0.07, 0.936, 0.34800000000000003, 192.0, 0.0, 0.0, 0.0, 0.0, 0.0, 0.0, 0.0, 0.0, 0.0, 1.7393886558861284E9, 0.0, 2025-02-12 16:30:55.886
182.0, -6014.072121867195, -5813.353456658538, -6022.834005693675, -5948.335641424137, -47720.326211491374, -38826.88001714707, -89370.03038764362, -64682.215712334604, 0.07, 0.936, 0.34800000000000003, 192.0, 0.0, 0.0, 0.0, 0.0, 0.0, 0.0, 0.0, 0.0, 0.0, 1.7393886558861647E9, 0.0, 2025-02-12 16:30:55.886
183.0, -5826.362171931526, -5662.769754263134, -6053.277081641803, -5991.586266945156, -47725.62357492728, -38866.800232744245, -89425.61917610398, -64734.76466354903, 0.07, 0.936, 0.34800000000000003, 192.0, 0.0, 0.0, 0.0, 0.0, 0.0, 0.0, 0.0, 0.0, 0.0, 1.739388655886194E9, 0.0, 2025-02-12 16:30:55.886
184.0, -5833.000640034752, -5649.649280267869, -6071.560808606245, -5997.017740847796, -47723.23193827057, -38850.50581103633, -89433.15171398541, -64729.08732045738, 0.07, 0.936, 0.34800000000000003, 192.0, 0.0, 0.0, 0.0, 0.0, 0.0, 0.0, 0.0, 0.0, 0.0, 1.7393886558862238E9, 0.0, 2025-02-12 16:30:55.886
185.0, -6020.844700437153, -5797.595476817546, -6042.883520470085, -5953.856522304598, -47716.59347016734, -38809.08802856065, -89377.94290518081, -64675.264319809, 0.07, 0.936, 0.34800000000000003, 192.0, 0.0, 0.0, 0.0, 0.0, 0.0, 0.0, 0.0, 0.0, 0.0, 1.7393886558862536E9, 0.0, 2025-02-12 16:30:55.886
186.0, -6042.10120941415, -5833.447674923858, -6024.376276061092, -5945.988708256329, -47721.22028126959, -38824.55543572372, -89367.21406784226, -64677.14186634325, 0.07, 0.936, 0.34800000000000003, 192.0, 0.0, 0.0, 0.0, 0.0, 0.0, 0.0, 0.0, 0.0, 0.0, 1.7393886558862827E9, 0.0, 2025-02-12 16:30:55.886
187.0, -5855.173570534417, -5688.228391197728, -6048.739677517376, -5985.953627342418, -47726.003554583025, -38867.26961937781, -89418.84659753402, -64729.266134413025, 0.06, 0.9440000000000001, 0.34800000000000003, 192.0, 1.0, 224.0, 29.0, 128.0, 10.0, 224.0, 0.0, 0.0, 0.0, 1.7393886558863132E9, 0.0, 2025-02-12 16:30:55.886
188.0, -5810.827709535088, -5634.472445782715, -6070.823201039219, -5999.387025760058, -47721.89083360325, -38858.843011718156, -89435.78921983115, -64734.33998040438, 0.06, 0.9440000000000001, 0.34800000000000003, 192.0, 0.0, 0.0, 0.0, 0.0, 0.0, 0.0, 0.0, 0.0, 0.0, 1.7393886558863583E9, 0.0, 2025-02-12 16:30:55.886
189.0, -5988.56878144369, -5769.119354381484, -6045.945709460462, -5957.544560139723, -47712.74897012103, -38812.79841814023, -89382.70382674978, -64679.4664477666, 0.06, 0.9440000000000001, 0.34800000000000003, 192.0, 0.0, 0.0, 0.0, 0.0, 0.0, 0.0, 0.0, 0.0, 0.0, 1.739388655886388E9, 0.0, 2025-02-12 16:30:55.886
190.0, -6056.428677610002, -5840.6002331495565, -6020.799996948243, -5938.545577352712, -47715.25236550002, -38816.687621675446, -89358.87686716043, -64667.37415401628, 0.06, 0.9440000000000001, 0.34800000000000003, 192.0, 0.0, 0.0, 0.0, 0.0, 0.0, 0.0, 0.0, 0.0, 0.0, 1.739388655886418E9, 0.0, 2025-02-12 16:30:55.886
191.0, -5884.633169726511, -5712.1671095093625, -6039.463703568424, -5974.867162092586, -47721.510853947504, -38861.21229663042, -89405.2567369052, -64717.55382031844, 0.06, 0.9440000000000001, 0.34800000000000003, 192.0, 0.0, 0.0, 0.0, 0.0, 0.0, 0.0, 0.0, 0.0, 0.0, 1.7393886558864555E9, 0.0, 2025-02-12 16:30:55.886
192.0, -5796.723758783789, -5626.135245100885, -6069.079764971705, -6000.594019960645, -47721.510853947504, -38866.42025308851, -89437.35384194301, -64738.02801823951, 0.06, 0.9440000000000001, 0.34800000000000003, 192.0, 0.0, 0.0, 0.0, 0.0, 0.0, 0.0, 0.0, 0.0, 0.0, 1.7393886558864994E9, 0.0, 2025-02-12 16:30:55.886
193.0, -5956.203455472405, -5742.498426735214, -6053.00886070834, -5966.015871288285, -47713.73244687706, -38822.23085430037, -89394.50554782219, -64689.055346137924, 0.06, 0.9440000000000001, 0.34800000000000003, 192.0, 0.0, 0.0, 0.0, 0.0, 0.0, 0.0, 0.0, 0.0, 0.0, 1.7393886558865387E9, 0.0, 2025-02-12 16:30:55.886
194.0, -6063.96121549144, -5842.701297128356, -6020.420017292502, -5934.790484284221, -47711.56432766489, -38811.90434836201, -89355.70291944778, -64661.40623824671, 0.06, 0.9440000000000001, 0.34800000000000003, 192.0, 0.0, 0.0, 0.0, 0.0, 0.0, 0.0, 0.0, 0.0, 0.0, 1.7393886558865702E9, 0.0, 2025-02-12 16:30:55.886
195.0, -5918.4960625763015, -5739.190368555828, -6032.3111453427255, -5965.0994497656175, -47718.7615893795, -38855.624360516595, -89392.82916698804, -64706.60146553534, 0.06, 0.9440000000000001, 0.34800000000000003, 192.0, 0.0, 0.0, 0.0, 0.0, 0.0, 0.0, 0.0, 0.0, 0.0, 1.7393886558866012E9, 0.0, 2025-02-12 16:30:55.886
196.0, -5790.465270336303, -5623.833015421988, -6064.408250380547, -5998.001217603829, -47719.11921729079, -38870.75649151284, -89434.1575424859, -64737.69274207268, 0.06, 0.9440000000000001, 0.34800000000000003, 192.0, 0.0, 0.0, 0.0, 0.0, 0.0, 0.0, 0.0, 0.0, 0.0, 1.7393886558866324E9, 0.0, 2025-02-12 16:30:55.886
197.0, -5918.652524787489, -5711.451853686793, -6055.802828765253, -5970.6203306460775, -47710.80436835341, -38829.09283984814, -89401.52399558116, -64695.4702967966, 0.056, 0.936, 0.35000000000000003, 192.0, 1.0, 192.0, 29.0, 64.0, 10.0, 240.0, 0.0, 0.0, 0.0, 1.7393886558866713E9, 0.0, 2025-02-12 16:30:55.886
198.0, -6063.558884091245, -5838.320355215115, -6022.945764415952, -5934.209338928383, -47709.262097986, -38809.91504310549, -89355.94878863679, -64659.148712056725, 0.056, 0.936, 0.35000000000000003, 192.0, 0.0, 0.0, 0.0, 0.0, 0.0, 0.0, 0.0, 0.0, 0.0, 1.7393886558867052E9, 0.0, 2025-02-12 16:30:55.886
199.0, -5952.470714148369, -5765.2301508462615, -6025.3821045615805, -5954.929406038453, -47715.29706898893, -38848.53885752426, -89381.40742557138, -64694.91150318522, 0.056, 0.936, 0.35000000000000003, 192.0, 0.0, 0.0, 0.0, 0.0, 0.0, 0.0, 0.0, 0.0, 0.0, 1.739388655886737E9, 0.0, 2025-02-12 16:30:55.886
200.0, -5794.376825615982, -5630.3373730584835, -6059.5802735782, -5994.782566402265, -47718.26985100149, -38875.0256747038, -89431.76590582919, -64736.93278276119, 0.056, 0.936, 0.35000000000000003, 192.0, 0.0, 0.0, 0.0, 0.0, 0.0, 0.0, 0.0, 0.0, 0.0, 1.7393886558867676E9, 0.0, 2025-02-12 16:30:55.886
201.0, -5886.667178471945, -5687.311969675061, -6063.044793968773, -5980.298635995226, -47714.09007478834, -38842.43683128796, -89414.21978643177, -64708.21079113612, 0.056, 0.936, 0.35000000000000003, 192.0, 0.0, 0.0, 0.0, 0.0, 0.0, 0.0, 0.0, 0.0, 0.0, 1.7393886558867967E9, 0.0, 2025-02-12 16:30:55.886
0.0, 0.0, 0.0, 0.0, 0.0, 0.0, 0.0, 0.0, 0.0, 0.064, 0.932, 0.35000000000000003, 192.0, 2.0, 0.0, 29.0, 32.0, 10.0, 240.0, 0.0, 0.0, 0.0, 1.7393886559789937E9, 0.0, 2025-02-12 16:30:55.978
1.0, -6227.1289500151815, -6078.132221476105, -6480.307159460444, -6221.585717390266, -44528.49710327353, -41514.342011730914, -80748.67197855377, -67406.22280910288, 0.064, 0.932, 0.35000000000000003, 192.0, 0.0, 0.0, 0.0, 0.0, 0.0, 0.0, 0.0, 0.0, 0.0, 1.73938865645748E9, 0.0, 2025-02-12 16:30:56.457
2.0, -6248.363107247724, -6089.039872770295, -6465.823229053406, -6210.5216038848885, -44579.034397486976, -41500.17100574625, -80730.00827193359, -67387.29088154923, 0.064, 0.932, 0.35000000000000003, 192.0, 0.0, 0.0, 0.0, 0.0, 0.0, 0.0, 0.0, 0.0, 0.0, 1.739388656457611E9, 0.0, 2025-02-12 16:30:56.457
3.0, -6514.170052310235, -6339.535872880921, -6447.025411966492, -6212.019170763394, -44220.55711991276, -41543.93572138974, -80655.24168673059, -67369.0965615626, 0.064, 0.932, 0.35000000000000003, 192.0, 0.0, 0.0, 0.0, 0.0, 0.0, 0.0, 0.0, 0.0, 0.0, 1.7393886564576445E9, 0.0, 2025-02-12 16:30:56.457
4.0, -6521.054389602469, -6353.840989332318, -6454.9379295036715, -6218.724694099987, -44124.77989492177, -41561.325378575966, -80667.6916083922, -67383.155808825, 0.064, 0.932, 0.35000000000000003, 192.0, 0.0, 0.0, 0.0, 0.0, 0.0, 0.0, 0.0, 0.0, 0.0, 1.7393886564576764E9, 0.0, 2025-02-12 16:30:56.457
5.0, -6252.498179971955, -6100.931000820518, -6473.199304723657, -6216.020133020894, -44476.886925326224, -41519.46056121118, -80749.72251054317, -67402.7582887123, 0.064, 0.932, 0.35000000000000003, 192.0, 0.0, 0.0, 0.0, 0.0, 0.0, 0.0, 0.0, 0.0, 0.0, 1.7393886564577081E9, 0.0, 2025-02-12 16:30:56.457
6.0, -6208.241725950447, -6050.907796729541, -6465.487952886576, -6206.811214305308, -44619.62516541781, -41497.66761036726, -80752.91881000028, -67391.49300950683, 0.064, 0.932, 0.35000000000000003, 192.0, 0.0, 0.0, 0.0, 0.0, 0.0, 0.0, 0.0, 0.0, 0.0, 1.739388656457739E9, 0.0, 2025-02-12 16:30:56.457
7.0, -6468.706604088141, -6295.078253159315, -6445.259624154523, -6208.711112584008, -44289.33343760174, -41541.477029499656, -80679.15805329777, -67374.32686976515, 0.064, 0.932, 0.35000000000000003, 192.0, 0.0, 0.0, 0.0, 0.0, 0.0, 0.0, 0.0, 0.0, 0.0, 1.7393886564578023E9, 0.0, 2025-02-12 16:30:56.457
8.0, -6539.986317156115, -6369.397803473211, -6445.147865432247, -6213.762606830908, -44102.472853955376, -41568.56734377949, -80671.17848052722, -67382.7087739359, 0.068, 0.928, 0.34400000000000003, 192.0, 2.0, 32.0, 29.0, 0.0, 10.0, 192.0, 0.0, 0.0, 0.0, 1.7393886564578452E9, 0.0, 2025-02-12 16:30:56.457
9.0, -6285.57876176581, -6130.524710479344, -6464.0350894969815, -6210.007513762416, -44420.24760487647, -41525.71904965866, -80750.23660066565, -67399.02554738827, 0.068, 0.928, 0.34400000000000003, 192.0, 0.0, 0.0, 0.0, 0.0, 0.0, 0.0, 0.0, 0.0, 0.0, 1.7393886564578788E9, 0.0, 2025-02-12 16:30:56.457
10.0, -6174.7141092674865, -6018.117787613605, -6461.464638884621, -6199.077510723771, -44652.8398576784, -41488.615153862855, -80771.068426498, -67388.27435830527, 0.068, 0.928, 0.34400000000000003, 192.0, 0.0, 0.0, 0.0, 0.0, 0.0, 0.0, 0.0, 0.0, 0.0, 1.7393886564579096E9, 0.0, 2025-02-12 16:30:56.457
11.0, -6407.999266147526, -6235.37674371919, -6437.74943801754, -6197.065853722794, -44369.48679321847, -41523.97561359115, -80699.60989947438, -67367.93427085094, 0.068, 0.928, 0.34400000000000003, 192.0, 0.0, 0.0, 0.0, 0.0, 0.0, 0.0, 0.0, 0.0, 0.0, 1.739388656457953E9, 0.0, 2025-02-12 16:30:56.457
12.0, -6543.272023591045, -6369.487210451032, -6433.659068782219, -6203.749025314931, -44104.0598278117, -41563.202925110214, -80674.06185556196, -67373.54455870921, 0.068, 0.928, 0.34400000000000003, 192.0, 0.0, 0.0, 0.0, 0.0, 0.0, 0.0, 0.0, 0.0, 0.0, 1.7393886564579828E9, 0.0, 2025-02-12 16:30:56.457
13.0, -6322.213270928058, -6164.007623673395, -6454.043859725459, -6203.637266592654, -44361.35075823674, -41531.86577938387, -80747.1073564419, -67393.34820429662, 0.068, 0.928, 0.34400000000000003, 192.0, 0.0, 0.0, 0.0, 0.0, 0.0, 0.0, 0.0, 0.0, 0.0, 1.7393886564580123E9, 0.0, 2025-02-12 16:30:56.458
14.0, -6151.6471089896095, -5996.414243747502, -6455.675537070696, -6191.902600753618, -44667.323788085436, -41484.97181951664, -80783.18307199277, -67386.3074047932, 0.068, 0.928, 0.34400000000000003, 192.0, 0.0, 0.0, 0.0, 0.0, 0.0, 0.0, 0.0, 0.0, 0.0, 1.7393886564580429E9, 0.0, 2025-02-12 16:30:56.458
15.0, -6346.263747961968, -6175.429365090056, -6432.563833303909, -6187.611065818199, -44458.446736150596, -41509.245813995105, -80718.20655086118, -67364.42504697145, 0.068, 0.928, 0.34400000000000003, 192.0, 0.0, 0.0, 0.0, 0.0, 0.0, 0.0, 0.0, 0.0, 0.0, 1.739388656458073E9, 0.0, 2025-02-12 16:30:56.458
16.0, -6534.085456619913, -6358.065469034371, -6422.259679110012, -6192.774318787375, -44131.59717698064, -41555.22335233967, -80674.3971317288, -67364.33563999363, 0.068, 0.928, 0.34400000000000003, 192.0, 0.0, 0.0, 0.0, 0.0, 0.0, 0.0, 0.0, 0.0, 0.0, 1.7393886564581025E9, 0.0, 2025-02-12 16:30:56.458
17.0, -6357.7972481009065, -6196.149432200126, -6440.409295607722, -6193.936609499051, -44311.37225763467, -41534.5032852296, -80736.3561673589, -67384.29574779222, 0.068, 0.928, 0.34400000000000003, 192.0, 0.0, 0.0, 0.0, 0.0, 0.0, 0.0, 0.0, 0.0, 0.0, 1.7393886564581633E9, 0.0, 2025-02-12 16:30:56.458
18.0, -6143.846350174707, -5989.194630288438, -6451.272243413001, -6187.879286751662, -44676.756224245575, -41486.2905724395, -80791.58732790797, -67387.11206759358, 0.076, 0.922, 0.334, 192.0, 2.0, 96.0, 28.0, 208.0, 10.0, 112.0, 0.0, 0.0, 0.0, 1.7393886564581933E9, 0.0, 2025-02-12 16:30:56.458
19.0, -6286.606942010754, -6118.030085328828, -6429.345182102345, -6180.860838992696, -44549.50774306151, -41497.913479556264, -80736.42322259226, -67364.15682603799, 0.076, 0.922, 0.334, 192.0, 0.0, 0.0, 0.0, 0.0, 0.0, 0.0, 0.0, 0.0, 0.0, 1.7393886564582255E9, 0.0, 2025-02-12 16:30:56.458
20.0, -6519.176843068224, -6341.994564771005, -6416.314115084901, -6187.275789651369, -44171.673854789005, -41551.71412846019, -80677.86165211936, -67361.31815449217, 0.076, 0.922, 0.334, 192.0, 0.0, 0.0, 0.0, 0.0, 0.0, 0.0, 0.0, 0.0, 0.0, 1.7393886564582553E9, 0.0, 2025-02-12 16:30:56.458
21.0, -6405.540574257443, -6240.830569366285, -6436.2742228834895, -6195.054196721816, -44255.85052440769, -41548.741346447634, -80726.96843468767, -67384.87689314806, 0.076, 0.922, 0.334, 192.0, 0.0, 0.0, 0.0, 0.0, 0.0, 0.0, 0.0, 0.0, 0.0, 1.7393886564582849E9, 0.0, 2025-02-12 16:30:56.458
22.0, -6157.547969525811, -6003.142118828549, -6451.741630046562, -6190.025054219372, -44650.828200677424, -41497.10881675587, -80793.30841223102, -67392.34237579613, 0.076, 0.922, 0.334, 192.0, 0.0, 0.0, 0.0, 0.0, 0.0, 0.0, 0.0, 0.0, 0.0, 1.7393886564583216E9, 0.0, 2025-02-12 16:30:56.458
23.0, -6237.5225111868995, -6071.717270817432, -6432.474426326087, -6180.190286659037, -44619.60281367336, -41494.06897950995, -80752.91881000028, -67369.47654121835, 0.076, 0.922, 0.334, 192.0, 0.0, 0.0, 0.0, 0.0, 0.0, 0.0, 0.0, 0.0, 0.0, 1.7393886564583523E9, 0.0, 2025-02-12 16:30:56.458
24.0, -6495.260476501046, -6317.742922036997, -6414.973010417582, -6184.906504739107, -44224.13339902561, -41548.07079411397, -80683.47193997765, -67360.89347134752, 0.076, 0.922, 0.334, 192.0, 0.0, 0.0, 0.0, 0.0, 0.0, 0.0, 0.0, 0.0, 0.0, 1.7393886564583836E9, 0.0, 2025-02-12 16:30:56.458
25.0, -6442.219786908601, -6274.402889538156, -6426.931193701172, -6190.494440852934, -44205.46969240543, -41554.821020939475, -80712.1492281138, -67378.7078116784, 0.076, 0.922, 0.334, 192.0, 0.0, 0.0, 0.0, 0.0, 0.0, 0.0, 0.0, 0.0, 0.0, 1.7393886564584217E9, 0.0, 2025-02-12 16:30:56.458
26.0, -6172.970673199973, -6017.983677146874, -6442.935042731171, -6183.431289605056, -44606.30352572245, -41499.96984004615, -80785.26178422711, -67387.38028852706, 0.076, 0.922, 0.334, 192.0, 0.0, 0.0, 0.0, 0.0, 0.0, 0.0, 0.0, 0.0, 0.0, 1.73938865645846E9, 0.0, 2025-02-12 16:30:56.458
27.0, -6187.678121051565, -6024.175110360994, -6430.529824558476, -6174.132963911648, -44682.99236094861, -41485.30709568347, -80767.04511249604, -67369.43183772944, 0.076, 0.922, 0.334, 192.0, 0.0, 0.0, 0.0, 0.0, 0.0, 0.0, 0.0, 0.0, 0.0, 1.7393886564584913E9, 0.0, 2025-02-12 16:30:56.458
28.0, -6453.015679480515, -6275.252255827458, -6408.066321380892, -6175.31760636778, -44291.970943447464, -41535.30794802999, -80690.35627726988, -67354.65733464448, 0.068, 0.928, 0.336, 192.0, 2.0, 32.0, 29.0, 0.0, 10.0, 128.0, 0.0, 0.0, 0.0, 1.7393886564585245E9, 0.0, 2025-02-12 16:30:56.458
29.0, -6470.85237155585, -6299.213325883547, -6417.185833118658, -6184.370062872179, -44169.081052432186, -41557.70439597421, -80702.58268148694, -67371.44349473041, 0.068, 0.928, 0.336, 192.0, 0.0, 0.0, 0.0, 0.0, 0.0, 0.0, 0.0, 0.0, 0.0, 1.7393886564585552E9, 0.0, 2025-02-12 16:30:56.458
30.0, -6204.218411948492, -6047.353869361147, -6438.844673495851, -6182.023129704372, -44546.62436802678, -41509.96106981768, -80783.09366501495, -67387.24617806032, 0.068, 0.928, 0.336, 192.0, 0.0, 0.0, 0.0, 0.0, 0.0, 0.0, 0.0, 0.0, 0.0, 1.7393886564585843E9, 0.0, 2025-02-12 16:30:56.458
31.0, -6151.4682950339675, -5990.021644833284, -6432.027391436982, -6172.255417377403, -44717.27993694305, -41483.04956949349, -80784.1218452599, -67373.0975238201, 0.068, 0.928, 0.336, 192.0, 0.0, 0.0, 0.0, 0.0, 0.0, 0.0, 0.0, 0.0, 0.0, 1.7393886564586136E9, 0.0, 2025-02-12 16:30:56.458
32.0, -6410.614420248798, -6233.923880329595, -6409.340370814845, -6173.752984255909, -44361.44016521456, -41529.92117761626, -80707.07538212245, -67356.93721257892, 0.068, 0.928, 0.336, 192.0, 0.0, 0.0, 0.0, 0.0, 0.0, 0.0, 0.0, 0.0, 0.0, 1.7393886564586549E9, 0.0, 2025-02-12 16:30:56.458
33.0, -6494.612275911842, -6320.268669160446, -6411.575545260375, -6182.291350637835, -44145.90229343204, -41563.31468383249, -80697.55353898449, -67368.53776795123, 0.068, 0.928, 0.336, 192.0, 0.0, 0.0, 0.0, 0.0, 0.0, 0.0, 0.0, 0.0, 0.0, 1.7393886564586842E9, 0.0, 2025-02-12 16:30:56.458
34.0, -6244.362144990224, -6085.128317490616, -6433.256737382024, -6180.592618059232, -44474.27177122495, -41521.606328678885, -80774.24237421065, -67386.17329432647, 0.068, 0.928, 0.336, 192.0, 0.0, 0.0, 0.0, 0.0, 0.0, 0.0, 0.0, 0.0, 0.0, 1.7393886564587135E9, 0.0, 2025-02-12 16:30:56.458
35.0, -6127.484873233423, -5967.647548633522, -6433.055571681925, -6171.7189755104755, -44733.0602685285, -41484.52478462753, -80794.33659247597, -67377.38905875552, 0.068, 0.928, 0.336, 192.0, 0.0, 0.0, 0.0, 0.0, 0.0, 0.0, 0.0, 0.0, 0.0, 1.7393886564587429E9, 0.0, 2025-02-12 16:30:56.458
36.0, -6361.172361513658, -6185.957036728506, -6410.346199315334, -6171.562513299288, -44442.73345979851, -41522.813322879476, -80720.59818751791, -67359.10533179108, 0.068, 0.928, 0.336, 192.0, 0.0, 0.0, 0.0, 0.0, 0.0, 0.0, 0.0, 0.0, 0.0, 1.739388656458772E9, 0.0, 2025-02-12 16:30:56.458
37.0, -6505.855203372861, -6329.209366942569, -6405.853498679817, -6178.826830247263, -44151.98196792388, -41565.661617000296, -80689.95394586968, -67365.36382023858, 0.068, 0.928, 0.336, 192.0, 0.0, 0.0, 0.0, 0.0, 0.0, 0.0, 0.0, 0.0, 0.0, 1.739388656458801E9, 0.0, 2025-02-12 16:30:56.458
38.0, -6289.266799600935, -6127.529576722333, -6426.7076762566185, -6178.893885480629, -44409.09408439328, -41533.81038115149, -80758.23852518064, -67384.4075065145, 0.068, 0.926, 0.34, 192.0, 2.0, 32.0, 28.0, 240.0, 10.0, 160.0, 0.0, 0.0, 0.0, 1.7393886564588368E9, 0.0, 2025-02-12 16:30:56.458
39.0, -6114.118530049149, -5955.868179305575, -6430.9321559586715, -6169.215580131481, -44732.970861550675, -41487.20699396217, -80794.00131630914, -67379.46777098987, 0.068, 0.926, 0.34, 192.0, 0.0, 0.0, 0.0, 0.0, 0.0, 0.0, 0.0, 0.0, 0.0, 1.7393886564588683E9, 0.0, 2025-02-12 16:30:56.458
40.0, -6303.996599196983, -6130.949393623995, -6406.635809735752, -6164.275844606858, -44524.227920082565, -41511.41393320727, -80725.56027478699, -67357.25013700129, 0.068, 0.926, 0.34, 192.0, 0.0, 0.0, 0.0, 0.0, 0.0, 0.0, 0.0, 0.0, 0.0, 1.7393886564588974E9, 0.0, 2025-02-12 16:30:56.458
41.0, -6500.155508536757, -6322.01210522796, -6396.644579964231, -6171.271940621369, -44181.7768432828, -41561.4594890427, -80677.52637595253, -67358.70300039089, 0.068, 0.926, 0.34, 192.0, 0.0, 0.0, 0.0, 0.0, 0.0, 0.0, 0.0, 0.0, 0.0, 1.739388656458926E9, 0.0, 2025-02-12 16:30:56.458
42.0, -6332.338611166312, -6168.343862097724, -6416.694094740641, -6174.758812756398, -44350.95719706502, -41543.712203945186, -80735.57385630296, -67380.04891634571, 0.068, 0.926, 0.34, 192.0, 0.0, 0.0, 0.0, 0.0, 0.0, 0.0, 0.0, 0.0, 0.0, 1.7393886564589667E9, 0.0, 2025-02-12 16:30:56.458
43.0, -6112.218631770448, -5955.376440927558, -6426.282993111968, -6166.131039396649, -44717.726971832155, -41491.92321204224, -80786.13350226087, -67380.36184076809, 0.068, 0.926, 0.34, 192.0, 0.0, 0.0, 0.0, 0.0, 0.0, 0.0, 0.0, 0.0, 0.0, 1.7393886564589963E9, 0.0, 2025-02-12 16:30:56.458
44.0, -6249.033659581382, -6079.070994743228, -6404.64650447923, -6159.380812571146, -44602.59313614287, -41503.367305203355, -80729.78475448904, -67358.34537247961, 0.068, 0.926, 0.34, 192.0, 0.0, 0.0, 0.0, 0.0, 0.0, 0.0, 0.0, 0.0, 0.0, 1.7393886564590256E9, 0.0, 2025-02-12 16:30:56.459
45.0, -6484.576342651409, -6306.075311431327, -6390.810774661395, -6166.354556841202, -44231.2412537624, -41557.92791341876, -80668.16099502576, -67355.50670093378, 0.068, 0.926, 0.34, 192.0, 0.0, 0.0, 0.0, 0.0, 0.0, 0.0, 0.0, 0.0, 0.0, 1.7393886564590547E9, 0.0, 2025-02-12 16:30:56.459
46.0, -6375.119850053769, -6208.442891650545, -6407.775748702973, -6171.763678999386, -44301.693952285525, -41553.61402673889, -80712.23863509162, -67376.18206455495, 0.068, 0.926, 0.34, 192.0, 0.0, 0.0, 0.0, 0.0, 0.0, 0.0, 0.0, 0.0, 0.0, 1.7393886564590836E9, 0.0, 2025-02-12 16:30:56.459
47.0, -6126.970783110951, -5970.709737623899, -6425.388923333755, -6167.449792319512, -44683.953485960184, -41502.8979185698, -80779.67384811329, -67384.76513442578, 0.068, 0.926, 0.34, 192.0, 0.0, 0.0, 0.0, 0.0, 0.0, 0.0, 0.0, 0.0, 0.0, 1.739388656459113E9, 0.0, 2025-02-12 16:30:56.459
48.0, -6202.072644480782, -6034.993354677362, -6408.379245803267, -6159.26905384887, -44664.30630258397, -41500.416874935254, -80740.8041645055, -67364.0003638268, 0.066, 0.9400000000000001, 0.334, 192.0, 2.0, 16.0, 29.0, 96.0, 10.0, 112.0, 0.0, 0.0, 0.0, 1.739388656459155E9, 0.0, 2025-02-12 16:30:56.459
49.0, -6456.770772549006, -6278.001520395461, -6386.429832748156, -6160.833675960741, -44283.521984043364, -41551.13298310435, -80665.92582058023, -67352.1986427544, 0.066, 0.9400000000000001, 0.334, 192.0, 0.0, 0.0, 0.0, 0.0, 0.0, 0.0, 0.0, 0.0, 0.0, 1.7393886564591887E9, 0.0, 2025-02-12 16:30:56.459
50.0, -6413.3636848168, -6243.579833934287, -6399.595010232331, -6168.299158608814, -44248.921483626546, -41561.21361985369, -80694.26783254955, -67371.33173600814, 0.066, 0.9400000000000001, 0.334, 192.0, 0.0, 0.0, 0.0, 0.0, 0.0, 0.0, 0.0, 0.0, 0.0, 1.7393886564592268E9, 0.0, 2025-02-12 16:30:56.459
51.0, -6155.31279508028, -5997.934162370463, -6424.584260533365, -6169.014414431384, -44600.8273483309, -41515.86193035387, -80774.33178118846, -67387.87202690507, 0.066, 0.9400000000000001, 0.334, 192.0, 0.0, 0.0, 0.0, 0.0, 0.0, 0.0, 0.0, 0.0, 0.0, 1.7393886564592578E9, 0.0, 2025-02-12 16:30:56.459
52.0, -6171.853085977207, -6006.383121774569, -6419.800987219928, -6166.913350452584, -44659.65713973727, -41507.21180524967, -80762.08302522697, -67376.49498897731, 0.066, 0.9400000000000001, 0.334, 192.0, 0.0, 0.0, 0.0, 0.0, 0.0, 0.0, 0.0, 0.0, 0.0, 1.7393886564592881E9, 0.0, 2025-02-12 16:30:56.459
53.0, -6432.921461215194, -6253.883988128185, -6395.862268908295, -6167.561551041788, -44308.399475622115, -41554.99983489512, -80683.6954574222, -67361.07228530315, 0.066, 0.9400000000000001, 0.334, 192.0, 0.0, 0.0, 0.0, 0.0, 0.0, 0.0, 0.0, 0.0, 0.0, 1.7393886564593253E9, 0.0, 2025-02-12 16:30:56.459
54.0, -6451.920444002205, -6278.627369240209, -6399.50560325451, -6171.361347599191, -44190.00228524236, -41573.484727559655, -80689.48455923612, -67373.0528203312, 0.066, 0.9400000000000001, 0.334, 192.0, 0.0, 0.0, 0.0, 0.0, 0.0, 0.0, 0.0, 0.0, 0.0, 1.7393886564593568E9, 0.0, 2025-02-12 16:30:56.459
55.0, -6187.275789651369, -6028.019610407307, -6420.449187809132, -6167.539199297333, -44534.777943465466, -41525.0037938361, -80767.06746424049, -67387.02266061577, 0.066, 0.9400000000000001, 0.334, 192.0, 0.0, 0.0, 0.0, 0.0, 0.0, 0.0, 0.0, 0.0, 0.0, 1.7393886564593873E9, 0.0, 2025-02-12 16:30:56.459
56.0, -6127.440169744512, -5963.937159053941, -6414.190699361647, -6157.972652670462, -44703.01952398056, -41496.237098722115, -80768.45327239673, -67372.56108195319, 0.066, 0.9400000000000001, 0.334, 192.0, 0.0, 0.0, 0.0, 0.0, 0.0, 0.0, 0.0, 0.0, 0.0, 1.7393886564594164E9, 0.0, 2025-02-12 16:30:56.459
57.0, -6378.673777422164, -6200.508022368911, -6388.195620560125, -6156.475085791956, -44386.272953304404, -41538.28073004255, -80689.52926272503, -67353.62915439953, 0.066, 0.9400000000000001, 0.334, 192.0, 0.0, 0.0, 0.0, 0.0, 0.0, 0.0, 0.0, 0.0, 0.0, 1.739388656459452E9, 0.0, 2025-02-12 16:30:56.459
58.0, -6466.493781387065, -6290.4067385681565, -6388.374434515767, -6163.091202150727, -44184.257886917345, -41571.1601461363, -80678.48750096411, -67364.0003638268, 0.066, 0.9380000000000001, 0.34, 192.0, 2.0, 16.0, 29.0, 80.0, 10.0, 160.0, 0.0, 0.0, 0.0, 1.7393886564594812E9, 0.0, 2025-02-12 16:30:56.459
59.0, -6222.211566235014, -6060.34023288968, -6412.64842899423, -6163.202960873004, -44487.77222487596, -41531.396392750314, -80757.54562110253, -67382.73112568035, 0.066, 0.9380000000000001, 0.34, 192.0, 0.0, 0.0, 0.0, 0.0, 0.0, 0.0, 0.0, 0.0, 0.0, 1.7393886564595172E9, 0.0, 2025-02-12 16:30:56.459
60.0, -6094.583105395211, -5928.375533625547, -6417.342295329845, -6153.5023037794, -44767.72782417868, -41483.92128752724, -80784.99356329365, -67371.89052961953, 0.066, 0.9380000000000001, 0.34, 192.0, 0.0, 0.0, 0.0, 0.0, 0.0, 0.0, 0.0, 0.0, 0.0, 1.739388656459548E9, 0.0, 2025-02-12 16:30:56.459
61.0, -6307.01408469845, -6122.053399330784, -6395.817565419384, -6149.054306632795, -44517.07536185686, -41502.964973803166, -80714.31734732597, -67349.2482124863, 0.066, 0.9380000000000001, 0.34, 192.0, 0.0, 0.0, 0.0, 0.0, 0.0, 0.0, 0.0, 0.0, 0.0, 1.739388656459577E9, 0.0, 2025-02-12 16:30:56.459
62.0, -6472.148772734257, -6296.352302593267, -6386.876867637261, -6166.93570219704, -44146.438735298965, -41573.50707930411, -80675.96175384066, -67365.72144814985, 0.066, 0.9380000000000001, 0.34, 192.0, 0.0, 0.0, 0.0, 0.0, 0.0, 0.0, 0.0, 0.0, 0.0, 1.7393886564596062E9, 0.0, 2025-02-12 16:30:56.459
63.0, -6265.95393013405, -6098.986399052907, -6409.809757448406, -6164.320548095769, -44431.378773615215, -41537.02903235305, -80749.65545530981, -67377.92550062246, 0.066, 0.9380000000000001, 0.34, 192.0, 0.0, 0.0, 0.0, 0.0, 0.0, 0.0, 0.0, 0.0, 0.0, 1.739388656459648E9, 0.0, 2025-02-12 16:30:56.459
64.0, -6047.6891455279765, -5863.175495049417, -6434.2178623936015, -6145.45567577549, -44898.26201179767, -41429.830065945396, -80810.65336592835, -67361.13934053652, 0.066, 0.9380000000000001, 0.34, 192.0, 0.0, 0.0, 0.0, 0.0, 0.0, 0.0, 0.0, 0.0, 0.0, 1.7393886564596777E9, 0.0, 2025-02-12 16:30:56.459
65.0, -6225.698438370042, -6033.629898265588, -6423.444321566144, -6160.051364904805, -44629.52698821152, -41459.51318258204, -80746.70502504171, -67358.68064864643, 0.066, 0.9380000000000001, 0.34, 192.0, 0.0, 0.0, 0.0, 0.0, 0.0, 0.0, 0.0, 0.0, 0.0, 1.739388656459707E9, 0.0, 2025-02-12 16:30:56.459
66.0, -6477.960226292637, -6306.34353236479, -6401.517260255488, -6192.595504831732, -44076.88010655405, -41582.11250091941, -80672.96662008365, -67381.2559105463, 0.066, 0.9380000000000001, 0.34, 192.0, 0.0, 0.0, 0.0, 0.0, 0.0, 0.0, 0.0, 0.0, 0.0, 1.739388656459736E9, 0.0, 2025-02-12 16:30:56.459
67.0, -6341.256957203979, -6180.480859336956, -6411.664952238197, -6188.0357489628495, -44247.33450977022, -41570.40018682482, -80723.12393464136, -67386.57562572666, 0.066, 0.9380000000000001, 0.34, 192.0, 0.0, 0.0, 0.0, 0.0, 0.0, 0.0, 0.0, 0.0, 0.0, 1.7393886564597652E9, 0.0, 2025-02-12 16:30:56.459
68.0, -6076.522895875322, -5897.105443132573, -6436.050705438937, -6158.151466626105, -44799.95903968323, -41444.17988588571, -80798.56107217802, -67362.52514869274, 0.066, 0.936, 0.342, 192.0, 2.0, 16.0, 29.0, 64.0, 10.0, 176.0, 0.0, 0.0, 0.0, 1.7393886564597943E9, 0.0, 2025-02-12 16:30:56.459
69.0, -6187.767528029386, -5996.6824646809655, -6431.356839103322, -6164.477010306956, -44672.17411663224, -41442.481153307104, -80755.13163270136, -67355.17142476696, 0.066, 0.936, 0.342, 192.0, 0.0, 0.0, 0.0, 0.0, 0.0, 0.0, 0.0, 0.0, 0.0, 1.7393886564598317E9, 0.0, 2025-02-12 16:30:56.459
70.0, -6472.864028556827, -6300.9120584621505, -6405.428815535166, -6197.468185122989, -44075.78487107574, -41569.97550368017, -80669.50209969308, -67376.13736106604, 0.066, 0.936, 0.342, 192.0, 0.0, 0.0, 0.0, 0.0, 0.0, 0.0, 0.0, 0.0, 0.0, 1.7393886564598608E9, 0.0, 2025-02-12 16:30:56.459
71.0, -6403.215992834091, -6246.373801991201, -6406.680513224664, -6196.6635223225985, -44111.39119999304, -41587.3651608664, -80699.72165819665, -67383.87106464757, 0.066, 0.936, 0.342, 192.0, 0.0, 0.0, 0.0, 0.0, 0.0, 0.0, 0.0, 0.0, 0.0, 1.7393886564598897E9, 0.0, 2025-02-12 16:30:56.459
72.0, -6112.73272189292, -5939.84197853112, -6432.250908881535, -6164.588769029233, -44698.70563730069, -41461.837764005395, -80787.18403425027, -67361.92165159245, 0.066, 0.936, 0.342, 192.0, 0.0, 0.0, 0.0, 0.0, 0.0, 0.0, 0.0, 0.0, 0.0, 1.7393886564599187E9, 0.0, 2025-02-12 16:30:56.459
73.0, -6149.791914199819, -5960.6961561079215, -6435.357801360822, -6163.426478317557, -44728.90284405981, -41429.58419675639, -80766.88865028485, -67351.19281425391, 0.066, 0.936, 0.342, 192.0, 0.0, 0.0, 0.0, 0.0, 0.0, 0.0, 0.0, 0.0, 0.0, 1.7393886564600732E9, 0.0, 2025-02-12 16:30:56.460
74.0, -6446.556025332931, -6272.257122070447, -6409.809757448406, -6195.635342077654, -44137.341575305654, -41550.08245111495, -80674.62064917335, -67370.25885227429, 0.066, 0.936, 0.342, 192.0, 0.0, 0.0, 0.0, 0.0, 0.0, 0.0, 0.0, 0.0, 0.0, 1.739388656460105E9, 0.0, 2025-02-12 16:30:56.460
75.0, -6453.75328704754, -6298.7439392499855, -6406.79227194694, -6205.380702660168, -44024.06293440616, -41602.38553314037, -80682.68962892171, -67386.7544396823, 0.066, 0.936, 0.342, 192.0, 0.0, 0.0, 0.0, 0.0, 0.0, 0.0, 0.0, 0.0, 0.0, 1.7393886564601362E9, 0.0, 2025-02-12 16:30:56.460
76.0, -6162.778277728353, -5997.218906547893, -6433.167330404202, -6177.418670346578, -44590.992580770566, -41493.01844752055, -80772.29777244304, -67371.48819821933, 0.066, 0.936, 0.342, 192.0, 0.0, 0.0, 0.0, 0.0, 0.0, 0.0, 0.0, 0.0, 0.0, 1.739388656460171E9, 0.0, 2025-02-12 16:30:56.460
77.0, -6121.159329552571, -5935.773961040254, -6438.867025240305, -6164.36525158468, -44768.57719046798, -41428.421906044714, -80771.15783347581, -67352.71273287687, 0.066, 0.936, 0.342, 192.0, 0.0, 0.0, 0.0, 0.0, 0.0, 0.0, 0.0, 0.0, 0.0, 1.739388656460201E9, 0.0, 2025-02-12 16:30:56.460
78.0, -6408.021617891982, -6231.465188439512, -6412.782539460963, -6190.516792597389, -44219.37247745663, -41530.39056424982, -80675.58177418492, -67365.27441326075, 0.06, 0.936, 0.34600000000000003, 192.0, 1.0, 224.0, 29.0, 64.0, 10.0, 208.0, 0.0, 0.0, 0.0, 1.7393886564602306E9, 0.0, 2025-02-12 16:30:56.460
79.0, -6488.443194442177, -6333.7244193225415, -6403.573620745376, -6207.571173616788, -43964.27201798821, -41609.8733675329, -80656.62749488682, -67386.12859083756, 0.06, 0.936, 0.34600000000000003, 192.0, 0.0, 0.0, 0.0, 0.0, 0.0, 0.0, 0.0, 0.0, 0.0, 1.739388656460276E9, 0.0, 2025-02-12 16:30:56.460
80.0, -6215.617801620699, -6056.875712499108, -6428.495815813043, -6185.554705328311, -44466.694529854605, -41523.3497647464, -80740.62535054986, -67378.17136981146, 0.06, 0.936, 0.34600000000000003, 192.0, 0.0, 0.0, 0.0, 0.0, 0.0, 0.0, 0.0, 0.0, 0.0, 1.7393886564603057E9, 0.0, 2025-02-12 16:30:56.460
81.0, -6106.027198556328, -5926.274469646749, -6441.929214230682, -6168.097992908716, -44779.4177865288, -41438.547246282964, -80760.96543800419, -67358.79240736872, 0.06, 0.936, 0.34600000000000003, 192.0, 0.0, 0.0, 0.0, 0.0, 0.0, 0.0, 0.0, 0.0, 0.0, 1.7393886564603353E9, 0.0, 2025-02-12 16:30:56.460
82.0, -6369.218989517569, -6191.634379820154, -6422.259679110012, -6191.477917608967, -44324.73860081895, -41519.12528504435, -80671.8937363498, -67368.13543655103, 0.06, 0.936, 0.34600000000000003, 192.0, 0.0, 0.0, 0.0, 0.0, 0.0, 0.0, 0.0, 0.0, 0.0, 1.7393886564603646E9, 0.0, 2025-02-12 16:30:56.460
83.0, -6514.572383710431, -6358.825428345851, -6408.111024869803, -6214.164938231103, -43953.16320099392, -41617.29414669206, -80629.783049796, -67391.42595427347, 0.06, 0.936, 0.34600000000000003, 192.0, 0.0, 0.0, 0.0, 0.0, 0.0, 0.0, 0.0, 0.0, 0.0, 1.739388656460394E9, 0.0, 2025-02-12 16:30:56.460
84.0, -6276.056918627849, -6122.858062131174, -6427.713504757107, -6197.3117229118025, -44335.93682479105, -41557.16795410728, -80702.40386753129, -67389.2578350613, 0.06, 0.936, 0.34600000000000003, 192.0, 0.0, 0.0, 0.0, 0.0, 0.0, 0.0, 0.0, 0.0, 0.0, 1.7393886564604301E9, 0.0, 2025-02-12 16:30:56.460
85.0, -6107.927096835029, -5934.946946495408, -6444.924347987694, -6174.93762671204, -44721.303250945006, -41459.78140351551, -80741.25119939461, -67368.76128539578, 0.06, 0.936, 0.34600000000000003, 192.0, 0.0, 0.0, 0.0, 0.0, 0.0, 0.0, 0.0, 0.0, 0.0, 1.7393886564604597E9, 0.0, 2025-02-12 16:30:56.460
86.0, -6325.789550040907, -6146.640318231621, -6428.518167557499, -6188.438080363046, -44387.725816694, -41506.60830814938, -80661.99191355609, -67367.68840166193, 0.06, 0.936, 0.34600000000000003, 192.0, 0.0, 0.0, 0.0, 0.0, 0.0, 0.0, 0.0, 0.0, 0.0, 1.7393886564604893E9, 0.0, 2025-02-12 16:30:56.460
87.0, -6514.415921499243, -6349.951785797094, -6415.040065650948, -6211.9297637855725, -43977.884230361495, -41599.43510287227, -80605.93373846219, -67387.91673039398, 0.06, 0.936, 0.34600000000000003, 192.0, 0.0, 0.0, 0.0, 0.0, 0.0, 0.0, 0.0, 0.0, 0.0, 1.7393886564605184E9, 0.0, 2025-02-12 16:30:56.460
88.0, -6330.058733231871, -6178.5586093138, -6435.715429272107, -6212.622667863688, -44189.912878264535, -41580.212602640706, -80665.47878569113, -67404.0099864018, 0.056, 0.9400000000000001, 0.34800000000000003, 192.0, 1.0, 192.0, 29.0, 96.0, 10.0, 224.0, 0.0, 0.0, 0.0, 1.7393886564605548E9, 0.0, 2025-02-12 16:30:56.460
89.0, -6152.563530512278, -6000.638723449555, -6450.7134498016185, -6204.866612537696, -44506.77120766297, -41529.027107838054, -80707.20949258919, -67401.73010846735, 0.056, 0.9400000000000001, 0.34800000000000003, 192.0, 0.0, 0.0, 0.0, 0.0, 0.0, 0.0, 0.0, 0.0, 0.0, 1.7393886564605856E9, 0.0, 2025-02-12 16:30:56.460
90.0, -6333.702067578086, -6168.477972564456, -6430.79804549194, -6203.011417747905, -44315.77555129237, -41553.97165465017, -80635.75096556556, -67384.49691349232, 0.056, 0.9400000000000001, 0.34800000000000003, 192.0, 0.0, 0.0, 0.0, 0.0, 0.0, 0.0, 0.0, 0.0, 0.0, 1.7393886564606147E9, 0.0, 2025-02-12 16:30:56.460
91.0, -6529.928032151227, -6360.4347539466335, -6414.928306928672, -6206.118310227193, -44027.05806816317, -41600.552690095035, -80570.08154035587, -67382.32879428015, 0.056, 0.9400000000000001, 0.34800000000000003, 192.0, 0.0, 0.0, 0.0, 0.0, 0.0, 0.0, 0.0, 0.0, 0.0, 1.739388656460644E9, 0.0, 2025-02-12 16:30:56.460
92.0, -6373.801097130907, -6217.8529760662295, -6434.575490304886, -6208.956981773017, -44189.488195119884, -41585.82289049899, -80614.69562228867, -67403.96528291289, 0.056, 0.9400000000000001, 0.34800000000000003, 192.0, 0.0, 0.0, 0.0, 0.0, 0.0, 0.0, 0.0, 0.0, 0.0, 1.739388656460673E9, 0.0, 2025-02-12 16:30:56.460
93.0, -6162.845332961719, -6014.273287567293, -6455.831999281883, -6209.560478873311, -44478.38449220473, -41546.506172002104, -80664.80823335746, -67414.78352722926, 0.056, 0.9400000000000001, 0.34800000000000003, 192.0, 0.0, 0.0, 0.0, 0.0, 0.0, 0.0, 0.0, 0.0, 0.0, 1.7393886564607022E9, 0.0, 2025-02-12 16:30:56.460
94.0, -6295.2794188594125, -6135.218576814959, -6441.348068874845, -6209.828699806774, -44352.83474359927, -41563.202925110214, -80605.1290756618, -67399.58434099965, 0.056, 0.9400000000000001, 0.34800000000000003, 192.0, 0.0, 0.0, 0.0, 0.0, 0.0, 0.0, 0.0, 0.0, 0.0, 1.7393886564607487E9, 0.0, 2025-02-12 16:30:56.460
95.0, -6522.127273336324, -6354.936224810627, -6417.007019163016, -6208.621705606188, -44055.66830106596, -41608.24169018766, -80523.72402235557, -67388.54257923873, 0.056, 0.9400000000000001, 0.34800000000000003, 192.0, 0.0, 0.0, 0.0, 0.0, 0.0, 0.0, 0.0, 0.0, 0.0, 1.739388656460778E9, 0.0, 2025-02-12 16:30:56.460
96.0, -6422.505548299021, -6267.272683056914, -6430.887452469761, -6211.549784129833, -44148.69626148895, -41604.888928519365, -80554.16709830369, -67407.78743121475, 0.056, 0.9400000000000001, 0.34800000000000003, 192.0, 0.0, 0.0, 0.0, 0.0, 0.0, 0.0, 0.0, 0.0, 0.0, 1.739388656460807E9, 0.0, 2025-02-12 16:30:56.460
97.0, -6184.437118105545, -6039.374296590602, -6457.061345226925, -6214.299048697835, -44458.60319836178, -41564.834602455456, -80619.50124734656, -67424.23831513386, 0.056, 0.9400000000000001, 0.34800000000000003, 192.0, 0.0, 0.0, 0.0, 0.0, 0.0, 0.0, 0.0, 0.0, 0.0, 1.739388656460836E9, 0.0, 2025-02-12 16:30:56.460
98.0, -6255.560368962332, -6100.774538609331, -6448.612385822819, -6213.9190690420955, -44419.0853141648, -41568.388529823846, -80582.21853759511, -67411.34135858314, 0.056, 0.936, 0.34600000000000003, 192.0, 1.0, 192.0, 29.0, 64.0, 10.0, 208.0, 0.0, 0.0, 0.0, 1.739388656460865E9, 0.0, 2025-02-12 16:30:56.460
99.0, -6500.37902598131, -6335.512558878966, -6419.689228497652, -6209.85105155123, -44120.01897335279, -41611.035658244575, -80495.06908596386, -67394.19757058592, 0.056, 0.936, 0.34600000000000003, 192.0, 0.0, 0.0, 0.0, 0.0, 0.0, 0.0, 0.0, 0.0, 0.0, 1.739388656460903E9, 0.0, 2025-02-12 16:30:56.460
100.0, -6458.80478129444, -6303.124881163226, -6423.019638421493, -6208.956981773017, -44134.189979337454, -41614.85780654643, -80507.250786692, -67405.9545881694, 0.056, 0.936, 0.34600000000000003, 192.0, 0.0, 0.0, 0.0, 0.0, 0.0, 0.0, 0.0, 0.0, 0.0, 1.7393886564609332E9, 0.0, 2025-02-12 16:30:56.460
101.0, -6209.18049921757, -6065.682299814499, -6453.328603902889, -6214.0978829977375, -44443.35930864326, -41577.10571016141, -80586.71123823062, -67427.76989075779, 0.056, 0.936, 0.34600000000000003, 192.0, 0.0, 0.0, 0.0, 0.0, 0.0, 0.0, 0.0, 0.0, 0.0, 1.7393886564609635E9, 0.0, 2025-02-12 16:30:56.460
102.0, -6215.886022554162, -6065.302320158758, -6451.205188179635, -6213.427330664079, -44478.51860267146, -41569.148489135325, -80573.63546772426, -67418.67273076448, 0.056, 0.936, 0.34600000000000003, 192.0, 0.0, 0.0, 0.0, 0.0, 0.0, 0.0, 0.0, 0.0, 0.0, 1.7393886564609945E9, 0.0, 2025-02-12 16:30:56.460
103.0, -6463.833923796884, -6300.889706717695, -6418.303420341423, -6206.341827671747, -44190.11404396463, -41607.23586168717, -80480.87572823474, -67395.73984095333, 0.056, 0.936, 0.34600000000000003, 192.0, 0.0, 0.0, 0.0, 0.0, 0.0, 0.0, 0.0, 0.0, 0.0, 1.7393886564610252E9, 0.0, 2025-02-12 16:30:56.461
104.0, -6487.504421175054, -6330.72928556553, -6414.995362162038, -6205.358350915712, -44134.79347643775, -41622.41269617232, -80471.28682986341, -67403.2053236014, 0.056, 0.936, 0.34600000000000003, 192.0, 0.0, 0.0, 0.0, 0.0, 0.0, 0.0, 0.0, 0.0, 0.0, 1.7393886564610615E9, 0.0, 2025-02-12 16:30:56.461
105.0, -6238.841264109763, -6095.499526917878, -6444.074981698392, -6208.733464328464, -44429.05419219186, -41586.13581492136, -80550.38965349074, -67425.75823375682, 0.056, 0.936, 0.34600000000000003, 192.0, 0.0, 0.0, 0.0, 0.0, 0.0, 0.0, 0.0, 0.0, 0.0, 1.7393886564610927E9, 0.0, 2025-02-12 16:30:56.461
106.0, -6180.458507592501, -6033.316973843214, -6448.634737567275, -6207.794691061341, -44540.43293481266, -41567.22623911217, -80558.01159835, -67420.93025695447, 0.056, 0.936, 0.34600000000000003, 192.0, 0.0, 0.0, 0.0, 0.0, 0.0, 0.0, 0.0, 0.0, 0.0, 1.739388656461124E9, 0.0, 2025-02-12 16:30:56.461
107.0, -6417.811681963406, -6257.61672945222, -6417.69992324113, -6202.139699714148, -44288.64053352363, -41601.78203604007, -80467.97877168402, -67397.57268399867, 0.056, 0.936, 0.34600000000000003, 192.0, 0.0, 0.0, 0.0, 0.0, 0.0, 0.0, 0.0, 0.0, 0.0, 1.7393886564611552E9, 0.0, 2025-02-12 16:30:56.461
108.0, -6500.982523081604, -6343.335669438323, -6405.1605946017025, -6198.362254901202, -44179.80988977074, -41623.86555956192, -80435.1887625681, -67397.48327702084, 0.056, 0.936, 0.34400000000000003, 192.0, 1.0, 192.0, 29.0, 64.0, 10.0, 192.0, 0.0, 0.0, 0.0, 1.7393886564611921E9, 0.0, 2025-02-12 16:30:56.461
109.0, -6270.1560580916475, -6126.3449342662025, -6432.027391436982, -6200.84329853574, -44457.597369861294, -41592.34959987993, -80505.97673725805, -67420.416166832, 0.056, 0.936, 0.34400000000000003, 192.0, 0.0, 0.0, 0.0, 0.0, 0.0, 0.0, 0.0, 0.0, 0.0, 1.7393886564612584E9, 0.0, 2025-02-12 16:30:56.461
110.0, -6152.451771790001, -6008.5959444756445, -6443.94087123166, -6201.133871213659, -44645.374375030326, -41565.661617000296, -80528.0602607799, -67421.82432673268, 0.056, 0.936, 0.34400000000000003, 192.0, 0.0, 0.0, 0.0, 0.0, 0.0, 0.0, 0.0, 0.0, 0.0, 1.7393886564612918E9, 0.0, 2025-02-12 16:30:56.461
111.0, -6361.261768491479, -6204.374874159679, -6412.5590220164095, -6193.17665018757, -44437.30198589587, -41591.589640568454, -80436.0381288574, -67395.73984095333, 0.056, 0.936, 0.34400000000000003, 192.0, 0.0, 0.0, 0.0, 0.0, 0.0, 0.0, 0.0, 0.0, 0.0, 1.7393886564613268E9, 0.0, 2025-02-12 16:30:56.461
112.0, -6501.317799248433, -6343.738000838519, -6392.911838640194, -6188.728653040964, -44273.039015893824, -41621.96566128322, -80379.35410491873, -67390.19660832842, 0.056, 0.936, 0.34400000000000003, 192.0, 0.0, 0.0, 0.0, 0.0, 0.0, 0.0, 0.0, 0.0, 0.0, 1.7393886564613695E9, 0.0, 2025-02-12 16:30:56.461
113.0, -6305.58357305331, -6161.9736149279615, -6417.252888352024, -6192.081414709261, -44504.20075705061, -41599.61391682791, -80440.2849603039, -67413.82240221767, 0.056, 0.936, 0.34400000000000003, 192.0, 0.0, 0.0, 0.0, 0.0, 0.0, 0.0, 0.0, 0.0, 0.0, 1.7393886564614007E9, 0.0, 2025-02-12 16:30:56.461
114.0, -6138.079600105239, -5998.135328070561, -6437.570624061897, -6195.6129903331985, -44740.302233732014, -41568.56734377949, -80483.80380675838, -67422.94191395544, 0.056, 0.936, 0.34400000000000003, 192.0, 0.0, 0.0, 0.0, 0.0, 0.0, 0.0, 0.0, 0.0, 0.0, 1.739388656461432E9, 0.0, 2025-02-12 16:30:56.461
115.0, -6311.037398700404, -6158.196170115015, -6414.995362162038, -6192.170821687081, -44583.19182195566, -41589.68974228975, -80410.53478843388, -67401.9536259119, 0.056, 0.936, 0.34400000000000003, 192.0, 0.0, 0.0, 0.0, 0.0, 0.0, 0.0, 0.0, 0.0, 0.0, 1.7393886564614713E9, 0.0, 2025-02-12 16:30:56.461
116.0, -6497.76387188004, -6340.8322740593285, -6389.7825944164515, -6186.761699528897, -44367.341025750764, -41625.40782992933, -80340.61853177768, -67390.82245717317, 0.056, 0.936, 0.34400000000000003, 192.0, 0.0, 0.0, 0.0, 0.0, 0.0, 0.0, 0.0, 0.0, 0.0, 1.7393886564615033E9, 0.0, 2025-02-12 16:30:56.461
117.0, -6345.414381672666, -6201.379740402668, -6406.725216713574, -6187.432251862557, -44530.24053934104, -41609.76160881062, -80389.81472132383, -67410.1120126381, 0.056, 0.936, 0.34400000000000003, 192.0, 0.0, 0.0, 0.0, 0.0, 0.0, 0.0, 0.0, 0.0, 0.0, 1.7393886564615335E9, 0.0, 2025-02-12 16:30:56.461
118.0, -6135.062114603772, -5997.554182714723, -6431.312135614412, -6190.337978641746, -44797.567403026515, -41572.27773335907, -80453.80776569937, -67422.83015523317, 0.068, 0.936, 0.34, 192.0, 2.0, 32.0, 29.0, 64.0, 10.0, 160.0, 0.0, 0.0, 0.0, 1.7393886564615648E9, 0.0, 2025-02-12 16:30:56.461
119.0, -6257.192046307569, -6107.882393346119, -6415.710617984608, -6187.968693729484, -44699.08561695643, -41583.900640475826, -80404.36570696422, -67405.35109106911, 0.068, 0.936, 0.34, 192.0, 0.0, 0.0, 0.0, 0.0, 0.0, 0.0, 0.0, 0.0, 0.0, 1.7393886564616065E9, 0.0, 2025-02-12 16:30:56.461
120.0, -6478.742537348573, -6321.877994761228, -6386.541591470432, -6182.313702382291, -44445.46037262206, -41622.770324083605, -80327.34159557124, -67389.68251820595, 0.068, 0.936, 0.34, 192.0, 0.0, 0.0, 0.0, 0.0, 0.0, 0.0, 0.0, 0.0, 0.0, 1.7393886564616356E9, 0.0, 2025-02-12 16:30:56.461
121.0, -6379.83606813384, -6234.102694285238, -6395.191716574635, -6180.79378375933, -44536.83430395536, -41615.12602747989, -80361.5174128434, -67403.94293116844, 0.068, 0.936, 0.34, 192.0, 0.0, 0.0, 0.0, 0.0, 0.0, 0.0, 0.0, 0.0, 0.0, 1.7393886569383068E9, 0.0, 2025-02-12 16:30:56.938
122.0, -6140.895919906607, -6004.438520006957, -6422.1255686432805, -6183.140716927138, -44823.87540625041, -41574.80348048252, -80438.25095155847, -67420.12559415407, 0.068, 0.936, 0.34, 192.0, 0.0, 0.0, 0.0, 0.0, 0.0, 0.0, 0.0, 0.0, 0.0, 1.7393886569383776E9, 0.0, 2025-02-12 16:30:56.938
123.0, -6203.346693914735, -6056.875712499108, -6413.073112138881, -6180.950245970517, -44791.93476342378, -41575.161108393804, -80410.71360238953, -67405.9545881694, 0.068, 0.936, 0.34, 192.0, 0.0, 0.0, 0.0, 0.0, 0.0, 0.0, 0.0, 0.0, 0.0, 1.7393886569384136E9, 0.0, 2025-02-12 16:30:56.938
124.0, -6446.600728821842, -6289.7585379789525, -6383.077071079859, -6176.479897079456, -44519.80227468041, -41616.02009725811, -80329.24149384994, -67387.96143388288, 0.068, 0.936, 0.34, 192.0, 0.0, 0.0, 0.0, 0.0, 0.0, 0.0, 0.0, 0.0, 0.0, 1.7393886569384441E9, 0.0, 2025-02-12 16:30:56.938
125.0, -6412.8495946943285, -6264.456363255545, -6387.145088570725, -6177.150449413115, -44532.542769019936, -41621.943309538765, -80348.30753187032, -67400.56781775568, 0.068, 0.936, 0.34, 192.0, 0.0, 0.0, 0.0, 0.0, 0.0, 0.0, 0.0, 0.0, 0.0, 1.739388656938596E9, 0.0, 2025-02-12 16:30:56.938
126.0, -6162.6218155171655, -6025.918546428507, -6416.627039507275, -6180.570266314777, -44814.64413579037, -41583.38655035336, -80436.59692246877, -67421.2655331213, 0.068, 0.936, 0.34, 192.0, 0.0, 0.0, 0.0, 0.0, 0.0, 0.0, 0.0, 0.0, 0.0, 1.7393886569386313E9, 0.0, 2025-02-12 16:30:56.938
127.0, -6159.716088737976, -6015.6367439790665, -6412.514318527498, -6176.502248823911, -44835.56536860053, -41571.02603566957, -80432.46184974455, -67409.3073498377, 0.068, 0.936, 0.34, 192.0, 0.0, 0.0, 0.0, 0.0, 0.0, 0.0, 0.0, 0.0, 0.0, 1.7393886569386568E9, 0.0, 2025-02-12 16:30:56.938
128.0, -6406.635809735752, -6249.883025870684, -6380.908951867695, -6171.137830154637, -44550.62533028428, -41608.48755937667, -80352.50965982792, -67387.40264027151, 0.064, 0.936, 0.338, 192.0, 2.0, 0.0, 29.0, 64.0, 10.0, 144.0, 0.0, 0.0, 0.0, 1.7393886569386823E9, 0.0, 2025-02-12 16:30:56.938
129.0, -6436.453036839132, -6285.221133854525, -6377.578541943853, -6170.98136794345, -44481.06670153936, -41624.06672526202, -80354.72248252899, -67394.55519849721, 0.064, 0.936, 0.338, 192.0, 0.0, 0.0, 0.0, 0.0, 0.0, 0.0, 0.0, 0.0, 0.0, 1.73938865693871E9, 0.0, 2025-02-12 16:30:56.938
130.0, -6188.281618151858, -6050.214892651426, -6406.07701612437, -6173.238894133437, -44750.89696060383, -41586.89577423284, -80446.16346909566, -67416.12463189657, 0.064, 0.936, 0.338, 192.0, 0.0, 0.0, 0.0, 0.0, 0.0, 0.0, 0.0, 0.0, 0.0, 1.7393886569387455E9, 0.0, 2025-02-12 16:30:56.938
131.0, -6122.679248175532, -5980.455098206413, -6410.9720481600825, -6171.629568532654, -44851.30099669707, -41565.84043095594, -80466.77177748345, -67411.11784113859, 0.064, 0.936, 0.338, 192.0, 0.0, 0.0, 0.0, 0.0, 0.0, 0.0, 0.0, 0.0, 0.0, 1.7393886569387703E9, 0.0, 2025-02-12 16:30:56.938
132.0, -6355.807942844384, -6199.524545612878, -6378.651425677708, -6164.320548095769, -44593.38421742728, -41596.842300515455, -80385.7243520885, -67385.72625943736, 0.064, 0.936, 0.338, 192.0, 0.0, 0.0, 0.0, 0.0, 0.0, 0.0, 0.0, 0.0, 0.0, 1.739388656938795E9, 0.0, 2025-02-12 16:30:56.938
133.0, -6445.79606602145, -6291.479622302011, -6366.313262738378, -6161.414821316579, -44466.694529854605, -41619.46226590422, -80361.94209598805, -67385.27922454826, 0.064, 0.936, 0.338, 192.0, 0.0, 0.0, 0.0, 0.0, 0.0, 0.0, 0.0, 0.0, 0.0, 1.7393886569388192E9, 0.0, 2025-02-12 16:30:56.938
134.0, -6219.551708644833, -6079.316863932236, -6394.565867729887, -6165.795763229819, -44721.59382362293, -41590.09207368995, -80445.62702722872, -67409.53086728226, 0.064, 0.936, 0.338, 192.0, 0.0, 0.0, 0.0, 0.0, 0.0, 0.0, 0.0, 0.0, 0.0, 1.7393886569388442E9, 0.0, 2025-02-12 16:30:56.938
135.0, -6094.337236206203, -5953.744763582321, -6406.255830080013, -6165.326376596257, -44896.697389685796, -41561.548896020526, -80483.78145501393, -67410.82726846066, 0.064, 0.936, 0.338, 192.0, 0.0, 0.0, 0.0, 0.0, 0.0, 0.0, 0.0, 0.0, 0.0, 1.739388656938878E9, 0.0, 2025-02-12 16:30:56.938
136.0, -6298.207497383059, -6143.242853074415, -6375.075146564859, -6156.5197892808665, -44682.32180861495, -41585.0629311875, -80407.60670991025, -67384.69807919241, 0.064, 0.936, 0.338, 192.0, 0.0, 0.0, 0.0, 0.0, 0.0, 0.0, 0.0, 0.0, 0.0, 1.7393886569389029E9, 0.0, 2025-02-12 16:30:56.938
137.0, -6441.973917719593, -6284.796450709874, -6354.198617243603, -6150.17189385556, -44501.004457593495, -41610.78978905556, -80360.2657151539, -67374.81860814316, 0.064, 0.936, 0.338, 192.0, 0.0, 0.0, 0.0, 0.0, 0.0, 0.0, 0.0, 0.0, 0.0, 1.7393886569389277E9, 0.0, 2025-02-12 16:30:56.938
138.0, -6245.837360124274, -6102.696788632487, -6375.410422731688, -6150.082486877738, -44711.46848338467, -41583.40890209781, -80429.22084679853, -67393.03527987424, 0.096, 0.936, 0.396, 192.0, 3.0, 0.0, 29.0, 64.0, 12.0, 96.0, 0.0, 0.0, 0.0, 1.7393886569389522E9, 0.0, 2025-02-12 16:30:56.938
139.0, -6069.571503349723, -5931.303612149193, -6393.872963651773, -6150.9989084004055, -44939.344518106525, -41552.13881160484, -80488.11769343827, -67402.8029922012, 0.096, 0.936, 0.396, 192.0, 0.0, 0.0, 0.0, 0.0, 0.0, 0.0, 0.0, 0.0, 0.0, 1.739388656938978E9, 0.0, 2025-02-12 16:30:56.938
140.0, -6237.790732120363, -6085.418890168535, -6372.281178507946, -6149.12136186616, -44790.03486514508, -41574.15527989332, -80430.71841367704, -67385.23452105935, 0.096, 0.936, 0.396, 192.0, 0.0, 0.0, 0.0, 0.0, 0.0, 0.0, 0.0, 0.0, 0.0, 1.7393886569390233E9, 0.0, 2025-02-12 16:30:56.939
141.0, -6429.0546094244255, -6268.7478981909635, -6346.867245062262, -6144.40514378609, -44576.68746431917, -41602.89962326284, -80362.43383436606, -67368.35895399559, 0.096, 0.936, 0.396, 192.0, 0.0, 0.0, 0.0, 0.0, 0.0, 0.0, 0.0, 0.0, 0.0, 1.7393886569390485E9, 0.0, 2025-02-12 16:30:56.939
142.0, -6283.991787909483, -6136.157350082082, -6365.374489471256, -6145.388620542124, -44727.49468415912, -41585.21939339869, -80412.32292799032, -67383.91576813647, 0.096, 0.936, 0.396, 192.0, 0.0, 0.0, 0.0, 0.0, 0.0, 0.0, 0.0, 0.0, 0.0, 1.739388656939073E9, 0.0, 2025-02-12 16:30:56.939
143.0, -6070.264407427837, -5931.929460993942, -6389.939056627639, -6147.377925798646, -44978.482422647765, -41555.60333199541, -80484.89904223669, -67403.04886139023, 0.096, 0.936, 0.396, 192.0, 0.0, 0.0, 0.0, 0.0, 0.0, 0.0, 0.0, 0.0, 0.0, 1.7393886569391031E9, 0.0, 2025-02-12 16:30:56.939
144.0, -6182.783089015853, -6032.758180231832, -6370.716556396074, -6143.64518447461, -44882.727549401236, -41568.03090191256, -80439.97203588152, -67388.2073030719, 0.096, 0.936, 0.396, 192.0, 0.0, 0.0, 0.0, 0.0, 0.0, 0.0, 0.0, 0.0, 0.0, 1.7393886569391298E9, 0.0, 2025-02-12 16:30:56.939
145.0, -6404.512394012499, -6244.295089756857, -6339.982907770027, -6138.392524527612, -44646.424907019726, -41597.13287319337, -80360.4221773651, -67364.78267488274, 0.096, 0.936, 0.396, 192.0, 0.0, 0.0, 0.0, 0.0, 0.0, 0.0, 0.0, 0.0, 0.0, 1.7393886569391549E9, 0.0, 2025-02-12 16:30:56.939
146.0, -6315.753616780475, -6165.929873696551, -6352.54458815391, -6138.347821038702, -44733.99904179562, -41586.40403585482, -80396.9225760606, -67374.59509069861, 0.096, 0.936, 0.396, 192.0, 0.0, 0.0, 0.0, 0.0, 0.0, 0.0, 0.0, 0.0, 0.0, 1.7393886569391959E9, 0.0, 2025-02-12 16:30:56.939
147.0, -6075.740584819387, -5936.846844774109, -6379.456088478099, -6138.370172783158, -44997.81668160161, -41551.42355578227, -80479.17699565613, -67394.35403279711, 0.096, 0.936, 0.396, 192.0, 0.0, 0.0, 0.0, 0.0, 0.0, 0.0, 0.0, 0.0, 0.0, 1.7393886569392252E9, 0.0, 2025-02-12 16:30:56.939
148.0, -6128.5801087117325, -5979.583380172656, -6366.872056349762, -6134.279803547836, -44969.675835332375, -41554.84337268393, -80453.7854139549, -67384.36280302558, 0.084, 0.894, 0.34400000000000003, 192.0, 2.0, 160.0, 27.0, 240.0, 10.0, 192.0, 0.0, 0.0, 0.0, 1.7393886569392543E9, 0.0, 2025-02-12 16:30:56.939
149.0, -6366.492076694021, -6205.224240448981, -6331.958631510572, -6127.082541833227, -44731.85327432791, -41585.04057944305, -80364.84782276725, -67358.07715154614, 0.084, 0.894, 0.34400000000000003, 192.0, 0.0, 0.0, 0.0, 0.0, 0.0, 0.0, 0.0, 0.0, 0.0, 1.7393886569392865E9, 0.0, 2025-02-12 16:30:56.939
150.0, -6336.272518190446, -6184.2806558943585, -6334.573785611843, -6125.204995298982, -44760.32939676397, -41581.55370730802, -80372.98385774897, -67360.53584343623, 0.084, 0.894, 0.34400000000000003, 192.0, 0.0, 0.0, 0.0, 0.0, 0.0, 0.0, 0.0, 0.0, 0.0, 1.7393886569394364E9, 0.0, 2025-02-12 16:30:56.939
151.0, -6088.995169281384, -5951.107257736595, -6366.380317971745, -6129.78710291232, -45037.44632452087, -41548.94251214773, -80455.99823665599, -67384.49691349232, 0.084, 0.894, 0.34400000000000003, 192.0, 0.0, 0.0, 0.0, 0.0, 0.0, 0.0, 0.0, 0.0, 0.0, 1.7393886569394696E9, 0.0, 2025-02-12 16:30:56.939
152.0, -6078.691015087487, -5933.427027872447, -6360.166533013169, -6124.869719132152, -45084.49674659929, -41541.946416133214, -80445.89524816218, -67378.37253551156, 0.084, 0.894, 0.34400000000000003, 192.0, 0.0, 0.0, 0.0, 0.0, 0.0, 0.0, 0.0, 0.0, 0.0, 1.7393886569395013E9, 0.0, 2025-02-12 16:30:56.939
153.0, -6320.380427882723, -6159.514923037877, -6323.800244784385, -6115.102006805183, -44863.10271776947, -41572.05421591452, -80349.42511909308, -67351.01400029827, 0.084, 0.894, 0.34400000000000003, 192.0, 0.0, 0.0, 0.0, 0.0, 0.0, 0.0, 0.0, 0.0, 0.0, 1.7393886569395325E9, 0.0, 2025-02-12 16:30:56.939
154.0, -6356.813771344873, -6200.351560157724, -6320.827462771829, -6114.453806215979, -44836.59354884548, -41580.25730612961, -80330.716708984, -67350.07522703115, 0.084, 0.894, 0.34400000000000003, 192.0, 0.0, 0.0, 0.0, 0.0, 0.0, 0.0, 0.0, 0.0, 0.0, 1.7393886569395638E9, 0.0, 2025-02-12 16:30:56.939
155.0, -6114.856137616174, -5974.397775459025, -6353.6845271211305, -6122.5451377088, -45102.95928751937, -41549.6577679703, -80409.90893958914, -67375.13153256555, 0.084, 0.894, 0.34400000000000003, 192.0, 0.0, 0.0, 0.0, 0.0, 0.0, 0.0, 0.0, 0.0, 0.0, 1.7393886569395947E9, 0.0, 2025-02-12 16:30:56.939
156.0, -6039.8213314797085, -5897.97716116633, -6356.098515522303, -6119.952335351984, -45214.159216184526, -41534.547988718514, -80424.01289034044, -67375.8020848992, 0.084, 0.894, 0.34400000000000003, 192.0, 0.0, 0.0, 0.0, 0.0, 0.0, 0.0, 0.0, 0.0, 0.0, 1.7393886569396424E9, 0.0, 2025-02-12 16:30:56.939
157.0, -6264.657528955642, -6107.547117179289, -6318.882861004217, -6106.630695656621, -45017.10623706654, -41559.917218675284, -80331.58842701775, -67347.39301769651, 0.084, 0.894, 0.34400000000000003, 192.0, 0.0, 0.0, 0.0, 0.0, 0.0, 0.0, 0.0, 0.0, 0.0, 1.739388656939674E9, 0.0, 2025-02-12 16:30:56.939
158.0, -6360.747678369007, -6203.70432182602, -6306.410587598156, -6102.741492121398, -44936.21527388278, -41574.37879733787, -80288.78483638584, -67338.87700305904, 0.076, 0.936, 0.342, 192.0, 2.0, 96.0, 29.0, 64.0, 10.0, 176.0, 0.0, 0.0, 0.0, 1.7393886569397056E9, 0.0, 2025-02-12 16:30:56.939
159.0, -6141.07473386225, -5998.895287382042, -6336.451332146088, -6110.274030002836, -45176.25065758832, -41546.95320689121, -80357.963485475, -67361.54167193672, 0.076, 0.936, 0.342, 192.0, 0.0, 0.0, 0.0, 0.0, 0.0, 0.0, 0.0, 0.0, 0.0, 1.739388656939744E9, 0.0, 2025-02-12 16:30:56.939
160.0, -6013.580383489178, -5872.719689931833, -6350.06354451937, -6113.045646315294, -45340.893607246115, -41528.49066597112, -80392.65339286964, -67371.24232903031, 0.076, 0.936, 0.342, 192.0, 0.0, 0.0, 0.0, 0.0, 0.0, 0.0, 0.0, 0.0, 0.0, 1.739388656939774E9, 0.0, 2025-02-12 16:30:56.939
161.0, -6209.560478873311, -6053.634709553088, -6315.351285380279, -6099.992227553395, -45174.663683732, -41548.808401680995, -80306.28625229433, -67344.17436649495, 0.076, 0.936, 0.342, 192.0, 0.0, 0.0, 0.0, 0.0, 0.0, 0.0, 0.0, 0.0, 0.0, 1.7393886569398375E9, 0.0, 2025-02-12 16:30:56.939
162.0, -6357.596082400809, -6198.831641534763, -6294.050072914371, -6092.705558860965, -45042.36370830103, -41568.67910250177, -80242.80729804127, -67328.86342154305, 0.076, 0.936, 0.342, 192.0, 0.0, 0.0, 0.0, 0.0, 0.0, 0.0, 0.0, 0.0, 0.0, 1.7393886569398673E9, 0.0, 2025-02-12 16:30:56.939
163.0, -6171.808382488297, -6028.488997040868, -6318.569936581843, -6097.7570531078645, -45238.56732112972, -41545.522695246065, -80300.36304001368, -67347.72829386334, 0.076, 0.936, 0.342, 192.0, 0.0, 0.0, 0.0, 0.0, 0.0, 0.0, 0.0, 0.0, 0.0, 1.7393886569398975E9, 0.0, 2025-02-12 16:30:56.939
164.0, -5995.229601291371, -5857.6322624245, -6339.267651947457, -6102.070939787739, -45444.20337011854, -41521.405162978794, -80353.73900577295, -67362.81572137067, 0.076, 0.936, 0.342, 192.0, 0.0, 0.0, 0.0, 0.0, 0.0, 0.0, 0.0, 0.0, 0.0, 1.7393886569399269E9, 0.0, 2025-02-12 16:30:56.939
165.0, -6153.234082845936, -6000.638723449555, -6312.557317323365, -6093.197297238982, -45322.76634249286, -41538.79482016502, -80283.30865899428, -67342.20741298287, 0.076, 0.936, 0.342, 192.0, 0.0, 0.0, 0.0, 0.0, 0.0, 0.0, 0.0, 0.0, 0.0, 1.739388656939964E9, 0.0, 2025-02-12 16:30:56.939
166.0, -6345.25791946148, -6184.884152994651, -6284.304712331857, -6084.6142273681435, -45150.43439274245, -41563.47114604368, -80202.55180627726, -67321.53204936172, 0.076, 0.936, 0.342, 192.0, 0.0, 0.0, 0.0, 0.0, 0.0, 0.0, 0.0, 0.0, 0.0, 1.739388656940001E9, 0.0, 2025-02-12 16:30:56.940
167.0, -6208.956981773017, -6062.48600035739, -6305.337703864301, -6090.783308837808, -45297.50887125837, -41549.36719529238, -80247.63527484362, -67338.5417268922, 0.076, 0.936, 0.342, 192.0, 0.0, 0.0, 0.0, 0.0, 0.0, 0.0, 0.0, 0.0, 0.0, 1.7393886569400313E9, 0.0, 2025-02-12 16:30:56.940
168.0, -5991.787432645254, -5855.240625767783, -6330.237547187513, -6094.560753650756, -45532.313946761366, -41518.611194921876, -80317.39506928863, -67356.33371547863, 0.062, 0.928, 0.34400000000000003, 192.0, 1.0, 240.0, 29.0, 0.0, 10.0, 192.0, 0.0, 0.0, 0.0, 1.7393886569400609E9, 0.0, 2025-02-12 16:30:56.940
169.0, -6095.5889338956995, -5946.838074545632, -6310.478605089022, -6087.5423058917895, -45466.26454189594, -41527.551892704, -80272.15513851108, -67340.48632865981, 0.062, 0.928, 0.34400000000000003, 192.0, 0.0, 0.0, 0.0, 0.0, 0.0, 0.0, 0.0, 0.0, 0.0, 1.7393886569400923E9, 0.0, 2025-02-12 16:30:56.940
170.0, -6316.401817369678, -6156.542141025322, -6276.6157122392315, -6076.589951108689, -45269.792708133784, -41553.74813720562, -80185.51977700231, -67314.98298823631, 0.062, 0.928, 0.34400000000000003, 192.0, 0.0, 0.0, 0.0, 0.0, 0.0, 0.0, 0.0, 0.0, 0.0, 1.739388656940122E9, 0.0, 2025-02-12 16:30:56.940
171.0, -6234.750894874442, -6085.307131446259, -6288.14921237817, -6078.467497642934, -45355.82457254226, -41545.20977082369, -80212.00659418185, -67324.61659009654, 0.062, 0.928, 0.34400000000000003, 192.0, 0.0, 0.0, 0.0, 0.0, 0.0, 0.0, 0.0, 0.0, 0.0, 1.7393886569401648E9, 0.0, 2025-02-12 16:30:56.940
172.0, -5997.956514114919, -5860.515637459235, -6320.15691043817, -6087.296436702781, -45605.04652321894, -41515.37019197586, -80294.59628994421, -67348.42119794145, 0.062, 0.928, 0.34400000000000003, 192.0, 0.0, 0.0, 0.0, 0.0, 0.0, 0.0, 0.0, 0.0, 0.0, 1.739388656940196E9, 0.0, 2025-02-12 16:30:56.940
173.0, -6045.72219201591, -5898.5359547777125, -6310.992695211494, -6085.083614001705, -45591.72488352357, -41518.4994361996, -80272.62452514464, -67339.81577632616, 0.062, 0.928, 0.34400000000000003, 192.0, 0.0, 0.0, 0.0, 0.0, 0.0, 0.0, 0.0, 0.0, 0.0, 1.7393886569402273E9, 0.0, 2025-02-12 16:30:56.940
174.0, -6283.05301464236, -6122.902765620085, -6273.754688948952, -6072.320767917725, -45376.87991581916, -41546.84144816893, -80179.7753786773, -67312.01020622376, 0.062, 0.928, 0.34400000000000003, 192.0, 0.0, 0.0, 0.0, 0.0, 0.0, 0.0, 0.0, 0.0, 0.0, 1.7393886569402585E9, 0.0, 2025-02-12 16:30:56.940
175.0, -6260.5895114647765, -6108.172966024037, -6273.642930226676, -6068.744488804876, -45394.62720091667, -41546.17089583527, -80182.79286417877, -67315.09474695858, 0.062, 0.928, 0.34400000000000003, 192.0, 0.0, 0.0, 0.0, 0.0, 0.0, 0.0, 0.0, 0.0, 0.0, 1.739388656940302E9, 0.0, 2025-02-12 16:30:56.940
176.0, -6017.022552135295, -5877.704128945366, -6308.019913198938, -6077.841648798186, -45641.9716050591, -41515.459598953676, -80267.66243787557, -67340.2404594708, 0.062, 0.928, 0.34400000000000003, 192.0, 0.0, 0.0, 0.0, 0.0, 0.0, 0.0, 0.0, 0.0, 0.0, 1.7393886569403396E9, 0.0, 2025-02-12 16:30:56.940
177.0, -6006.114900841106, -5860.135657803495, -6310.880936489218, -6081.037948255294, -45683.99288463508, -41510.89984308479, -80266.36603669716, -67337.91587804745, 0.062, 0.928, 0.34400000000000003, 192.0, 0.0, 0.0, 0.0, 0.0, 0.0, 0.0, 0.0, 0.0, 0.0, 1.7393886569403787E9, 0.0, 2025-02-12 16:30:56.940
178.0, -6247.022002580405, -6087.139974491593, -6275.743994205474, -6071.761974306342, -45468.18679191909, -41542.169933577774, -80171.86286114012, -67312.03255796821, 0.054, 0.932, 0.34, 192.0, 1.0, 176.0, 29.0, 32.0, 10.0, 160.0, 0.0, 0.0, 0.0, 1.73938865694041E9, 0.0, 2025-02-12 16:30:56.940
179.0, -6287.411604811145, -6132.335201780224, -6266.8703516567175, -6066.688128314988, -45424.08680010877, -41551.334148804446, -80149.913448085, -67310.22206666732, 0.054, 0.932, 0.34, 192.0, 0.0, 0.0, 0.0, 0.0, 0.0, 0.0, 0.0, 0.0, 0.0, 1.7393886569404445E9, 0.0, 2025-02-12 16:30:56.940
180.0, -6049.700802528954, -5908.951867693886, -6299.146270650181, -6074.131259218605, -45661.439974479676, -41521.13694204533, -80230.15621067956, -67334.18313672343, 0.054, 0.932, 0.34, 192.0, 0.0, 0.0, 0.0, 0.0, 0.0, 0.0, 0.0, 0.0, 0.0, 1.7393886569404907E9, 0.0, 2025-02-12 16:30:56.940
181.0, -5975.761231870799, -5832.195977234362, -6309.025741699426, -6077.081689486706, -45763.96742629617, -41506.67536338275, -80250.02691150033, -67336.35125593559, 0.054, 0.932, 0.34, 192.0, 0.0, 0.0, 0.0, 0.0, 0.0, 0.0, 0.0, 0.0, 0.0, 1.739388656940528E9, 0.0, 2025-02-12 16:30:56.940
182.0, -6200.306856668813, -6041.676526269499, -6274.67111047162, -6066.688128314988, -45567.51794427847, -41533.005718351094, -80159.41293947851, -67309.55151433367, 0.054, 0.932, 0.34, 192.0, 0.0, 0.0, 0.0, 0.0, 0.0, 0.0, 0.0, 0.0, 0.0, 1.7393886569405613E9, 0.0, 2025-02-12 16:30:56.940
183.0, -6296.285247359901, -6138.146655338604, -6254.263967783924, -6057.032174710295, -45467.3821291187, -41546.03678536854, -80113.27893892275, -67298.0850694281, 0.054, 0.932, 0.34, 192.0, 0.0, 0.0, 0.0, 0.0, 0.0, 0.0, 0.0, 0.0, 0.0, 1.7393886569405904E9, 0.0, 2025-02-12 16:30:56.940
184.0, -6078.825125554219, -5935.7516092957985, -6282.270703586424, -6062.7765730353085, -45682.02593112301, -41518.45473271069, -80186.79382643626, -67319.69920631638, 0.054, 0.932, 0.34, 192.0, 0.0, 0.0, 0.0, 0.0, 0.0, 0.0, 0.0, 0.0, 0.0, 1.7393886569406202E9, 0.0, 2025-02-12 16:30:56.940
185.0, -5948.3132896796815, -5806.714988555311, -6300.688541017597, -6067.872770771119, -45838.68930801026, -41497.287630711515, -80229.97739672392, -67328.52814537623, 0.054, 0.932, 0.34, 192.0, 0.0, 0.0, 0.0, 0.0, 0.0, 0.0, 0.0, 0.0, 0.0, 1.7393886569406495E9, 0.0, 2025-02-12 16:30:56.940
186.0, -6144.963937397473, -5988.278208765771, -6272.279473814902, -6060.5413985897785, -45674.20282056365, -41520.24287226712, -80152.8191748642, -67305.25997939825, 0.054, 0.932, 0.34, 192.0, 0.0, 0.0, 0.0, 0.0, 0.0, 0.0, 0.0, 0.0, 0.0, 1.7393886569406805E9, 0.0, 2025-02-12 16:30:56.940
187.0, -6298.609828783254, -6138.124303594149, -6249.123066559204, -6053.344136875169, -45526.234272269525, -41544.047480112014, -80091.7095055234, -67292.07245016962, 0.054, 0.932, 0.34, 192.0, 0.0, 0.0, 0.0, 0.0, 0.0, 0.0, 0.0, 0.0, 0.0, 1.7393886569407248E9, 0.0, 2025-02-12 16:30:56.940
188.0, -6122.343972008703, -5975.649473148522, -6275.878104672206, -6060.7202125454205, -45703.103626144366, -41526.14373280331, -80154.60731442063, -67314.67006381393, 0.056, 0.9460000000000001, 0.34, 192.0, 1.0, 192.0, 29.0, 144.0, 10.0, 160.0, 0.0, 0.0, 0.0, 1.7393886569407573E9, 0.0, 2025-02-12 16:30:56.940
189.0, -5945.720487322866, -5803.965723987309, -6301.806128240362, -6068.67743357151, -45899.329590717505, -41501.08742726892, -80212.85596047115, -67330.07041574364, 0.056, 0.9460000000000001, 0.34, 192.0, 0.0, 0.0, 0.0, 0.0, 0.0, 0.0, 0.0, 0.0, 0.0, 1.739388656940791E9, 0.0, 2025-02-12 16:30:56.940
190.0, -6100.059282786761, -5944.580548355645, -6278.806183195852, -6063.156552691049, -45774.137470023335, -41517.73947688812, -80145.84543059414, -67309.86443875605, 0.056, 0.9460000000000001, 0.34, 192.0, 0.0, 0.0, 0.0, 0.0, 0.0, 0.0, 0.0, 0.0, 0.0, 1.739388656940822E9, 0.0, 2025-02-12 16:30:56.940
191.0, -6297.604000282765, -6135.352687281691, -6250.531226459888, -6055.601663065156, -45587.4109968437, -41547.914331902786, -80065.35679881058, -67292.85476122556, 0.056, 0.9460000000000001, 0.34, 192.0, 0.0, 0.0, 0.0, 0.0, 0.0, 0.0, 0.0, 0.0, 0.0, 1.739388656940853E9, 0.0, 2025-02-12 16:30:56.940
192.0, -6168.232103375448, -6019.034209136273, -6268.636139468687, -6059.468514855924, -45713.161911149255, -41536.4031835083, -80104.56175858519, -67310.19971492287, 0.056, 0.9460000000000001, 0.34, 192.0, 0.0, 0.0, 0.0, 0.0, 0.0, 0.0, 0.0, 0.0, 0.0, 1.7393886569408927E9, 0.0, 2025-02-12 16:30:56.940
193.0, -5958.460981662391, -5817.712046827322, -6302.119052662737, -6071.225532439415, -45943.60839648347, -41510.67632564024, -80174.27684954129, -67332.93143903393, 0.056, 0.9460000000000001, 0.34, 192.0, 0.0, 0.0, 0.0, 0.0, 0.0, 0.0, 0.0, 0.0, 0.0, 1.7393886569409287E9, 0.0, 2025-02-12 16:30:56.940
194.0, -6060.966081734429, -5907.968390937852, -6287.031625155405, -6068.319805660225, -45872.46279388223, -41519.77348563355, -80123.33722392765, -67317.50873535976, 0.056, 0.9460000000000001, 0.34, 192.0, 0.0, 0.0, 0.0, 0.0, 0.0, 0.0, 0.0, 0.0, 0.0, 1.7393886569409602E9, 0.0, 2025-02-12 16:30:56.940
195.0, -6287.076328644315, -6123.9980010983945, -6253.3698980057125, -6058.5520933332555, -45658.89187561177, -41551.110631359894, -80028.74464139278, -67294.86641822653, 0.056, 0.9460000000000001, 0.34, 192.0, 0.0, 0.0, 0.0, 0.0, 0.0, 0.0, 0.0, 0.0, 0.0, 1.739388656941107E9, 0.0, 2025-02-12 16:30:56.941
196.0, -6214.388455675657, -6061.971910234918, -6263.38347952169, -6059.870846256119, -45725.45537059967, -41547.51200050259, -80047.3412927796, -67306.7351945323, 0.056, 0.9460000000000001, 0.34, 192.0, 0.0, 0.0, 0.0, 0.0, 0.0, 0.0, 0.0, 0.0, 0.0, 1.739388656941176E9, 0.0, 2025-02-12 16:30:56.941
197.0, -5977.169391771483, -5836.465160425325, -6296.397006082178, -6068.565674849234, -45971.123393907954, -41515.50430244259, -80125.90767454001, -67328.99753200979, 0.056, 0.9460000000000001, 0.34, 192.0, 0.0, 0.0, 0.0, 0.0, 0.0, 0.0, 0.0, 0.0, 0.0, 1.739388656941226E9, 0.0, 2025-02-12 16:30:56.941
198.0, -6014.787377689765, -5864.740117161288, -6286.33872107729, -6064.341195147181, -45956.81827745656, -41511.905671585286, -80100.22552016086, -67315.67589231442, 0.058, 0.9420000000000001, 0.34400000000000003, 192.0, 1.0, 208.0, 29.0, 112.0, 10.0, 192.0, 0.0, 0.0, 0.0, 1.7393886569412613E9, 0.0, 2025-02-12 16:30:56.941
199.0, -6253.928691617095, -6091.0068262823615, -6249.994784592961, -6053.165322919527, -45730.30569914648, -41542.54991323351, -80006.86228357104, -67289.68081351291, 0.058, 0.9420000000000001, 0.34400000000000003, 192.0, 0.0, 0.0, 0.0, 0.0, 0.0, 0.0, 0.0, 0.0, 0.0, 1.7393886569412973E9, 0.0, 2025-02-12 16:30:56.941
200.0, -6244.652717668142, -6088.72694834792, -6253.638118939176, -6054.461724097935, -45736.07244921594, -41548.964863892186, -80011.22087373983, -67297.70508977235, 0.058, 0.9420000000000001, 0.34400000000000003, 192.0, 0.0, 0.0, 0.0, 0.0, 0.0, 0.0, 0.0, 0.0, 0.0, 1.7393886569413288E9, 0.0, 2025-02-12 16:30:56.941
201.0, -6002.359807772614, -5859.643919425478, -6289.57972402331, -6065.302320158758, -45984.19916441431, -41519.03587806653, -80098.19151141543, -67323.76722380724, 0.058, 0.9420000000000001, 0.34400000000000003, 192.0, 0.0, 0.0, 0.0, 0.0, 0.0, 0.0, 0.0, 0.0, 0.0, 1.73938865694136E9, 0.0, 2025-02-12 16:30:56.941
202.0, -5982.08677555165, -5833.179453990395, -6292.060767657848, -6066.621073081622, -46027.58390040206, -41511.190415762714, -80100.65020330551, -67320.28035167222, 0.058, 0.9420000000000001, 0.34400000000000003, 192.0, 0.0, 0.0, 0.0, 0.0, 0.0, 0.0, 0.0, 0.0, 0.0, 1.7393886569414296E9, 0.0, 2025-02-12 16:30:56.941
203.0, -6219.350542944735, -6055.892235743075, -6254.129857317193, -6053.813523508731, -45791.43772023174, -41539.085392842935, -80005.54353064818, -67291.20073213587, 0.058, 0.9420000000000001, 0.34400000000000003, 192.0, 0.0, 0.0, 0.0, 0.0, 0.0, 0.0, 0.0, 0.0, 0.0, 1.739388656941578E9, 0.0, 2025-02-12 16:30:56.941
204.0, -6271.0948313587705, -6111.391617225602, -6247.893720614162, -6052.003032207851, -45727.33291713392, -41552.49643951612, -79986.65630658345, -67291.71482225833, 0.058, 0.9420000000000001, 0.34400000000000003, 192.0, 0.0, 0.0, 0.0, 0.0, 0.0, 0.0, 0.0, 0.0, 0.0, 1.7393886569417849E9, 0.0, 2025-02-12 16:30:56.941
205.0, -6037.072066911705, -5891.875134930031, -6281.868372186229, -6061.1895991789825, -45959.47813504674, -41524.467351969164, -80071.70469423589, -67317.57579059312, 0.058, 0.9420000000000001, 0.34400000000000003, 192.0, 0.0, 0.0, 0.0, 0.0, 0.0, 0.0, 0.0, 0.0, 0.0, 1.7393886569418917E9, 0.0, 2025-02-12 16:30:56.941
206.0, -5955.264682205282, -5807.810224033621, -6291.591381024287, -6063.558884091245, -46056.3729472605, -41508.329392472435, -80095.59870905861, -67319.52039236073, 0.058, 0.9420000000000001, 0.34400000000000003, 192.0, 0.0, 0.0, 0.0, 0.0, 0.0, 0.0, 0.0, 0.0, 0.0, 1.739388656941938E9, 0.0, 2025-02-12 16:30:56.941
207.0, -6181.911370982096, -6019.19067134746, -6261.103601587249, -6057.032174710295, -45840.65626152233, -41538.41484050928, -80009.4327341834, -67295.9840054493, 0.058, 0.9420000000000001, 0.34400000000000003, 192.0, 0.0, 0.0, 0.0, 0.0, 0.0, 0.0, 0.0, 0.0, 0.0, 1.7393886569419975E9, 0.0, 2025-02-12 16:30:56.941
208.0, -6296.53111654891, -6133.676306447543, -6249.368935748213, -6055.936939231985, -45716.53702456201, -41562.77824196556, -79968.37257961901, -67292.89946471447, 0.066, 0.9420000000000001, 0.34800000000000003, 192.0, 2.0, 16.0, 29.0, 112.0, 10.0, 224.0, 0.0, 0.0, 0.0, 1.7393886569420648E9, 0.0, 2025-02-12 16:30:56.942
209.0, -6092.236172227404, -5943.999402999807, -6283.723566976019, -6067.693956815477, -45921.61427993945, -41543.66750045628, -80043.139164822, -67321.19677319488, 0.066, 0.9420000000000001, 0.34800000000000003, 192.0, 0.0, 0.0, 0.0, 0.0, 0.0, 0.0, 0.0, 0.0, 0.0, 1.7393886569421046E9, 0.0, 2025-02-12 16:30:56.942
210.0, -5957.7010223509105, -5811.38650314647, -6303.460157330055, -6074.198314451971, -46073.6731974689, -41523.48387521313, -80083.59582228611, -67331.47857564433, 0.066, 0.9420000000000001, 0.34800000000000003, 192.0, 0.0, 0.0, 0.0, 0.0, 0.0, 0.0, 0.0, 0.0, 0.0, 1.7393886569421372E9, 0.0, 2025-02-12 16:30:56.942
211.0, -6152.675289234554, -5991.496859967335, -6275.654587227654, -6067.515142859834, -45876.84373579547, -41547.66846271377, -80001.36375443503, -67308.41157536645, 0.066, 0.9420000000000001, 0.34800000000000003, 192.0, 0.0, 0.0, 0.0, 0.0, 0.0, 0.0, 0.0, 0.0, 0.0, 1.7393886569421697E9, 0.0, 2025-02-12 16:30:56.942
212.0, -6315.351285380279, -6150.261300833381, -6251.872331127207, -6059.937901489485, -45682.36120728984, -41573.99881768213, -79932.14040185696, -67294.41938333743, 0.066, 0.9420000000000001, 0.34800000000000003, 192.0, 0.0, 0.0, 0.0, 0.0, 0.0, 0.0, 0.0, 0.0, 0.0, 1.7393886569422295E9, 0.0, 2025-02-12 16:30:56.942
213.0, -6145.299213564303, -5994.3355315131585, -6277.62154073972, -6066.621073081622, -45841.237406878165, -41557.212657596196, -79989.1820537069, -67316.45820337036, 0.066, 0.9420000000000001, 0.34800000000000003, 192.0, 0.0, 0.0, 0.0, 0.0, 0.0, 0.0, 0.0, 0.0, 0.0, 1.7393886569422612E9, 0.0, 2025-02-12 16:30:56.942
214.0, -5963.80304858721, -5818.561413116624, -6304.622448041731, -6075.20414295246, -46043.23012152078, -41531.77637240605, -80047.31894103515, -67332.66321810045, 0.066, 0.9420000000000001, 0.34800000000000003, 192.0, 0.0, 0.0, 0.0, 0.0, 0.0, 0.0, 0.0, 0.0, 0.0, 1.7393886569422925E9, 0.0, 2025-02-12 16:30:56.942
215.0, -6119.25943127387, -5960.137362496539, -6287.702177489064, -6074.600645852166, -45889.56187839054, -41553.41286103879, -79986.81276879464, -67317.53108710422, 0.066, 0.9420000000000001, 0.34800000000000003, 192.0, 0.0, 0.0, 0.0, 0.0, 0.0, 0.0, 0.0, 0.0, 0.0, 1.739388656942324E9, 0.0, 2025-02-12 16:30:56.942
216.0, -6331.399837899189, -6164.477010306956, -6263.897569644162, -6071.225532439415, -45630.03577351997, -41591.254364401626, -79905.72063991078, -67304.07533694211, 0.066, 0.9420000000000001, 0.34800000000000003, 192.0, 0.0, 0.0, 0.0, 0.0, 0.0, 0.0, 0.0, 0.0, 0.0, 1.7393886569423685E9, 0.0, 2025-02-12 16:30:56.942
217.0, -6212.6897230970535, -6058.350927633158, -6283.365939064734, -6077.193448208982, -45725.92475723324, -41583.43125384227, -79942.33279732858, -67322.82845054012, 0.066, 0.9420000000000001, 0.34800000000000003, 192.0, 0.0, 0.0, 0.0, 0.0, 0.0, 0.0, 0.0, 0.0, 0.0, 1.7393886569424188E9, 0.0, 2025-02-12 16:30:56.942
218.0, -5996.391892003047, -5851.507884443747, -6316.312410391857, -6088.324616947725, -45976.75603351069, -41555.22335233967, -80011.46674292884, -67344.8449188286, 0.068, 0.936, 0.334, 192.0, 2.0, 32.0, 29.0, 64.0, 10.0, 112.0, 0.0, 0.0, 0.0, 1.73938865694247E9, 0.0, 2025-02-12 16:30:56.942
219.0, -6096.930038563018, -5940.3337169091365, -6306.745863764985, -6089.151631492571, -45889.11484350143, -41567.896791445826, -79967.16558541842, -67333.62434311204, 0.068, 0.936, 0.334, 192.0, 0.0, 0.0, 0.0, 0.0, 0.0, 0.0, 0.0, 0.0, 0.0, 1.7393886569425144E9, 0.0, 2025-02-12 16:30:56.942
220.0, -6342.01691651546, -6174.468240078479, -6282.315407075335, -6088.212858225448, -45578.00091242801, -41612.73439082318, -79879.03265703114, -67319.67685457192, 0.068, 0.936, 0.334, 192.0, 0.0, 0.0, 0.0, 0.0, 0.0, 0.0, 0.0, 0.0, 0.0, 1.7393886569425492E9, 0.0, 2025-02-12 16:30:56.942
221.0, -6285.422299554622, -6127.64133544461, -6296.911096204651, -6095.29836121778, -45591.88134573476, -41617.13768448087, -79898.34456424053, -67336.50771814678, 0.068, 0.936, 0.334, 192.0, 0.0, 0.0, 0.0, 0.0, 0.0, 0.0, 0.0, 0.0, 0.0, 1.7393886569425817E9, 0.0, 2025-02-12 16:30:56.942
222.0, -6003.164470573005, -5860.649747925967, -6307.259953887457, -6082.580218622711, -46073.29321781317, -41551.49061101564, -79955.43091957938, -67336.30655244668, 0.068, 0.936, 0.334, 192.0, 0.0, 0.0, 0.0, 0.0, 0.0, 0.0, 0.0, 0.0, 0.0, 1.7393886569426131E9, 0.0, 2025-02-12 16:30:56.942
223.0, -5832.330087701093, -5695.626818612435, -6186.247609406425, -5972.073194035673, -47204.2914872517, -41396.3695044958, -79830.86464772996, -67217.43997543336, 0.068, 0.936, 0.334, 192.0, 0.0, 0.0, 0.0, 0.0, 0.0, 0.0, 0.0, 0.0, 0.0, 1.739388656942655E9, 0.0, 2025-02-12 16:30:56.942
224.0, -6007.612467719611, -5855.665308912434, -6096.751224607376, -5906.873155459542, -47383.507774294354, -41382.73494037807, -79712.10982943891, -67154.29629734711, 0.068, 0.936, 0.334, 192.0, 0.0, 0.0, 0.0, 0.0, 0.0, 0.0, 0.0, 0.0, 0.0, 1.7393886569426875E9, 0.0, 2025-02-12 16:30:56.942
225.0, -6168.254455119903, -6007.925392141985, -6185.442946606034, -5989.395795988536, -46499.04924619785, -41512.55387217449, -79791.2350048107, -67243.74797865725, 0.068, 0.936, 0.334, 192.0, 0.0, 0.0, 0.0, 0.0, 0.0, 0.0, 0.0, 0.0, 0.0, 1.7393886569427204E9, 0.0, 2025-02-12 16:30:56.942
226.0, -5821.042456751163, -5684.920333018343, -6173.261245877891, -5956.851656061609, -47317.21250023991, -41400.28105977548, -79813.92202543284, -67212.83551607556, 0.068, 0.936, 0.334, 192.0, 0.0, 0.0, 0.0, 0.0, 0.0, 0.0, 0.0, 0.0, 0.0, 1.7393886569427516E9, 0.0, 2025-02-12 16:30:56.942
227.0, -5437.039487008988, -5317.3011919619075, -5967.759307355798, -5758.099944365018, -49370.57785637115, -41124.5052366859, -79639.62312217035, -67018.15182186983, 0.068, 0.936, 0.334, 192.0, 0.0, 0.0, 0.0, 0.0, 0.0, 0.0, 0.0, 0.0, 0.0, 1.7393886569427905E9, 0.0, 2025-02-12 16:30:56.942
228.0, -5752.132028595452, -5600.095462810453, -5947.642737346022, -5756.445915275325, -48809.19144263166, -41216.326202908305, -79588.10235120087, -67024.07503415049, 0.07, 0.936, 0.332, 192.0, 2.0, 48.0, 29.0, 64.0, 10.0, 96.0, 0.0, 0.0, 0.0, 1.739388656942822E9, 0.0, 2025-02-12 16:30:56.942
229.0, -6187.611065818199, -6009.869993909597, -6153.569359012766, -5957.209283972894, -46678.08671928486, -41511.30217448499, -79736.67439659529, -67217.32821671107, 0.07, 0.936, 0.332, 192.0, 0.0, 0.0, 0.0, 0.0, 0.0, 0.0, 0.0, 0.0, 0.0, 1.7393886569428556E9, 0.0, 2025-02-12 16:30:56.942
230.0, -5852.759582133243, -5693.346940677994, -6170.400222587612, -5956.002289772307, -47285.495374857834, -41420.55409199645, -79758.46734743922, -67203.89481829344, 0.07, 0.936, 0.332, 192.0, 0.0, 0.0, 0.0, 0.0, 0.0, 0.0, 0.0, 0.0, 0.0, 1.7393886569428868E9, 0.0, 2025-02-12 16:30:56.942
231.0, -4904.330361405655, -4641.2726809111455, -5913.981010196329, -5703.829908827533, -50016.74443682962, -41052.30910209526, -79550.35025481586, -66958.74088510763, 0.07, 0.936, 0.332, 192.0, 0.0, 0.0, 0.0, 0.0, 0.0, 0.0, 0.0, 0.0, 0.0, 1.739388656942918E9, 0.0, 2025-02-12 16:30:56.942
232.0, -5409.9268209847005, -5179.88266705068, -5880.565152235646, -5686.261437685662, -49586.361597342686, -41128.28268149885, -79502.69633563714, -66956.25984147309, 0.07, 0.936, 0.332, 192.0, 0.0, 0.0, 0.0, 0.0, 0.0, 0.0, 0.0, 0.0, 0.0, 1.73938865694295E9, 0.0, 2025-02-12 16:30:56.942
233.0, -6213.717903341998, -6024.063351638717, -6145.030992630839, -5948.000365257307, -46757.65892954575, -41519.728782144644, -79690.13806463934, -67206.35351018352, 0.07, 0.936, 0.332, 192.0, 0.0, 0.0, 0.0, 0.0, 0.0, 0.0, 0.0, 0.0, 0.0, 1.7393886569429955E9, 0.0, 2025-02-12 16:30:56.942
234.0, -5966.284092221748, -5797.461366350814, -6204.888964282151, -5992.078005323173, -46968.25706580366, -41483.384845660315, -79732.33815817097, -67229.88989709495, 0.07, 0.936, 0.332, 192.0, 0.0, 0.0, 0.0, 0.0, 0.0, 0.0, 0.0, 0.0, 0.0, 1.7393886569430275E9, 0.0, 2025-02-12 16:30:56.943
235.0, -4480.764803977586, -4216.477777538035, -5915.366818352559, -5704.813385583567, -50158.633310631914, -41047.45877354846, -79500.8187891029, -66949.73313209214, 0.07, 0.936, 0.332, 192.0, 0.0, 0.0, 0.0, 0.0, 0.0, 0.0, 0.0, 0.0, 0.0, 1.7393886569430656E9, 0.0, 2025-02-12 16:30:56.943
236.0, -4870.936855189426, -4583.940456383283, -5831.7936458341655, -5636.081771383497, -50248.532026831155, -41053.11376489565, -79423.57116026535, -66903.01798618055, 0.07, 0.936, 0.332, 192.0, 0.0, 0.0, 0.0, 0.0, 0.0, 0.0, 0.0, 0.0, 0.0, 1.7393886569430983E9, 0.0, 2025-02-12 16:30:56.943
237.0, -6196.6635223225985, -5996.414243747502, -6125.070884832249, -5929.493120848313, -46977.197763585784, -41507.81530234996, -79630.81653485495, -67185.78990528463, 0.07, 0.936, 0.332, 192.0, 0.0, 0.0, 0.0, 0.0, 0.0, 0.0, 0.0, 0.0, 0.0, 1.7393886569431293E9, 0.0, 2025-02-12 16:30:56.943
238.0, -6118.030085328828, -5941.5630628541785, -6237.857787353729, -6028.623107507599, -46565.299816763385, -41550.79770693752, -79703.03502119005, -67257.82957766409, 0.076, 0.928, 0.332, 192.0, 2.0, 96.0, 29.0, 0.0, 10.0, 96.0, 0.0, 0.0, 0.0, 1.739388656943168E9, 0.0, 2025-02-12 16:30:56.943
239.0, -4628.778055760629, -4382.662997563243, -5950.302594936204, -5740.620880200968, -49907.444406443174, -41093.3022014263, -79474.9578207681, -66974.54356843753, 0.076, 0.928, 0.332, 192.0, 0.0, 0.0, 0.0, 0.0, 0.0, 0.0, 0.0, 0.0, 0.0, 1.7393886569432018E9, 0.0, 2025-02-12 16:30:56.943
240.0, -4412.860204322363, -4088.9387236760526, -5776.160153884906, -5582.214067246207, -51023.15408267428, -40959.8175835392, -79326.94456898505, -66839.4272732052, 0.076, 0.928, 0.332, 192.0, 0.0, 0.0, 0.0, 0.0, 0.0, 0.0, 0.0, 0.0, 0.0, 1.7393886569432333E9, 0.0, 2025-02-12 16:30:56.943
241.0, -5911.209393883872, -5711.451853686793, -5973.459002191902, -5786.397252845437, -48501.09499705971, -41316.81964597936, -79456.94231473713, -67041.41998784781, 0.076, 0.928, 0.332, 192.0, 0.0, 0.0, 0.0, 0.0, 0.0, 0.0, 0.0, 0.0, 0.0, 1.7393886574179263E9, 0.0, 2025-02-12 16:30:57.417
242.0, -6101.266276987348, -5921.737065522321, -6166.511019052389, -5964.026566031763, -47088.44239573985, -41503.233194736626, -79606.65429909877, -67200.51970488069, 0.076, 0.928, 0.332, 192.0, 0.0, 0.0, 0.0, 0.0, 0.0, 0.0, 0.0, 0.0, 0.0, 1.7393886574180615E9, 0.0, 2025-02-12 16:30:57.418
243.0, -5492.784737680524, -5293.653046328192, -6040.223662879904, -5827.2785934541935, -49010.60301191843, -41233.40293567216, -79515.05685032092, -67057.96027874474, 0.076, 0.928, 0.332, 192.0, 0.0, 0.0, 0.0, 0.0, 0.0, 0.0, 0.0, 0.0, 0.0, 1.7393886574180954E9, 0.0, 2025-02-12 16:30:57.418
244.0, -4969.552751726241, -4612.2154131192465, -5816.952087515841, -5620.390846775871, -50871.83277271185, -40986.21499374092, -79314.42759209008, -66859.07445658141, 0.076, 0.928, 0.332, 192.0, 0.0, 0.0, 0.0, 0.0, 0.0, 0.0, 0.0, 0.0, 0.0, 1.7393886574181263E9, 0.0, 2025-02-12 16:30:57.418
245.0, -5791.448747092337, -5578.794250344545, -5926.900318491497, -5742.811351157588, -49089.14704193438, -41247.439831190095, -79380.3875899777, -66988.60281569992, 0.076, 0.928, 0.332, 192.0, 0.0, 0.0, 0.0, 0.0, 0.0, 0.0, 0.0, 0.0, 0.0, 1.7393886574181597E9, 0.0, 2025-02-12 16:30:57.418
246.0, -6194.60716183271, -6005.399645018536, -6179.810307003297, -5981.751499384821, -46878.47010832669, -41547.51200050259, -79584.21314766564, -67214.42248993188, 0.076, 0.928, 0.332, 192.0, 0.0, 0.0, 0.0, 0.0, 0.0, 0.0, 0.0, 0.0, 0.0, 1.7393886574181907E9, 0.0, 2025-02-12 16:30:57.418
247.0, -5898.982989666819, -5736.932842365843, -6205.268943937891, -5988.009987832307, -47357.24447455937, -41468.63269431981, -79627.93315982023, -67212.1649637419, 0.076, 0.928, 0.332, 192.0, 0.0, 0.0, 0.0, 0.0, 0.0, 0.0, 0.0, 0.0, 0.0, 1.739388657418222E9, 0.0, 2025-02-12 16:30:57.418
248.0, -5767.33121482506, -5610.757244915634, -6113.179756782027, -5904.190946124905, -48238.35024098757, -41345.89926551572, -79535.86632440881, -67121.43923299781, 0.068, 0.924, 0.342, 192.0, 2.0, 32.0, 28.0, 224.0, 10.0, 176.0, 0.0, 0.0, 0.0, 1.7393886574182796E9, 0.0, 2025-02-12 16:30:57.418
249.0, -5998.224735048382, -5827.435055665381, -6063.737698046887, -5880.54280049119, -48106.787873123634, -41371.55906815041, -79440.02204418446, -67090.50441867167, 0.068, 0.924, 0.342, 192.0, 0.0, 0.0, 0.0, 0.0, 0.0, 0.0, 0.0, 0.0, 0.0, 1.7393886574183145E9, 0.0, 2025-02-12 16:30:57.418
250.0, -6121.963992352962, -5949.341469924626, -6128.468349989456, -5943.530016366246, -47446.02560353585, -41470.644351320785, -79493.48741692155, -67160.42067532786, 0.068, 0.924, 0.342, 192.0, 0.0, 0.0, 0.0, 0.0, 0.0, 0.0, 0.0, 0.0, 0.0, 1.7393886574183445E9, 0.0, 2025-02-12 16:30:57.418
251.0, -5909.421254327447, -5751.528531495158, -6184.101841938716, -5975.113031281595, -47495.244144826436, -41460.67547329372, -79586.49302560008, -67201.72669908126, 0.068, 0.924, 0.342, 192.0, 0.0, 0.0, 0.0, 0.0, 0.0, 0.0, 0.0, 0.0, 0.0, 1.7393886574183755E9, 0.0, 2025-02-12 16:30:57.418
252.0, -5852.178436777406, -5692.408167410871, -6178.737423269442, -5967.915769566986, -47669.4536411111, -41429.830065945396, -79576.2335748951, -67185.54403609563, 0.068, 0.924, 0.342, 192.0, 0.0, 0.0, 0.0, 0.0, 0.0, 0.0, 0.0, 0.0, 0.0, 1.7393886574184155E9, 0.0, 2025-02-12 16:30:57.418
253.0, -6093.756090850365, -5920.351257366092, -6147.199111843003, -5962.014909030785, -47436.59316737571, -41461.90481923876, -79479.5622801259, -67161.0465241726, 0.068, 0.924, 0.342, 192.0, 0.0, 0.0, 0.0, 0.0, 0.0, 0.0, 0.0, 0.0, 0.0, 1.7393886574184473E9, 0.0, 2025-02-12 16:30:57.418
254.0, -6163.515885295378, -5994.223772790882, -6138.057248360783, -5961.031432274751, -47325.616756155105, -41483.18367996022, -79449.2533146445, -67164.01930618516, 0.068, 0.924, 0.342, 192.0, 0.0, 0.0, 0.0, 0.0, 0.0, 0.0, 0.0, 0.0, 0.0, 1.7393886574184897E9, 0.0, 2025-02-12 16:30:57.418
255.0, -5927.235594658327, -5773.723813739278, -6164.36525158468, -5965.255911976804, -47584.74052962548, -41451.66772027823, -79522.03059459098, -67186.63927157393, 0.068, 0.924, 0.342, 192.0, 0.0, 0.0, 0.0, 0.0, 0.0, 0.0, 0.0, 0.0, 0.0, 1.739388657418521E9, 0.0, 2025-02-12 16:30:57.418
0.0, -5829.960802788831, -5675.622007324935, -6177.150449413115, -5969.011005045296, -47744.68961294766, -41429.271272334016, -79544.6282082353, -67187.62274832997, 0.068, 0.924, 0.342, 192.0, 0.0, 0.0, 0.0, 0.0, 0.0, 0.0, 0.0, 0.0, 0.0, 1.7393886574185524E9, 0.0, 2025-02-12 16:30:57.418
1.0, -6056.518084587823, -5887.002454638774, -6152.183550856537, -5966.597016644123, -47511.382104323166, -41460.31784538244, -79455.55650658089, -67165.18159689684, 0.068, 0.924, 0.342, 192.0, 0.0, 0.0, 0.0, 0.0, 0.0, 0.0, 0.0, 0.0, 0.0, 1.739388657418583E9, 0.0, 2025-02-12 16:30:57.418
2.0, -6187.812231518296, -6017.827214935686, -6137.766675682864, -5965.993519543829, -47323.113360776115, -41491.342066686404, -79403.0969623443, -67162.96877419578, 0.076, 0.932, 0.336, 192.0, 2.0, 96.0, 29.0, 32.0, 10.0, 128.0, 0.0, 0.0, 0.0, 1.73938865741862E9, 0.0, 2025-02-12 16:30:57.418
3.0, -5982.489106951846, -5828.239718465772, -6163.024146917361, -5972.028490546762, -47540.79700002635, -41468.61034257535, -79468.69933232061, -67187.15336169642, 0.076, 0.932, 0.336, 192.0, 0.0, 0.0, 0.0, 0.0, 0.0, 0.0, 0.0, 0.0, 0.0, 1.7393886574186535E9, 0.0, 2025-02-12 16:30:57.418
4.0, -5826.138654486973, -5674.906751502365, -6180.614969803688, -5974.487182436846, -47771.89168594977, -41436.535589281986, -79511.54762644145, -67192.11544896549, 0.076, 0.932, 0.336, 192.0, 0.0, 0.0, 0.0, 0.0, 0.0, 0.0, 0.0, 0.0, 0.0, 1.7393886574186845E9, 0.0, 2025-02-12 16:30:57.418
5.0, -6014.519156756301, -5848.132771030995, -6159.179646871048, -5971.424993446469, -47594.46353846354, -41458.32854012591, -79437.36218659427, -67169.83075974355, 0.076, 0.932, 0.336, 192.0, 0.0, 0.0, 0.0, 0.0, 0.0, 0.0, 0.0, 0.0, 0.0, 1.7393886574187152E9, 0.0, 2025-02-12 16:30:57.418
6.0, -6215.282525453869, -6042.704706514443, -6150.775390955853, -5980.924484839975, -47263.344796102625, -41510.07282853995, -79382.48865395649, -67173.38468711195, 0.076, 0.932, 0.336, 192.0, 0.0, 0.0, 0.0, 0.0, 0.0, 0.0, 0.0, 0.0, 0.0, 1.7393886574187465E9, 0.0, 2025-02-12 16:30:57.418
7.0, -6053.00886070834, -5895.630227998523, -6172.993024944428, -5988.3452639991365, -47398.0364081903, -41495.14186324381, -79435.81991622686, -67195.3564519115, 0.076, 0.932, 0.336, 192.0, 0.0, 0.0, 0.0, 0.0, 0.0, 0.0, 0.0, 0.0, 0.0, 1.7393886574187768E9, 0.0, 2025-02-12 16:30:57.418
8.0, -5646.609443021946, -5511.3590373228835, -6081.77555582232, -5884.253190070772, -48783.88926790825, -41302.69334348361, -79393.6421744397, -67095.9358925743, 0.076, 0.932, 0.336, 192.0, 0.0, 0.0, 0.0, 0.0, 0.0, 0.0, 0.0, 0.0, 0.0, 1.7393886574188268E9, 0.0, 2025-02-12 16:30:57.418
9.0, -5577.140221254853, -5436.12306548632, -5931.750647038299, -5751.573234984068, -49859.65637679773, -41159.88804815865, -79241.09151853222, -66961.04311478653, 0.076, 0.932, 0.336, 192.0, 0.0, 0.0, 0.0, 0.0, 0.0, 0.0, 0.0, 0.0, 0.0, 1.739388657418857E9, 0.0, 2025-02-12 16:30:57.418
10.0, -5922.02763820024, -5755.104810608007, -5961.6572811195, -5797.304904139627, -48944.39714484181, -41295.31726781336, -79231.45791667199, -67008.18294384277, 0.076, 0.932, 0.336, 192.0, 0.0, 0.0, 0.0, 0.0, 0.0, 0.0, 0.0, 0.0, 0.0, 1.739388657418888E9, 0.0, 2025-02-12 16:30:57.418
11.0, -5985.506592453313, -5819.477834639291, -6081.552038377767, -5902.4698618018465, -48087.766538592165, -41418.31891755092, -79352.40320591965, -67116.81242189556, 0.076, 0.932, 0.336, 192.0, 0.0, 0.0, 0.0, 0.0, 0.0, 0.0, 0.0, 0.0, 0.0, 1.7393886574189188E9, 0.0, 2025-02-12 16:30:57.418
12.0, -5695.313894190061, -5546.563034839993, -6086.15649773556, -5886.7342337053105, -48681.58533353631, -41334.812800265885, -79398.22428205304, -67103.11080254446, 0.068, 0.9380000000000001, 0.35000000000000003, 192.0, 2.0, 32.0, 29.0, 80.0, 10.0, 240.0, 0.0, 0.0, 0.0, 1.7393886574189498E9, 0.0, 2025-02-12 16:30:57.418
13.0, -5729.512063206681, -5570.814677574001, -6046.213930393927, -5855.419439723425, -48907.941449635204, -41301.7992737054, -79345.4294616496, -67061.4247991353, 0.068, 0.9380000000000001, 0.35000000000000003, 192.0, 0.0, 0.0, 0.0, 0.0, 0.0, 0.0, 0.0, 0.0, 0.0, 1.7393886574190092E9, 0.0, 2025-02-12 16:30:57.419
14.0, -5974.598941159123, -5802.95989548682, -6016.955496901929, -5850.546759432168, -48620.90034734015, -41342.99353873653, -79262.4597862315, -67042.49287158166, 0.068, 0.9380000000000001, 0.35000000000000003, 192.0, 0.0, 0.0, 0.0, 0.0, 0.0, 0.0, 0.0, 0.0, 0.0, 1.739388657419042E9, 0.0, 2025-02-12 16:30:57.419
15.0, -5925.156882423983, -5762.637348489446, -6021.649363237544, -5851.06084955464, -48633.57378644631, -41346.61452133829, -79283.02339113038, -67054.20518567624, 0.068, 0.9380000000000001, 0.35000000000000003, 192.0, 0.0, 0.0, 0.0, 0.0, 0.0, 0.0, 0.0, 0.0, 0.0, 1.7393886574190736E9, 0.0, 2025-02-12 16:30:57.419
16.0, -5677.320739903538, -5526.669982274769, -6050.147837418061, -5855.620605423523, -48919.72081896315, -41309.309459842385, -79371.02220905092, -67073.47238939672, 0.068, 0.9380000000000001, 0.35000000000000003, 192.0, 0.0, 0.0, 0.0, 0.0, 0.0, 0.0, 0.0, 0.0, 0.0, 1.7393886574191055E9, 0.0, 2025-02-12 16:30:57.419
17.0, -5698.89017330291, -5539.030496958554, -6049.879616484597, -5856.984061835296, -48939.39035408382, -41303.78857896192, -79365.00958979245, -67063.2799939251, 0.068, 0.9380000000000001, 0.35000000000000003, 192.0, 0.0, 0.0, 0.0, 0.0, 0.0, 0.0, 0.0, 0.0, 0.0, 1.7393886574191487E9, 0.0, 2025-02-12 16:30:57.419
18.0, -5948.156827468494, -5774.394366072937, -6018.542470758256, -5850.658518154445, -48664.463897283546, -41338.880817756755, -79276.87666140517, -67038.26839187961, 0.068, 0.9380000000000001, 0.35000000000000003, 192.0, 0.0, 0.0, 0.0, 0.0, 0.0, 0.0, 0.0, 0.0, 0.0, 1.7393886574191804E9, 0.0, 2025-02-12 16:30:57.419
