%OpenBCI Raw EXG Data
%Number of channels = 8
%Sample Rate = 250 Hz
%Board = OpenBCI_GUI$BoardCytonSerial
Sample Index, EXG Channel 0, EXG Channel 1, EXG Channel 2, EXG Channel 3, EXG Channel 4, EXG Channel 5, EXG Channel 6, EXG Channel 7, Accel Channel 0, Accel Channel 1, Accel Channel 2, Not Used, Digital Channel 0 (D11), Digital Channel 1 (D12), Digital Channel 2 (D13), Digital Channel 3 (D17), Not Used, Digital Channel 4 (D18), Analog Channel 0, Analog Channel 1, Analog Channel 2, Timestamp, Marker Channel, Timestamp (Formatted)
101.0, -5906.336713592615, -5684.920333018343, -5941.361897154081, -5915.769149752754, -45011.29478350816, -54066.32173851988, -85564.10945226067, -60922.51818448523, 0.0, 0.0, 0.0, 192.0, 0.0, 0.0, 0.0, 0.0, 0.0, 0.0, 0.0, 0.0, 0.0, 1.7393885555554883E9, 0.0, 2025-02-12 16:29:15.555
102.0, -5846.322279730115, -5665.653129297868, -5941.741876809821, -5932.220033671861, -45008.701981151346, -54099.29056159146, -85573.65364714309, -60945.87575744102, 0.0, 0.0, 0.0, 192.0, 0.0, 0.0, 0.0, 0.0, 0.0, 0.0, 0.0, 0.0, 0.0, 1.739388555555524E9, 0.0, 2025-02-12 16:29:15.555
103.0, -5639.009849907142, -5497.590362738414, -5969.055708534206, -5960.874970063564, -45012.5241294532, -54128.3254776389, -85658.5679243288, -60993.529676619735, 0.0, 0.0, 0.0, 192.0, 0.0, 0.0, 0.0, 0.0, 0.0, 0.0, 0.0, 0.0, 0.0, 1.7393885555555408E9, 0.0, 2025-02-12 16:29:15.555
104.0, -5671.755155534167, -5493.522345247548, -5972.922560324974, -5949.185007713439, -45016.34627775506, -54096.87657319028, -85676.89635478215, -60974.97772872183, 0.0, 0.0, 0.0, 192.0, 0.0, 0.0, 0.0, 0.0, 0.0, 0.0, 0.0, 0.0, 0.0, 1.7393885555555565E9, 0.0, 2025-02-12 16:29:15.555
105.0, -5879.916951646442, -5657.159466404852, -5944.6699553334665, -5918.272545131748, -45011.965335841815, -54060.46558147259, -85609.39408652713, -60922.29466704067, 0.0, 0.0, 0.0, 192.0, 0.0, 0.0, 0.0, 0.0, 0.0, 0.0, 0.0, 0.0, 0.0, 1.7393885555555716E9, 0.0, 2025-02-12 16:29:15.555
106.0, -5869.031652096707, -5676.337263147505, -5933.851711017098, -5923.4805015898355, -45004.94688808285, -54082.146773594235, -85595.87128113167, -60929.67074271092, 0.066, 0.9380000000000001, 0.342, 192.0, 2.0, 16.0, 29.0, 80.0, 10.0, 176.0, 0.0, 0.0, 0.0, 1.7393885555555868E9, 0.0, 2025-02-12 16:29:15.555
107.0, -5656.533617560103, -5511.426092556249, -5959.08683050714, -5954.03533626024, -45007.159710783926, -54117.64134378926, -85676.20345070404, -60980.25274041328, 0.066, 0.9380000000000001, 0.342, 192.0, 0.0, 0.0, 0.0, 0.0, 0.0, 0.0, 0.0, 0.0, 0.0, 1.7393885555556257E9, 0.0, 2025-02-12 16:29:15.555
108.0, -5635.232405094195, -5465.023871067032, -5968.966301556386, -5949.185007713439, -45010.73598989678, -54094.14966036674, -85711.94389008808, -60973.390754865504, 0.066, 0.9380000000000001, 0.342, 192.0, 0.0, 0.0, 0.0, 0.0, 0.0, 0.0, 0.0, 0.0, 0.0, 1.7393885555556407E9, 0.0, 2025-02-12 16:29:15.555
109.0, -5839.817922093621, -5618.1333205858855, -5940.847807031609, -5914.8527282300865, -45005.5727369276, -54050.139075534236, -85648.57669455728, -60917.01965534922, 0.066, 0.9380000000000001, 0.342, 192.0, 0.0, 0.0, 0.0, 0.0, 0.0, 0.0, 0.0, 0.0, 0.0, 1.7393885555556562E9, 0.0, 2025-02-12 16:29:15.555
110.0, -5881.615684225045, -5677.432498625815, -5922.765245767266, -5911.678780517434, -44998.30841997963, -54062.09725881783, -85616.83721743074, -60911.319960513116, 0.066, 0.9380000000000001, 0.342, 192.0, 0.0, 0.0, 0.0, 0.0, 0.0, 0.0, 0.0, 0.0, 0.0, 1.7393885555556715E9, 0.0, 2025-02-12 16:29:15.555
111.0, -5680.494687616192, -5529.240432887129, -5947.732144323843, -5945.6534320895, -45002.84582410405, -54105.32553259439, -85691.5814508893, -60965.210016394856, 0.066, 0.9380000000000001, 0.342, 192.0, 0.0, 0.0, 0.0, 0.0, 0.0, 0.0, 0.0, 0.0, 0.0, 1.7393885555556865E9, 0.0, 2025-02-12 16:29:15.555
112.0, -5609.0361605925755, -5446.091943513387, -5965.390022443536, -5950.436705402935, -45008.277298006695, -54093.769680711, -85745.27034107094, -60973.189589165406, 0.066, 0.9380000000000001, 0.342, 192.0, 0.0, 0.0, 0.0, 0.0, 0.0, 0.0, 0.0, 0.0, 0.0, 1.7393885555557015E9, 0.0, 2025-02-12 16:29:15.555
113.0, -5799.853003007532, -5581.699977123735, -5942.144208210017, -5917.579641053634, -45005.416274716416, -54047.613328410785, -85693.57075614581, -60919.36658851703, 0.066, 0.9380000000000001, 0.342, 192.0, 0.0, 0.0, 0.0, 0.0, 0.0, 0.0, 0.0, 0.0, 0.0, 1.7393885555557168E9, 0.0, 2025-02-12 16:29:15.555
114.0, -5893.775033208733, -5679.511210860159, -5920.619478299556, -5908.705998504877, -45000.27537349169, -54051.14490403473, -85649.33665386876, -60903.07216680911, 0.066, 0.9380000000000001, 0.342, 192.0, 0.0, 0.0, 0.0, 0.0, 0.0, 0.0, 0.0, 0.0, 0.0, 1.739388555555732E9, 0.0, 2025-02-12 16:29:15.555
115.0, -5712.3459234650045, -5552.799171543023, -5939.171426197461, -5939.327888408648, -45001.90705083693, -54094.64139874475, -85710.42397146512, -60952.22365286633, 0.066, 0.9380000000000001, 0.342, 192.0, 0.0, 0.0, 0.0, 0.0, 0.0, 0.0, 0.0, 0.0, 0.0, 1.7393885555557468E9, 0.0, 2025-02-12 16:29:15.555
116.0, -5594.172250529797, -5436.748914331069, -5962.238426475337, -5952.113086237084, -45007.45028346185, -54094.14966036674, -85778.06035018688, -60972.72020253184, 0.062, 0.9400000000000001, 0.34400000000000003, 192.0, 1.0, 240.0, 29.0, 96.0, 10.0, 192.0, 0.0, 0.0, 0.0, 1.739388555555762E9, 0.0, 2025-02-12 16:29:15.555
117.0, -5758.56933099858, -5545.780723784056, -5945.094638478117, -5922.228803900338, -45005.840957861066, -54047.479217944056, -85740.33060554632, -60923.59106821908, 0.062, 0.9400000000000001, 0.34400000000000003, 192.0, 0.0, 0.0, 0.0, 0.0, 0.0, 0.0, 0.0, 0.0, 0.0, 1.739388555555878E9, 0.0, 2025-02-12 16:29:15.555
118.0, -5897.016036154751, -5674.258550913161, -5919.658353287978, -5906.35906533707, -45000.722408380796, -54040.55017716291, -85683.37836067419, -60895.6737393944, 0.062, 0.9400000000000001, 0.34400000000000003, 192.0, 0.0, 0.0, 0.0, 0.0, 0.0, 0.0, 0.0, 0.0, 0.0, 1.7393885555558968E9, 0.0, 2025-02-12 16:29:15.555
119.0, -5748.086362849041, -5578.503677666626, -5931.482426104835, -5932.801179027699, -44999.78363511368, -54082.70556720562, -85726.1819513061, -60937.85148118156, 0.062, 0.9400000000000001, 0.34400000000000003, 192.0, 0.0, 0.0, 0.0, 0.0, 0.0, 0.0, 0.0, 0.0, 0.0, 1.7393885555559244E9, 0.0, 2025-02-12 16:29:15.555
120.0, -5589.187811516263, -5435.74308583058, -5956.7622490837875, -5950.950795525408, -45002.756417126235, -54091.4674510321, -85799.6521353307, -60967.60165305158, 0.062, 0.9400000000000001, 0.34400000000000003, 192.0, 0.0, 0.0, 0.0, 0.0, 0.0, 0.0, 0.0, 0.0, 0.0, 1.7393885555559447E9, 0.0, 2025-02-12 16:29:15.555
121.0, -5717.777397367644, -5512.18605186773, -5947.6650890904775, -5926.74385628031, -45003.00228631524, -54047.92625283316, -85777.52390831994, -60926.80971942064, 0.062, 0.9400000000000001, 0.34400000000000003, 192.0, 0.0, 0.0, 0.0, 0.0, 0.0, 0.0, 0.0, 0.0, 0.0, 1.7393885555559647E9, 0.0, 2025-02-12 16:29:15.555
122.0, -5890.712844218355, -5661.965091462743, -5918.585469554123, -5903.185117624416, -44996.34146646756, -54029.17313923516, -85708.59112841978, -60887.135373012476, 0.062, 0.9400000000000001, 0.34400000000000003, 192.0, 0.0, 0.0, 0.0, 0.0, 0.0, 0.0, 0.0, 0.0, 0.0, 1.7393885555559833E9, 0.0, 2025-02-12 16:29:15.555
123.0, -5784.877334222476, -5604.409349490327, -5923.972239967852, -5924.441626601413, -44993.458091432825, -54067.99811935403, -85730.09350658578, -60920.43947225088, 0.062, 0.9400000000000001, 0.34400000000000003, 192.0, 0.0, 0.0, 0.0, 0.0, 0.0, 0.0, 0.0, 0.0, 0.0, 1.7393885555560136E9, 0.0, 2025-02-12 16:29:15.556
124.0, -5601.883602366877, -5450.249367982075, -5956.181103727949, -5952.917749037475, -44999.604821158035, -54091.69096847665, -85810.6044901138, -60963.57833904962, 0.062, 0.9400000000000001, 0.34400000000000003, 192.0, 0.0, 0.0, 0.0, 0.0, 0.0, 0.0, 0.0, 0.0, 0.0, 1.7393885555560293E9, 0.0, 2025-02-12 16:29:15.556
125.0, -5685.657940585368, -5488.694368445203, -5955.51055139429, -5935.393981384514, -45000.99062931426, -54053.31302324689, -85805.01655399997, -60932.88939391248, 0.062, 0.9400000000000001, 0.34400000000000003, 192.0, 0.0, 0.0, 0.0, 0.0, 0.0, 0.0, 0.0, 0.0, 0.0, 1.7393885555560443E9, 0.0, 2025-02-12 16:29:15.556
126.0, -5883.940265648397, -5652.018565180131, -5927.347353380604, -5908.415425826958, -44996.05089378964, -54026.289764200425, -85732.46279149805, -60886.688338123364, 0.068, 0.9400000000000001, 0.34400000000000003, 192.0, 2.0, 32.0, 29.0, 96.0, 10.0, 192.0, 0.0, 0.0, 0.0, 1.7393885555560596E9, 0.0, 2025-02-12 16:29:15.556
127.0, -5827.479759154291, -5635.59003300548, -5926.252117902293, -5923.346391123104, -44992.899297821445, -54059.4597529721, -85734.76502117694, -60909.3753587455, 0.068, 0.9400000000000001, 0.34400000000000003, 192.0, 0.0, 0.0, 0.0, 0.0, 0.0, 0.0, 0.0, 0.0, 0.0, 1.7393885555560756E9, 0.0, 2025-02-12 16:29:15.556
128.0, -5626.470521267715, -5474.121031060342, -5958.505685151302, -5955.376440927558, -44997.928440323885, -54090.79689869844, -85815.41011517169, -60958.05745816916, 0.068, 0.9400000000000001, 0.34400000000000003, 192.0, 0.0, 0.0, 0.0, 0.0, 0.0, 0.0, 0.0, 0.0, 0.0, 1.739388555556111E9, 0.0, 2025-02-12 16:29:15.556
129.0, -5658.992309450186, -5470.567103691948, -5965.300615465715, -5944.424086144458, -44998.91191707992, -54057.71631690459, -85828.15060951121, -60937.315039314635, 0.068, 0.9400000000000001, 0.34400000000000003, 192.0, 0.0, 0.0, 0.0, 0.0, 0.0, 0.0, 0.0, 0.0, 0.0, 1.7393885555561287E9, 0.0, 2025-02-12 16:29:15.556
130.0, -5865.634186939501, -5632.34903005946, -5935.930423251441, -5911.11998690605, -44991.40173094293, -54017.974915263054, -85754.76983246444, -60881.68154736538, 0.068, 0.9400000000000001, 0.34400000000000003, 192.0, 0.0, 0.0, 0.0, 0.0, 0.0, 0.0, 0.0, 0.0, 0.0, 1.7393885555561469E9, 0.0, 2025-02-12 16:29:15.556
131.0, -5859.800381636665, -5656.064230926541, -5926.810911513676, -5917.154957908983, -44985.836146573565, -54040.617232396275, -85737.87191365623, -60889.81758234711, 0.068, 0.9400000000000001, 0.34400000000000003, 192.0, 0.0, 0.0, 0.0, 0.0, 0.0, 0.0, 0.0, 0.0, 0.0, 1.7393885555564451E9, 0.0, 2025-02-12 16:29:15.556
132.0, -5652.018565180131, -5496.092795859909, -5956.158751983494, -5949.98967051383, -44988.5183559082, -54077.1623345807, -85814.38193492674, -60940.533690516204, 0.068, 0.9400000000000001, 0.34400000000000003, 192.0, 0.0, 0.0, 0.0, 0.0, 0.0, 0.0, 0.0, 0.0, 0.0, 1.7393885555565233E9, 0.0, 2025-02-12 16:29:15.556
133.0, -5631.387905047883, -5451.03167903801, -5970.843848090631, -5947.955661768397, -44991.75935885422, -54054.47531395857, -85848.13306905427, -60934.34225730208, 0.068, 0.9400000000000001, 0.34400000000000003, 192.0, 0.0, 0.0, 0.0, 0.0, 0.0, 0.0, 0.0, 0.0, 0.0, 1.7393885555565457E9, 0.0, 2025-02-12 16:29:15.556
134.0, -5835.01229703573, -5602.956486100732, -5944.17821695545, -5914.249231129794, -44986.70786460732, -54011.06822622636, -85783.67063804515, -60879.088745008565, 0.068, 0.9400000000000001, 0.34400000000000003, 192.0, 0.0, 0.0, 0.0, 0.0, 0.0, 0.0, 0.0, 0.0, 0.0, 1.7393885555565655E9, 0.0, 2025-02-12 16:29:15.556
135.0, -5879.581675479612, -5664.289672886094, -5926.140359180017, -5911.2764491172375, -44981.11992849349, -54024.92630778865, -85750.09831787329, -60875.40070717344, 0.068, 0.9400000000000001, 0.34400000000000003, 192.0, 0.0, 0.0, 0.0, 0.0, 0.0, 0.0, 0.0, 0.0, 0.0, 1.7393885555565853E9, 0.0, 2025-02-12 16:29:15.556
136.0, -5678.326568404027, -5515.896441447311, -5949.229711202349, -5943.015926243774, -44982.93041979437, -54066.500552475525, -85818.04762101742, -60926.899126398464, 0.062, 0.9420000000000001, 0.34600000000000003, 192.0, 1.0, 240.0, 29.0, 112.0, 10.0, 208.0, 0.0, 0.0, 0.0, 1.7393885555566056E9, 0.0, 2025-02-12 16:29:15.556
137.0, -5606.06337858002, -5432.680896840203, -5969.167467256483, -5949.028545502251, -44987.24430647425, -54055.54819769242, -85868.5178599975, -60935.146920102474, 0.062, 0.9420000000000001, 0.34600000000000003, 192.0, 0.0, 0.0, 0.0, 0.0, 0.0, 0.0, 0.0, 0.0, 0.0, 1.7393885555566273E9, 0.0, 2025-02-12 16:29:15.556
138.0, -5795.025026205186, -5566.523142638582, -5946.771019312265, -5916.707923019877, -44984.47269016179, -54010.26356342597, -85815.4548186606, -60882.8214863326, 0.062, 0.9420000000000001, 0.34600000000000003, 192.0, 0.0, 0.0, 0.0, 0.0, 0.0, 0.0, 0.0, 0.0, 0.0, 1.7393885555566568E9, 0.0, 2025-02-12 16:29:15.556
139.0, -5887.538896505702, -5662.009794951653, -5920.88769923302, -5904.235649613816, -44977.364835425, -54012.45403438259, -85765.47631805853, -60865.118904724, 0.062, 0.9420000000000001, 0.34600000000000003, 192.0, 0.0, 0.0, 0.0, 0.0, 0.0, 0.0, 0.0, 0.0, 0.0, 1.739388555556686E9, 0.0, 2025-02-12 16:29:15.556
140.0, -5707.316780962561, -5536.460046346194, -5937.562100596679, -5933.359972639081, -44977.5660011251, -54055.79406688143, -85820.5063129075, -60913.28691402518, 0.062, 0.9420000000000001, 0.34600000000000003, 192.0, 0.0, 0.0, 0.0, 0.0, 0.0, 0.0, 0.0, 0.0, 0.0, 1.7393885555567043E9, 0.0, 2025-02-12 16:29:15.556
141.0, -5592.048834806542, -5424.3660479028285, -5965.814705588187, -5950.615519358578, -44986.037312273664, -54059.68327041665, -85888.7238369851, -60937.739722459286, 0.062, 0.9420000000000001, 0.34600000000000003, 192.0, 0.0, 0.0, 0.0, 0.0, 0.0, 0.0, 0.0, 0.0, 0.0, 1.7393885555567229E9, 0.0, 2025-02-12 16:29:15.556
142.0, -5754.434258274348, -5531.699124777213, -5949.386173413536, -5921.245327144305, -44984.629152372974, -54013.88454602773, -85849.92120861069, -60889.839934091564, 0.062, 0.9420000000000001, 0.34600000000000003, 192.0, 0.0, 0.0, 0.0, 0.0, 0.0, 0.0, 0.0, 0.0, 0.0, 1.7393885555567412E9, 0.0, 2025-02-12 16:29:15.556
143.0, -5891.07047212964, -5657.494742571681, -5919.390132354514, -5901.575792023635, -44977.297780191635, -54005.189717434616, -85787.8504142583, -60860.33563141056, 0.062, 0.9420000000000001, 0.34600000000000003, 192.0, 0.0, 0.0, 0.0, 0.0, 0.0, 0.0, 0.0, 0.0, 0.0, 1.739388555556759E9, 0.0, 2025-02-12 16:29:15.556
144.0, -5743.839531402532, -5563.10332573692, -5929.403713870492, -5926.721504535854, -44976.18019296887, -54047.613328410785, -85827.03302228845, -60902.356910986535, 0.062, 0.9420000000000001, 0.34600000000000003, 192.0, 0.0, 0.0, 0.0, 0.0, 0.0, 0.0, 0.0, 0.0, 0.0, 1.739388555556781E9, 0.0, 2025-02-12 16:29:15.556
145.0, -5585.566828914503, -5421.661486823737, -5956.717545594877, -5946.927481523452, -44979.97998952628, -54058.43157272715, -85900.41379933522, -60933.69405671288, 0.062, 0.9420000000000001, 0.34600000000000003, 192.0, 0.0, 0.0, 0.0, 0.0, 0.0, 0.0, 0.0, 0.0, 0.0, 1.7393885555567992E9, 0.0, 2025-02-12 16:29:15.556
146.0, -5711.004818797686, -5495.42224352625, -5947.910958279486, -5923.145225423005, -44980.29291394865, -54015.248002439504, -85879.15729035823, -60893.684434137875, 0.058, 0.934, 0.35000000000000003, 192.0, 1.0, 208.0, 29.0, 48.0, 10.0, 240.0, 0.0, 0.0, 0.0, 1.7393885555568173E9, 0.0, 2025-02-12 16:29:15.556
147.0, -5882.196829580883, -5642.742591231178, -5916.015018941763, -5897.5971815105895, -44974.03442550116, -53995.801984763384, -85810.49273139153, -60854.01008772971, 0.058, 0.934, 0.35000000000000003, 192.0, 0.0, 0.0, 0.0, 0.0, 0.0, 0.0, 0.0, 0.0, 0.0, 1.7393885555568364E9, 0.0, 2025-02-12 16:29:15.556
148.0, -5778.104755652518, -5586.662064392814, -5919.747760265799, -5917.937268964919, -44972.80507955612, -54035.47633117156, -85832.53155142446, -60888.05179453514, 0.058, 0.934, 0.35000000000000003, 192.0, 0.0, 0.0, 0.0, 0.0, 0.0, 0.0, 0.0, 0.0, 0.0, 1.7393885555568616E9, 0.0, 2025-02-12 16:29:15.556
149.0, -5592.317055740006, -5430.333963672396, -5949.743801324821, -5944.5581966111895, -44976.9178005359, -54057.5598546934, -85911.54496807397, -60929.53663224419, 0.058, 0.934, 0.35000000000000003, 192.0, 0.0, 0.0, 0.0, 0.0, 0.0, 0.0, 0.0, 0.0, 0.0, 1.7393885555568795E9, 0.0, 2025-02-12 16:29:15.556
150.0, -5672.69392880129, -5465.582664678414, -5948.93913852443, -5927.280298147238, -44978.23655345876, -54019.53953737492, -85908.61688955032, -60899.58529467408, 0.058, 0.934, 0.35000000000000003, 192.0, 0.0, 0.0, 0.0, 0.0, 0.0, 0.0, 0.0, 0.0, 0.0, 1.7393885555568976E9, 0.0, 2025-02-12 16:29:15.556
151.0, -5868.025823596218, -5625.129416600396, -5917.445530586902, -5897.887754188509, -44972.87213478948, -53991.08576668332, -85837.761859627, -60852.7136865513, 0.058, 0.934, 0.35000000000000003, 192.0, 0.0, 0.0, 0.0, 0.0, 0.0, 0.0, 0.0, 0.0, 0.0, 1.7393885555569153E9, 0.0, 2025-02-12 16:29:15.556
152.0, -5809.888936267965, -5606.644523935857, -5910.695303761399, -5908.840108971609, -44968.066509731594, -54021.90882228719, -85838.20889451611, -60873.00907051672, 0.058, 0.934, 0.35000000000000003, 192.0, 0.0, 0.0, 0.0, 0.0, 0.0, 0.0, 0.0, 0.0, 0.0, 1.739388555556934E9, 0.0, 2025-02-12 16:29:15.556
153.0, -5608.0973873254525, -5445.287280712996, -5941.5630628541785, -5940.512530864779, -44973.52033537869, -54054.4082587252, -85918.74222978858, -60922.361722274036, 0.058, 0.934, 0.35000000000000003, 192.0, 0.0, 0.0, 0.0, 0.0, 0.0, 0.0, 0.0, 0.0, 0.0, 1.7393885555569592E9, 0.0, 2025-02-12 16:29:15.556
154.0, -5641.334431330494, -5443.320327200929, -5951.755458325799, -5933.739952294821, -44978.907105792416, -54027.09442700082, -85936.69068058618, -60907.609570933535, 0.058, 0.934, 0.35000000000000003, 192.0, 0.0, 0.0, 0.0, 0.0, 0.0, 0.0, 0.0, 0.0, 0.0, 1.7393885555569773E9, 0.0, 2025-02-12 16:29:15.556
155.0, -5848.378640220004, -5604.990494846165, -5922.072341689151, -5901.553440279179, -44973.85561154552, -53990.7951940054, -85866.23798206306, -60855.57470984158, 0.058, 0.934, 0.35000000000000003, 192.0, 0.0, 0.0, 0.0, 0.0, 0.0, 0.0, 0.0, 0.0, 0.0, 1.7393885555570092E9, 0.0, 2025-02-12 16:29:15.557
156.0, -5844.958823318341, -5630.136207358385, -5910.650600272489, -5907.275486859738, -44970.12287022149, -54015.538575117425, -85849.9659120996, -60865.722401824285, 0.06, 0.932, 0.35000000000000003, 192.0, 1.0, 224.0, 29.0, 32.0, 10.0, 240.0, 0.0, 0.0, 0.0, 1.7393885555570283E9, 0.0, 2025-02-12 16:29:15.557
157.0, -5636.9758411617095, -5470.455344969671, -5937.584452341134, -5939.439647130925, -44973.54268712315, -54053.357726735805, -85925.55951184744, -60917.109062327036, 0.06, 0.932, 0.35000000000000003, 192.0, 0.0, 0.0, 0.0, 0.0, 0.0, 0.0, 0.0, 0.0, 0.0, 1.739388555557048E9, 0.0, 2025-02-12 16:29:15.557
158.0, -5615.115835084419, -5425.3048211699515, -5952.850693804109, -5938.791446541721, -44978.75064358123, -54033.21880498157, -85960.9870268091, -60913.28691402518, 0.06, 0.932, 0.35000000000000003, 192.0, 0.0, 0.0, 0.0, 0.0, 0.0, 0.0, 0.0, 0.0, 0.0, 1.7393885555570672E9, 0.0, 2025-02-12 16:29:15.557
159.0, -5819.075503239096, -5577.542552655048, -5925.894489991008, -5905.174422880938, -44974.436756901356, -53990.48226958302, -85897.06103766692, -60858.83806453205, 0.06, 0.932, 0.35000000000000003, 192.0, 0.0, 0.0, 0.0, 0.0, 0.0, 0.0, 0.0, 0.0, 0.0, 1.7393885555570865E9, 0.0, 2025-02-12 16:29:15.557
160.0, -5867.221160795827, -5641.893224941877, -5906.873155459542, -5901.508736790269, -44968.40178589842, -54004.206240678584, -85861.70057793864, -60854.680640063365, 0.06, 0.932, 0.35000000000000003, 192.0, 0.0, 0.0, 0.0, 0.0, 0.0, 0.0, 0.0, 0.0, 0.0, 1.7393885555571055E9, 0.0, 2025-02-12 16:29:15.557
161.0, -5668.0894694434965, -5495.891630159811, -5929.359010381581, -5933.024696472251, -44970.05581498812, -54045.936947576636, -85927.7276310596, -60905.75437614374, 0.06, 0.932, 0.35000000000000003, 192.0, 0.0, 0.0, 0.0, 0.0, 0.0, 0.0, 0.0, 0.0, 0.0, 1.739388555557125E9, 0.0, 2025-02-12 16:29:15.557
162.0, -5594.105195296431, -5411.692608796669, -5949.967318769374, -5939.6855163199325, -44975.24141970175, -54035.453979427104, -85978.64490492879, -60914.27039078122, 0.06, 0.932, 0.35000000000000003, 192.0, 0.0, 0.0, 0.0, 0.0, 0.0, 0.0, 0.0, 0.0, 0.0, 1.7393885555571449E9, 0.0, 2025-02-12 16:29:15.557
163.0, -5784.407947588915, -5546.5183313510815, -5930.118969693061, -5909.331847349626, -44975.08495749056, -53991.2422288945, -85928.71110781564, -60863.19665470084, 0.06, 0.932, 0.35000000000000003, 192.0, 0.0, 0.0, 0.0, 0.0, 0.0, 0.0, 0.0, 0.0, 0.0, 1.7393885555572004E9, 0.0, 2025-02-12 16:29:15.557
164.0, -5883.984969137307, -5648.352879089461, -5908.191908382405, -5900.234687356316, -44972.02276850018, -53996.13726093021, -85882.8676799378, -60848.35509638251, 0.06, 0.932, 0.35000000000000003, 192.0, 0.0, 0.0, 0.0, 0.0, 0.0, 0.0, 0.0, 0.0, 0.0, 1.739388555557224E9, 0.0, 2025-02-12 16:29:15.557
165.0, -5707.205022240284, -5526.334706107939, -5925.961545224374, -5930.275431904249, -44973.49798363423, -54040.46077018509, -85938.36706142033, -60897.05954755063, 0.06, 0.932, 0.35000000000000003, 192.0, 0.0, 0.0, 0.0, 0.0, 0.0, 0.0, 0.0, 0.0, 0.0, 1.7393885555572438E9, 0.0, 2025-02-12 16:29:15.557
166.0, -5586.192677759252, -5409.323323884407, -5950.816685058676, -5944.155865210994, -44978.32596043658, -54040.81839809637, -86003.27652731855, -60917.84666989406, 0.06, 0.9400000000000001, 0.342, 192.0, 1.0, 224.0, 29.0, 96.0, 10.0, 176.0, 0.0, 0.0, 0.0, 1.739388555557263E9, 0.0, 2025-02-12 16:29:15.557
167.0, -5745.046525603119, -5512.811900712479, -5933.98582148383, -5913.69043751841, -44976.537820880156, -53992.44922309509, -85966.37379722284, -60868.0693349921, 0.06, 0.9400000000000001, 0.342, 192.0, 0.0, 0.0, 0.0, 0.0, 0.0, 0.0, 0.0, 0.0, 0.0, 1.739388555557295E9, 0.0, 2025-02-12 16:29:15.557
168.0, -5883.78380343721, -5639.501588285159, -5904.928553691931, -5894.244419842294, -44971.151050466426, -53982.23447587901, -85908.46042733913, -60837.58155555506, 0.06, 0.9400000000000001, 0.342, 192.0, 0.0, 0.0, 0.0, 0.0, 0.0, 0.0, 0.0, 0.0, 0.0, 1.7393885555573142E9, 0.0, 2025-02-12 16:29:15.557
169.0, -5738.810388900089, -5547.032421473554, -5915.098597419095, -5919.41248409897, -44971.39691965544, -54024.23340371054, -85950.10172725937, -60879.088745008565, 0.06, 0.9400000000000001, 0.342, 192.0, 0.0, 0.0, 0.0, 0.0, 0.0, 0.0, 0.0, 0.0, 0.0, 1.7393885555573661E9, 0.0, 2025-02-12 16:29:15.557
170.0, -5580.783555601068, -5406.462300594128, -5945.161693711483, -5942.144208210017, -44978.504774392226, -54037.622098639265, -86028.71281250869, -60913.10810006954, 0.06, 0.9400000000000001, 0.342, 192.0, 0.0, 0.0, 0.0, 0.0, 0.0, 0.0, 0.0, 0.0, 0.0, 1.7393885555573857E9, 0.0, 2025-02-12 16:29:15.557
171.0, -5703.025246027141, -5477.049109583987, -5937.003306985296, -5918.138434665017, -44979.37649242598, -53993.27623763993, -86011.65843148928, -60872.56203562761, 0.06, 0.9400000000000001, 0.342, 192.0, 0.0, 0.0, 0.0, 0.0, 0.0, 0.0, 0.0, 0.0, 0.0, 1.7393885555574048E9, 0.0, 2025-02-12 16:29:15.557
172.0, -5872.384413765003, -5621.284916554084, -5902.492213546302, -5889.304684317671, -44970.79342255514, -53968.756373972465, -85944.71495684564, -60828.3055816061, 0.06, 0.9400000000000001, 0.342, 192.0, 0.0, 0.0, 0.0, 0.0, 0.0, 0.0, 0.0, 0.0, 0.0, 1.7393885555574236E9, 0.0, 2025-02-12 16:29:15.557
173.0, -5768.895836936932, -5564.667947848791, -5904.258001358271, -5907.878983960031, -44968.60295159852, -54005.524993601444, -85968.81013736846, -60859.62037558799, 0.06, 0.9400000000000001, 0.342, 192.0, 0.0, 0.0, 0.0, 0.0, 0.0, 0.0, 0.0, 0.0, 0.0, 1.739388555557443E9, 0.0, 2025-02-12 16:29:15.557
174.0, -5581.878791079377, -5407.535184327982, -5934.991649984318, -5935.639850573522, -44974.59321911255, -54028.86021481278, -86052.47271686468, -60902.37926273099, 0.06, 0.9400000000000001, 0.342, 192.0, 0.0, 0.0, 0.0, 0.0, 0.0, 0.0, 0.0, 0.0, 0.0, 1.7393885555574632E9, 0.0, 2025-02-12 16:29:15.557
175.0, -5659.416992594837, -5440.414600421739, -5935.5727953401565, -5919.50189107679, -44977.789518569654, -53991.35398761678, -86055.33374015495, -60873.500808894736, 0.06, 0.9400000000000001, 0.342, 192.0, 0.0, 0.0, 0.0, 0.0, 0.0, 0.0, 0.0, 0.0, 0.0, 1.7393885555574837E9, 0.0, 2025-02-12 16:29:15.557
176.0, -5854.882997856498, -5599.044930821054, -5903.967428680352, -5889.2599808287605, -44972.38039641147, -53960.218007590534, -85988.01028585558, -60824.46108155979, 0.062, 0.934, 0.34, 192.0, 1.0, 240.0, 29.0, 48.0, 10.0, 160.0, 0.0, 0.0, 0.0, 1.7393885555575042E9, 0.0, 2025-02-12 16:29:15.557
177.0, -5801.350569886037, -5584.270427736095, -5898.73712047781, -5901.285219345716, -44969.02763474317, -53991.2422288945, -85991.96654462416, -60844.957631225305, 0.062, 0.934, 0.34, 192.0, 0.0, 0.0, 0.0, 0.0, 0.0, 0.0, 0.0, 0.0, 0.0, 1.7393885555575244E9, 0.0, 2025-02-12 16:29:15.557
178.0, -5598.866116865411, -5422.533204857494, -5929.493120848313, -5933.382324383536, -44974.615570857, -54024.546328132914, -86074.04215026405, -60894.95848357183, 0.062, 0.934, 0.34, 192.0, 0.0, 0.0, 0.0, 0.0, 0.0, 0.0, 0.0, 0.0, 0.0, 1.7393885555575435E9, 0.0, 2025-02-12 16:29:15.557
179.0, -5625.799968934056, -5414.64303906477, -5937.226824429849, -5924.285164390227, -44977.54364938065, -53994.81850800735, -86092.43763595077, -60877.92645429689, 0.062, 0.934, 0.34, 192.0, 0.0, 0.0, 0.0, 0.0, 0.0, 0.0, 0.0, 0.0, 0.0, 1.7393885555575728E9, 0.0, 2025-02-12 16:29:15.557
180.0, -5829.692581855367, -5572.2898927080505, -5904.682684502922, -5888.723538961833, -44969.5640766101, -53953.668946465135, -86022.00728917209, -60821.533003036144, 0.062, 0.934, 0.34, 192.0, 0.0, 0.0, 0.0, 0.0, 0.0, 0.0, 0.0, 0.0, 0.0, 1.739388555557593E9, 0.0, 2025-02-12 16:29:15.557
181.0, -5827.546814387658, -5598.016750576109, -5890.6681407294445, -5891.651617485478, -44963.21618118479, -53975.08191765332, -86003.4553412742, -60827.92560195037, 0.062, 0.934, 0.34, 192.0, 0.0, 0.0, 0.0, 0.0, 0.0, 0.0, 0.0, 0.0, 0.0, 1.739388555557613E9, 0.0, 2025-02-12 16:29:15.557
182.0, -5621.061399109531, -5440.548710888471, -5917.98197245383, -5924.508681834779, -44966.256018430715, -54014.756264061485, -86077.12669099888, -60880.36279444252, 0.062, 0.934, 0.34, 192.0, 0.0, 0.0, 0.0, 0.0, 0.0, 0.0, 0.0, 0.0, 0.0, 1.7393885555576339E9, 0.0, 2025-02-12 16:29:15.557
183.0, -5596.161555786319, -5393.230067876586, -5932.644716816511, -5923.301687634193, -44969.20644869882, -53995.042025451905, -86108.93322335878, -60876.47359090729, 0.062, 0.934, 0.34, 192.0, 0.0, 0.0, 0.0, 0.0, 0.0, 0.0, 0.0, 0.0, 0.0, 1.7393885555576544E9, 0.0, 2025-02-12 16:29:15.557
184.0, -5801.5070320972245, -5546.38422088435, -5907.275486859738, -5890.601085496079, -44964.646692829934, -53952.57371098682, -86043.42026036028, -60822.20355536981, 0.062, 0.934, 0.34, 192.0, 0.0, 0.0, 0.0, 0.0, 0.0, 0.0, 0.0, 0.0, 0.0, 1.7393885555576844E9, 0.0, 2025-02-12 16:29:15.557
185.0, -5856.089992057085, -5616.479291496193, -5890.623437240534, -5888.92470466193, -44959.63990207195, -53967.862304194256, -86006.2046058422, -60818.62727625696, 0.062, 0.934, 0.34, 192.0, 0.0, 0.0, 0.0, 0.0, 0.0, 0.0, 0.0, 0.0, 0.0, 1.739388555557704E9, 0.0, 2025-02-12 16:29:15.557
186.0, -5661.2721873846285, -5475.350377005384, -5915.188004396917, -5922.5417283227125, -44962.09859396203, -54013.146938460704, -86068.27540019457, -60871.98089027177, 0.064, 0.9400000000000001, 0.34, 192.0, 2.0, 0.0, 29.0, 96.0, 10.0, 160.0, 0.0, 0.0, 0.0, 1.7393885555577257E9, 0.0, 2025-02-12 16:29:15.557
187.0, -5587.846706848944, -5393.185364387675, -5938.0985424636065, -5931.415370871469, -44967.70888182031, -54006.41906337965, -86115.12465657291, -60883.559093899625, 0.064, 0.9400000000000001, 0.34, 192.0, 0.0, 0.0, 0.0, 0.0, 0.0, 0.0, 0.0, 0.0, 0.0, 1.7393885555577576E9, 0.0, 2025-02-12 16:29:15.557
188.0, -5779.043528919641, -5529.620412542869, -5919.881870732531, -5901.955771679374, -44966.14425970844, -53962.96727215854, -86059.98290300166, -60832.84298573053, 0.064, 0.9400000000000001, 0.34, 192.0, 0.0, 0.0, 0.0, 0.0, 0.0, 0.0, 0.0, 0.0, 0.0, 1.739388555557781E9, 0.0, 2025-02-12 16:29:15.557
189.0, -5881.6380359695, -5634.092466126975, -5897.105443132573, -5891.182230851917, -44959.4610881163, -53965.85064719328, -86005.46699827517, -60815.118052377475, 0.064, 0.9400000000000001, 0.34, 192.0, 0.0, 0.0, 0.0, 0.0, 0.0, 0.0, 0.0, 0.0, 0.0, 1.7393885555577996E9, 0.0, 2025-02-12 16:29:15.557
190.0, -5708.166147251863, -5515.739979236124, -5915.120949163551, -5921.446492844402, -44959.4610881163, -54011.470557626555, -86052.96445524269, -60864.113076223504, 0.064, 0.9400000000000001, 0.34, 192.0, 0.0, 0.0, 0.0, 0.0, 0.0, 0.0, 0.0, 0.0, 0.0, 1.7393885555578198E9, 0.0, 2025-02-12 16:29:15.557
191.0, -5586.617360903902, -5399.4215010907055, -5941.026620987252, -5936.377458140548, -44963.68556781836, -54014.64450533921, -86111.10134257095, -60886.80009684564, 0.064, 0.9400000000000001, 0.34, 192.0, 0.0, 0.0, 0.0, 0.0, 0.0, 0.0, 0.0, 0.0, 0.0, 1.7393885555578349E9, 0.0, 2025-02-12 16:29:15.557
192.0, -5746.99112737073, -5505.167604108764, -5926.810911513676, -5908.035446171218, -44962.18800093985, -53969.20340886157, -86069.25887695061, -60839.48145383376, 0.064, 0.9400000000000001, 0.34, 192.0, 0.0, 0.0, 0.0, 0.0, 0.0, 0.0, 0.0, 0.0, 0.0, 1.7393885555578496E9, 0.0, 2025-02-12 16:29:15.557
193.0, -5890.064643629151, -5636.104123127952, -5898.580658266623, -5888.6117802395565, -44954.74487003623, -53959.25688257896, -86003.41063778527, -60808.41252904088, 0.064, 0.9400000000000001, 0.34, 192.0, 0.0, 0.0, 0.0, 0.0, 0.0, 0.0, 0.0, 0.0, 0.0, 1.7393885555578644E9, 0.0, 2025-02-12 16:29:15.557
194.0, -5750.343889039027, -5549.535816852548, -5910.382379339026, -5915.255059630283, -44954.36489038049, -54004.25094416749, -86036.87119923487, -60851.70785805081, 0.064, 0.9400000000000001, 0.34, 192.0, 0.0, 0.0, 0.0, 0.0, 0.0, 0.0, 0.0, 0.0, 0.0, 1.7393885555578876E9, 0.0, 2025-02-12 16:29:15.557
195.0, -5589.634846405369, -5408.026922705999, -5938.210301185883, -5936.176292440449, -44957.874114259976, -54018.22078445206, -86104.10524655644, -60885.39193694496, 0.064, 0.9400000000000001, 0.34, 192.0, 0.0, 0.0, 0.0, 0.0, 0.0, 0.0, 0.0, 0.0, 0.0, 1.7393885555579245E9, 0.0, 2025-02-12 16:29:15.557
196.0, -5711.004818797686, -5478.725490418135, -5930.275431904249, -5912.349332851092, -44957.3600241375, -53975.48424905351, -86079.16069974432, -60846.030514959166, 0.06, 0.934, 0.34, 192.0, 1.0, 224.0, 29.0, 48.0, 10.0, 160.0, 0.0, 0.0, 0.0, 1.7393885555579424E9, 0.0, 2025-02-12 16:29:15.557
197.0, -5886.711881960855, -5629.1080271134415, -5899.40767281147, -5886.555419749668, -44950.05100370062, -53954.47360926552, -86006.62928898685, -60804.61273248348, 0.06, 0.934, 0.34, 192.0, 0.0, 0.0, 0.0, 0.0, 0.0, 0.0, 0.0, 0.0, 0.0, 1.7393885555579612E9, 0.0, 2025-02-12 16:29:15.557
198.0, -5787.134860412462, -5576.849648576934, -5901.106405390073, -5904.950905436386, -44946.27355888767, -53992.60568530628, -86021.31438509398, -60836.12869216546, 0.06, 0.934, 0.34, 192.0, 0.0, 0.0, 0.0, 0.0, 0.0, 0.0, 0.0, 0.0, 0.0, 1.7393885555579789E9, 0.0, 2025-02-12 16:29:15.557
199.0, -5601.101291310942, -5422.421446135217, -5933.158806938984, -5934.298745906204, -44952.93437873535, -54019.96422051957, -86098.7184761427, -60882.173285743396, 0.06, 0.934, 0.34, 192.0, 0.0, 0.0, 0.0, 0.0, 0.0, 0.0, 0.0, 0.0, 0.0, 1.7393885555579965E9, 0.0, 2025-02-12 16:29:15.557
200.0, -5676.583132336514, -5454.563254661948, -5933.605841828089, -5918.02667594274, -44954.8119252696, -53983.843801479794, -86095.05279005204, -60854.32301215208, 0.06, 0.934, 0.34, 192.0, 0.0, 0.0, 0.0, 0.0, 0.0, 0.0, 0.0, 0.0, 0.0, 1.7393885555580204E9, 0.0, 2025-02-12 16:29:15.558
201.0, -5874.172553321428, -5615.54051822907, -5902.112233890562, -5887.762413950255, -44948.10640193301, -53953.15485634266, -86022.02964091655, -60805.28328481714, 0.06, 0.934, 0.34, 192.0, 0.0, 0.0, 0.0, 0.0, 0.0, 0.0, 0.0, 0.0, 0.0, 1.7393885555580387E9, 0.0, 2025-02-12 16:29:15.558
202.0, -5825.043419008663, -5605.281067524084, -5897.664236743955, -5900.681722245422, -44944.95480596481, -53985.92251371414, -86021.78377172754, -60826.98682868324, 0.06, 0.934, 0.34, 192.0, 0.0, 0.0, 0.0, 0.0, 0.0, 0.0, 0.0, 0.0, 0.0, 1.7393885555580592E9, 0.0, 2025-02-12 16:29:15.558
203.0, -5619.832053164489, -5442.113333000342, -5926.02860045774, -5930.834225515631, -44948.32991937756, -54019.00309550799, -86098.83023486499, -60876.5182943962, 0.06, 0.934, 0.34, 192.0, 0.0, 0.0, 0.0, 0.0, 0.0, 0.0, 0.0, 0.0, 0.0, 1.7393885555580769E9, 0.0, 2025-02-12 16:29:15.558
204.0, -5644.240158109684, -5433.016173007032, -5934.186987183927, -5922.497024833801, -44951.861495001496, -53991.130470172226, -86116.10813332893, -60861.43086688887, 0.06, 0.934, 0.34, 192.0, 0.0, 0.0, 0.0, 0.0, 0.0, 0.0, 0.0, 0.0, 0.0, 1.739388555558096E9, 0.0, 2025-02-12 16:29:15.558
205.0, -5852.558416433146, -5595.379244730383, -5905.6438095145, -5890.936361662908, -44947.391146110436, -53954.004222631964, -86047.80120227352, -60809.19484009682, 0.06, 0.934, 0.34, 192.0, 0.0, 0.0, 0.0, 0.0, 0.0, 0.0, 0.0, 0.0, 0.0, 1.739388555558114E9, 0.0, 2025-02-12 16:29:15.558
206.0, -5856.648785668467, -5627.297535812561, -5894.512640775757, -5896.88192568802, -44943.63605304195, -53978.479382810525, -86030.63506253184, -60818.58257276804, 0.058, 0.9400000000000001, 0.342, 192.0, 1.0, 208.0, 29.0, 96.0, 10.0, 176.0, 0.0, 0.0, 0.0, 1.7393885555581324E9, 0.0, 2025-02-12 16:29:15.558
207.0, -5649.559873290047, -5469.963606591655, -5921.222975399849, -5929.694286548411, -44946.6088350545, -54019.04779899691, -86104.35111574545, -60872.092648994054, 0.058, 0.9400000000000001, 0.342, 192.0, 0.0, 0.0, 0.0, 0.0, 0.0, 0.0, 0.0, 0.0, 0.0, 1.7393885555581548E9, 0.0, 2025-02-12 16:29:15.558
208.0, -5619.16150083083, -5418.174614688709, -5934.008173228285, -5927.302649891692, -44948.486381588744, -53998.57360107584, -86136.80584869455, -60868.0693349921, 0.058, 0.9400000000000001, 0.342, 192.0, 0.0, 0.0, 0.0, 0.0, 0.0, 0.0, 0.0, 0.0, 0.0, 1.7393885555581715E9, 0.0, 2025-02-12 16:29:15.558
209.0, -5822.763541074221, -5569.808849073512, -5907.990742682307, -5894.177364608928, -44944.016032697684, -53955.412382532646, -86073.75157758612, -60813.48637503223, 0.058, 0.9400000000000001, 0.342, 192.0, 0.0, 0.0, 0.0, 0.0, 0.0, 0.0, 0.0, 0.0, 0.0, 1.739388555558193E9, 0.0, 2025-02-12 16:29:15.558
210.0, -5877.324149289626, -5639.3227743295165, -5888.477669772825, -5889.952884906875, -44937.377564594455, -53967.839952449795, -86036.46886783467, -60807.51845926267, 0.058, 0.9400000000000001, 0.342, 192.0, 0.0, 0.0, 0.0, 0.0, 0.0, 0.0, 0.0, 0.0, 0.0, 1.7393885555582078E9, 0.0, 2025-02-12 16:29:15.558
211.0, -5681.522867861137, -5497.769176694057, -5911.298800861693, -5922.74289402281, -44939.545683806624, -54012.85636578278, -86100.01487732111, -60860.961480255304, 0.058, 0.9400000000000001, 0.342, 192.0, 0.0, 0.0, 0.0, 0.0, 0.0, 0.0, 0.0, 0.0, 0.0, 1.7393885555582242E9, 0.0, 2025-02-12 16:29:15.558
212.0, -5604.789329146067, -5413.2125274196305, -5934.432856372936, -5932.532958094234, -44946.29591063213, -54007.894278513704, -86151.35683433496, -60874.64074786196, 0.058, 0.9400000000000001, 0.342, 192.0, 0.0, 0.0, 0.0, 0.0, 0.0, 0.0, 0.0, 0.0, 0.0, 1.7393885555582392E9, 0.0, 2025-02-12 16:29:15.558
213.0, -5791.225229647784, -5544.9090057503, -5913.198699140394, -5900.435853056414, -44942.786686752646, -53961.9390919136, -86097.73499938668, -60821.86827920297, 0.058, 0.9400000000000001, 0.342, 192.0, 0.0, 0.0, 0.0, 0.0, 0.0, 0.0, 0.0, 0.0, 0.0, 1.7393885555582545E9, 0.0, 2025-02-12 16:29:15.558
214.0, -5893.640922742, -5648.531693045104, -5887.471841272336, -5887.248323827783, -44934.67300351537, -53962.14025761369, -86043.9119987383, -60801.7517091932, 0.058, 0.9400000000000001, 0.342, 192.0, 0.0, 0.0, 0.0, 0.0, 0.0, 0.0, 0.0, 0.0, 0.0, 1.7393885555582695E9, 0.0, 2025-02-12 16:29:15.558
215.0, -5722.247746258706, -5532.52613932206, -5906.068492659151, -5918.920745720952, -44936.818770983075, -54009.57065934785, -86095.38806621886, -60852.579576084565, 0.058, 0.9400000000000001, 0.342, 192.0, 0.0, 0.0, 0.0, 0.0, 0.0, 0.0, 0.0, 0.0, 0.0, 1.7393885555582943E9, 0.0, 2025-02-12 16:29:15.558
216.0, -5597.145032542352, -5413.905431497745, -5931.415370871469, -5934.03052497274, -44941.19971289632, -54013.705732072085, -86156.67654951532, -60876.562997885114, 0.058, 0.9380000000000001, 0.34600000000000003, 192.0, 1.0, 208.0, 29.0, 80.0, 10.0, 208.0, 0.0, 0.0, 0.0, 1.7393885555583093E9, 0.0, 2025-02-12 16:29:15.558
217.0, -5754.702479207812, -5517.237546114629, -5916.037370686218, -5904.906201947475, -44938.47280007277, -53967.72819372752, -86116.26459554012, -60828.93143045085, 0.058, 0.9380000000000001, 0.34600000000000003, 192.0, 0.0, 0.0, 0.0, 0.0, 0.0, 0.0, 0.0, 0.0, 0.0, 1.7393885555583253E9, 0.0, 2025-02-12 16:29:15.558
218.0, -5899.83235595612, -5649.649280267869, -5886.868344172042, -5884.87903891552, -44930.49322730222, -53957.088763366795, -86050.50576335262, -60797.23665681323, 0.058, 0.9380000000000001, 0.34600000000000003, 192.0, 0.0, 0.0, 0.0, 0.0, 0.0, 0.0, 0.0, 0.0, 0.0, 1.7393885555583405E9, 0.0, 2025-02-12 16:29:15.558
219.0, -5761.0056711442085, -5563.706822837213, -5896.926629176931, -5910.248268872294, -44929.353288335005, -54000.96523773256, -86083.04990327953, -60839.34734336702, 0.058, 0.9380000000000001, 0.34600000000000003, 192.0, 0.0, 0.0, 0.0, 0.0, 0.0, 0.0, 0.0, 0.0, 0.0, 1.7393885555583556E9, 0.0, 2025-02-12 16:29:15.558
220.0, -5599.715483154712, -5422.175576946209, -5926.766208024766, -5933.359972639081, -44935.05298317111, -54017.751397818494, -86153.77082273613, -60875.69127985136, 0.058, 0.9380000000000001, 0.34600000000000003, 192.0, 0.0, 0.0, 0.0, 0.0, 0.0, 0.0, 0.0, 0.0, 0.0, 1.7393885555583713E9, 0.0, 2025-02-12 16:29:15.558
221.0, -5720.146682279907, -5492.538868491515, -5920.463016088369, -5911.187042139416, -44935.52236980467, -53976.82535372083, -86130.97204339171, -60838.14034916644, 0.058, 0.9380000000000001, 0.34600000000000003, 192.0, 0.0, 0.0, 0.0, 0.0, 0.0, 0.0, 0.0, 0.0, 0.0, 1.739388555558386E9, 0.0, 2025-02-12 16:29:15.558
222.0, -5898.64771349999, -5645.491855799181, -5889.707015717866, -5885.482536015813, -44928.10159064551, -53955.92647265512, -86057.16658320029, -60796.78962192412, 0.058, 0.9380000000000001, 0.34600000000000003, 192.0, 0.0, 0.0, 0.0, 0.0, 0.0, 0.0, 0.0, 0.0, 0.0, 1.739388555558402E9, 0.0, 2025-02-12 16:29:15.558
223.0, -5804.301000154138, -5598.307323254028, -5893.283294830715, -5905.7555682367765, -44926.22404411126, -53996.2937231414, -86071.4716996517, -60830.294886862626, 0.058, 0.9380000000000001, 0.34600000000000003, 192.0, 0.0, 0.0, 0.0, 0.0, 0.0, 0.0, 0.0, 0.0, 0.0, 1.7393885555584176E9, 0.0, 2025-02-12 16:29:15.558
0.0, 0.0, 0.0, 0.0, 0.0, 0.0, 0.0, 0.0, 0.0, 0.064, 0.934, 0.34400000000000003, 192.0, 2.0, 0.0, 29.0, 48.0, 10.0, 192.0, 0.0, 0.0, 0.0, 1.739388555629758E9, 0.0, 2025-02-12 16:29:15.629
1.0, -5684.093318473497, -5498.730301705636, -5922.02763820024, -5929.001382470296, -44497.89756511421, -53901.05294001734, -87269.3463885005, -60596.18271543774, 0.064, 0.934, 0.34400000000000003, 192.0, 0.0, 0.0, 0.0, 0.0, 0.0, 0.0, 0.0, 0.0, 0.0, 1.739388556114173E9, 0.0, 2025-02-12 16:29:16.114
2.0, -5822.316506185116, -5583.733985869168, -5907.588411282112, -5901.21816411235, -44499.1045593148, -53857.42233484058, -87239.66327186386, -60554.0943806284, 0.064, 0.934, 0.34400000000000003, 192.0, 0.0, 0.0, 0.0, 0.0, 0.0, 0.0, 0.0, 0.0, 0.0, 1.739388556114215E9, 0.0, 2025-02-12 16:29:16.114
3.0, -5982.310292996203, -5725.019362571164, -5874.731346932811, -5877.301797545171, -44491.773187133454, -53839.138607876135, -87176.8772216889, -60515.694083654176, 0.064, 0.934, 0.34400000000000003, 192.0, 0.0, 0.0, 0.0, 0.0, 0.0, 0.0, 0.0, 0.0, 0.0, 1.739388556114248E9, 0.0, 2025-02-12 16:29:16.114
4.0, -5861.7896868931875, -5654.521960559126, -5883.78380343721, -5900.4135013119585, -44488.17455627615, -53877.80712578382, -87203.16287316834, -60550.49574977109, 0.064, 0.934, 0.34400000000000003, 192.0, 0.0, 0.0, 0.0, 0.0, 0.0, 0.0, 0.0, 0.0, 0.0, 1.739388556114267E9, 0.0, 2025-02-12 16:29:16.114
5.0, -5685.188553951807, -5502.0830633739315, -5917.870213731553, -5927.056780702685, -44494.924783101655, -53899.37655918319, -87275.82839439255, -60592.09234620242, 0.064, 0.934, 0.34400000000000003, 192.0, 0.0, 0.0, 0.0, 0.0, 0.0, 0.0, 0.0, 0.0, 0.0, 1.7393885561142864E9, 0.0, 2025-02-12 16:29:16.114
6.0, -5779.848191720032, -5548.95467149671, -5911.3882078395145, -5905.152071136484, -44497.584640691835, -53860.193951153036, -87264.47370820925, -60559.816427208956, 0.064, 0.934, 0.34400000000000003, 192.0, 0.0, 0.0, 0.0, 0.0, 0.0, 0.0, 0.0, 0.0, 0.0, 1.7393885561143043E9, 0.0, 2025-02-12 16:29:16.114
7.0, -5967.602845144612, -5706.378007695438, -5877.324149289626, -5876.251265555771, -44491.97435283355, -53833.26009908439, -87198.7819312551, -60514.10710979785, 0.064, 0.934, 0.34400000000000003, 192.0, 0.0, 0.0, 0.0, 0.0, 0.0, 0.0, 0.0, 0.0, 0.0, 1.7393885561143613E9, 0.0, 2025-02-12 16:29:16.114
8.0, -5894.289123331204, -5676.31491140305, -5878.620550468034, -5892.92566691943, -44487.48165219804, -53865.89364598914, -87208.59434707098, -60538.11288334285, 0.062, 0.9460000000000001, 0.34400000000000003, 192.0, 1.0, 240.0, 29.0, 144.0, 10.0, 192.0, 0.0, 0.0, 0.0, 1.7393885561143792E9, 0.0, 2025-02-12 16:29:16.114
9.0, -5694.866859300954, -5512.253107101096, -5912.192870639905, -5922.74289402281, -44491.25909701098, -53894.235657958474, -87282.33275202903, -60584.492753087616, 0.062, 0.9460000000000001, 0.34400000000000003, 192.0, 0.0, 0.0, 0.0, 0.0, 0.0, 0.0, 0.0, 0.0, 0.0, 1.739388556114399E9, 0.0, 2025-02-12 16:29:16.114
10.0, -5740.41971450087, -5517.9975054261095, -5914.986838696818, -5909.331847349626, -44496.109425557785, -53862.89851223213, -87290.4017317774, -60564.912624944765, 0.062, 0.9460000000000001, 0.34400000000000003, 192.0, 0.0, 0.0, 0.0, 0.0, 0.0, 0.0, 0.0, 0.0, 0.0, 1.7393885561144173E9, 0.0, 2025-02-12 16:29:16.114
11.0, -5941.428952387447, -5677.7901265371, -5879.760489435254, -5876.005396366763, -44491.59437317782, -53827.672162970564, -87225.49226587919, -60513.63772316429, 0.062, 0.9460000000000001, 0.34400000000000003, 192.0, 0.0, 0.0, 0.0, 0.0, 0.0, 0.0, 0.0, 0.0, 0.0, 1.7393885561144352E9, 0.0, 2025-02-12 16:29:16.114
12.0, -5920.17244341045, -5689.882420287421, -5872.831448654109, -5885.259018571261, -44486.811099864375, -53852.639061527145, -87218.7867425426, -60525.52885121451, 0.062, 0.9460000000000001, 0.34400000000000003, 192.0, 0.0, 0.0, 0.0, 0.0, 0.0, 0.0, 0.0, 0.0, 0.0, 1.7393885561144536E9, 0.0, 2025-02-12 16:29:16.114
13.0, -5715.765740366667, -5529.866281731878, -5908.258963615771, -5919.881870732531, -44490.9014690997, -53888.17833521108, -87292.59220273403, -60576.22260763915, 0.062, 0.9460000000000001, 0.34400000000000003, 192.0, 0.0, 0.0, 0.0, 0.0, 0.0, 0.0, 0.0, 0.0, 0.0, 1.7393885561144717E9, 0.0, 2025-02-12 16:29:16.114
14.0, -5710.848356586499, -5496.316313304462, -5921.580603311134, -5916.2608881307715, -44498.12108255876, -53867.05593670082, -87320.91186295889, -60570.925244203245, 0.062, 0.9460000000000001, 0.34400000000000003, 192.0, 0.0, 0.0, 0.0, 0.0, 0.0, 0.0, 0.0, 0.0, 0.0, 1.7393885561144893E9, 0.0, 2025-02-12 16:29:16.114
15.0, -5909.845937472098, -5646.810608722045, -5885.638998227, -5879.626378968523, -44493.42721622315, -53826.621630981164, -87260.2939319961, -60517.705740655154, 0.062, 0.9460000000000001, 0.34400000000000003, 192.0, 0.0, 0.0, 0.0, 0.0, 0.0, 0.0, 0.0, 0.0, 0.0, 1.739388556114507E9, 0.0, 2025-02-12 16:29:16.114
16.0, -5938.41146688598, -5696.811461068566, -5868.226989296316, -5879.2240475683275, -44486.878155097744, -53841.440837555034, -87236.4893241512, -60515.87289760982, 0.062, 0.9460000000000001, 0.34400000000000003, 192.0, 0.0, 0.0, 0.0, 0.0, 0.0, 0.0, 0.0, 0.0, 0.0, 1.7393885561145358E9, 0.0, 2025-02-12 16:29:16.114
17.0, -5738.475112733258, -5546.786552284545, -5899.318265833648, -5912.394036340003, -44487.52635568695, -53877.248332172436, -87302.02463889416, -60563.28094759953, 0.062, 0.9460000000000001, 0.34400000000000003, 192.0, 0.0, 0.0, 0.0, 0.0, 0.0, 0.0, 0.0, 0.0, 0.0, 1.7393885561145542E9, 0.0, 2025-02-12 16:29:16.114
18.0, -5682.6404550839015, -5474.769231649546, -5921.044161444207, -5916.774978253243, -44493.96365809008, -53863.814933754795, -87345.5211336042, -60569.02534592454, 0.062, 0.9400000000000001, 0.338, 192.0, 1.0, 240.0, 29.0, 96.0, 10.0, 144.0, 0.0, 0.0, 0.0, 1.739388556114572E9, 0.0, 2025-02-12 16:29:16.114
19.0, -5870.037480597196, -5609.416140248316, -5889.774070951232, -5881.5709807361345, -44491.504966199995, -53822.307744301295, -87295.16265334639, -60519.00214183357, 0.062, 0.9400000000000001, 0.338, 192.0, 0.0, 0.0, 0.0, 0.0, 0.0, 0.0, 0.0, 0.0, 0.0, 1.7393885561145911E9, 0.0, 2025-02-12 16:29:16.114
20.0, -5946.301632678704, -5694.196306967296, -5862.884922371498, -5872.227951553817, -44484.151242274194, -53828.298011815314, -87257.27644649464, -60505.613446904834, 0.062, 0.9400000000000001, 0.338, 192.0, 0.0, 0.0, 0.0, 0.0, 0.0, 0.0, 0.0, 0.0, 0.0, 1.7393885561146092E9, 0.0, 2025-02-12 16:29:16.114
21.0, -5765.453668290815, -5565.919645538288, -5889.371739551037, -5904.570925780646, -44484.151242274194, -53866.11716343369, -87313.91576694438, -60550.20517709317, 0.062, 0.9400000000000001, 0.338, 192.0, 0.0, 0.0, 0.0, 0.0, 0.0, 0.0, 0.0, 0.0, 0.0, 1.7393885561146271E9, 0.0, 2025-02-12 16:29:16.114
22.0, -5665.139039175397, -5462.565179176949, -5920.463016088369, -5918.808986998676, -44492.17551853365, -53862.60793955421, -87372.5220409062, -60567.95246219069, 0.062, 0.9400000000000001, 0.338, 192.0, 0.0, 0.0, 0.0, 0.0, 0.0, 0.0, 0.0, 0.0, 0.0, 1.7393885561146507E9, 0.0, 2025-02-12 16:29:16.114
23.0, -5829.20084347735, -5572.58046538597, -5896.144318120995, -5886.376605794026, -44491.46026271108, -53820.16197683358, -87334.50172358773, -60522.198441290675, 0.062, 0.9400000000000001, 0.338, 192.0, 0.0, 0.0, 0.0, 0.0, 0.0, 0.0, 0.0, 0.0, 0.0, 1.7393885561146688E9, 0.0, 2025-02-12 16:29:16.114
24.0, -5947.218054201371, -5685.859106285466, -5860.448582225869, -5866.796477651176, -44482.22899225104, -53815.19988956451, -87282.28804854013, -60496.27041772252, 0.062, 0.9400000000000001, 0.338, 192.0, 0.0, 0.0, 0.0, 0.0, 0.0, 0.0, 0.0, 0.0, 0.0, 1.7393885561146865E9, 0.0, 2025-02-12 16:29:16.114
25.0, -5795.67322679439, -5586.639712648358, -5879.6934342018885, -5896.233725098816, -44480.7984806059, -53854.13662840565, -87324.73401126075, -60536.592964719894, 0.062, 0.9400000000000001, 0.338, 192.0, 0.0, 0.0, 0.0, 0.0, 0.0, 0.0, 0.0, 0.0, 0.0, 1.7393885561147041E9, 0.0, 2025-02-12 16:29:16.114
26.0, -5653.694946014279, -5455.166751762242, -5914.472748574347, -5916.305591619682, -44485.648809152706, -53858.718736018986, -87390.00110507025, -60562.58804352141, 0.062, 0.9400000000000001, 0.338, 192.0, 0.0, 0.0, 0.0, 0.0, 0.0, 0.0, 0.0, 0.0, 0.0, 1.739388556114722E9, 0.0, 2025-02-12 16:29:16.114
27.0, -5783.871505721987, -5533.263746889084, -5897.887754188509, -5887.807117439165, -44485.60410566379, -53816.563345976276, -87365.63770361396, -60522.466662224135, 0.062, 0.9400000000000001, 0.338, 192.0, 0.0, 0.0, 0.0, 0.0, 0.0, 0.0, 0.0, 0.0, 0.0, 1.7393885561147397E9, 0.0, 2025-02-12 16:29:16.114
28.0, -5938.500873863802, -5670.0787747000195, -5858.772201391721, -5862.080259571107, -44478.27273348245, -53802.861726625175, -87306.1597116184, -60487.88851355178, 0.058, 0.934, 0.336, 192.0, 1.0, 208.0, 29.0, 48.0, 10.0, 128.0, 0.0, 0.0, 0.0, 1.7393885561147573E9, 0.0, 2025-02-12 16:29:16.114
29.0, -5824.976363775297, -5605.72810241319, -5868.294044529682, -5885.482536015813, -44474.98702704752, -53839.96562242098, -87330.97014796379, -60520.6338191788, 0.058, 0.934, 0.336, 192.0, 0.0, 0.0, 0.0, 0.0, 0.0, 0.0, 0.0, 0.0, 0.0, 1.7393885561147764E9, 0.0, 2025-02-12 16:29:16.114
30.0, -5654.7007745147675, -5459.2347692531075, -5907.878983960031, -5913.6233822850445, -44479.88205908323, -53856.215340639996, -87401.132273809, -60557.0448108965, 0.058, 0.934, 0.336, 192.0, 0.0, 0.0, 0.0, 0.0, 0.0, 0.0, 0.0, 0.0, 0.0, 1.7393885561147935E9, 0.0, 2025-02-12 16:29:16.114
31.0, -5746.633499459445, -5504.452348286194, -5904.459167058369, -5894.870268687042, -44483.97242831856, -53820.60901172269, -87394.76202663923, -60528.769854160535, 0.058, 0.934, 0.336, 192.0, 0.0, 0.0, 0.0, 0.0, 0.0, 0.0, 0.0, 0.0, 0.0, 1.7393885561148112E9, 0.0, 2025-02-12 16:29:16.114
32.0, -5926.833263258131, -5654.566664048036, -5863.466067727336, -5863.913102616442, -44478.071567782354, -53798.257267267385, -87331.64070029744, -60487.19560947366, 0.058, 0.934, 0.336, 192.0, 0.0, 0.0, 0.0, 0.0, 0.0, 0.0, 0.0, 0.0, 0.0, 1.739388556114842E9, 0.0, 2025-02-12 16:29:16.114
33.0, -5857.431096724403, -5627.476349768204, -5862.192018293384, -5879.469916757335, -44473.690625869116, -53830.08615137174, -87339.79908702364, -60509.614409162336, 0.058, 0.934, 0.336, 192.0, 0.0, 0.0, 0.0, 0.0, 0.0, 0.0, 0.0, 0.0, 0.0, 1.7393885561148596E9, 0.0, 2025-02-12 16:29:16.114
34.0, -5665.966053720243, -5471.014138581055, -5901.486385045813, -5911.07528341714, -44476.70811137058, -53853.331965605255, -87411.50348323626, -60550.96513640465, 0.058, 0.934, 0.336, 192.0, 0.0, 0.0, 0.0, 0.0, 0.0, 0.0, 0.0, 0.0, 0.0, 1.7393885561148777E9, 0.0, 2025-02-12 16:29:16.114
35.0, -5709.775472852644, -5476.490315972605, -5907.521356048746, -5899.117100133551, -44480.48555618353, -53822.03952336783, -87421.07002986313, -60531.787339662, 0.058, 0.934, 0.336, 192.0, 0.0, 0.0, 0.0, 0.0, 0.0, 0.0, 0.0, 0.0, 0.0, 1.7393885561148992E9, 0.0, 2025-02-12 16:29:16.114
36.0, -5903.878021702531, -5630.650297480857, -5867.176457306917, -5864.583654950101, -44475.81404159237, -53792.42346196455, -87358.35103492154, -60485.698042595155, 0.058, 0.934, 0.336, 192.0, 0.0, 0.0, 0.0, 0.0, 0.0, 0.0, 0.0, 0.0, 0.0, 1.7393885561149168E9, 0.0, 2025-02-12 16:29:16.114
37.0, -5883.850858670576, -5643.234329609195, -5856.067640312629, -5872.339710276093, -44471.05312002339, -53818.798520421806, -87350.12559296198, -60498.013853790035, 0.058, 0.934, 0.336, 192.0, 0.0, 0.0, 0.0, 0.0, 0.0, 0.0, 0.0, 0.0, 0.0, 1.7393885561149344E9, 0.0, 2025-02-12 16:29:16.114
38.0, -5684.026263240131, -5487.04033935551, -5892.970370408341, -5905.733216492322, -44472.17070724615, -53847.69932600252, -87418.72309669532, -60541.80092117798, 0.066, 0.9380000000000001, 0.34, 192.0, 2.0, 16.0, 29.0, 80.0, 10.0, 160.0, 0.0, 0.0, 0.0, 1.739388556114958E9, 0.0, 2025-02-12 16:29:16.114
39.0, -5677.052518970075, -5452.104562771865, -5908.2813153602265, -5901.732254234821, -44475.90344857019, -53822.24068906793, -87444.44995456337, -60532.59200246239, 0.066, 0.9380000000000001, 0.34, 192.0, 0.0, 0.0, 0.0, 0.0, 0.0, 0.0, 0.0, 0.0, 0.0, 1.739388556114977E9, 0.0, 2025-02-12 16:29:16.114
40.0, -5871.669157942433, -5599.022579076598, -5870.5962742085785, -5865.20950379485, -44472.37187294625, -53785.941456072505, -87386.80480561314, -60483.753440827546, 0.066, 0.9380000000000001, 0.34, 192.0, 0.0, 0.0, 0.0, 0.0, 0.0, 0.0, 0.0, 0.0, 0.0, 1.7393885561149943E9, 0.0, 2025-02-12 16:29:16.114
41.0, -5899.966466422852, -5648.64345176738, -5848.333936731093, -5862.7284601603105, -44466.24749496549, -53803.33111325873, -87362.37434892349, -60483.887551294276, 0.066, 0.9380000000000001, 0.34, 192.0, 0.0, 0.0, 0.0, 0.0, 0.0, 0.0, 0.0, 0.0, 0.0, 1.7393885561150117E9, 0.0, 2025-02-12 16:29:16.115
42.0, -5707.1826704958285, -5505.793452953512, -5882.889733658998, -5898.603010011078, -44467.90152405519, -53839.58564276525, -87426.59091074359, -60530.69210418369, 0.066, 0.9380000000000001, 0.34, 192.0, 0.0, 0.0, 0.0, 0.0, 0.0, 0.0, 0.0, 0.0, 0.0, 1.739388556115029E9, 0.0, 2025-02-12 16:29:16.115
43.0, -5651.437419824293, -5434.513739885538, -5908.124853149039, -5904.034483913718, -44471.7460241015, -53822.710075701485, -87467.76282403026, -60532.99433386259, 0.066, 0.9380000000000001, 0.34, 192.0, 0.0, 0.0, 0.0, 0.0, 0.0, 0.0, 0.0, 0.0, 0.0, 1.7393885561150467E9, 0.0, 2025-02-12 16:29:16.115
44.0, -5834.364096446526, -5564.936168782255, -5875.5807132221125, -5867.891713129487, -44469.26498046696, -53781.404051948084, -87418.94661413987, -60484.06636524992, 0.066, 0.9380000000000001, 0.34, 192.0, 0.0, 0.0, 0.0, 0.0, 0.0, 0.0, 0.0, 0.0, 0.0, 1.7393885561150644E9, 0.0, 2025-02-12 16:29:16.115
45.0, -5912.2152223843605, -5650.677460512813, -5846.366983219026, -5858.3251665026155, -44465.68870135411, -53791.5964474197, -87383.4743956893, -60474.74568781206, 0.066, 0.9380000000000001, 0.34, 192.0, 0.0, 0.0, 0.0, 0.0, 0.0, 0.0, 0.0, 0.0, 0.0, 1.7393885561150825E9, 0.0, 2025-02-12 16:29:16.115
46.0, -5734.094170820019, -5525.1500636518085, -5871.713861431344, -5889.885829673509, -44463.92291354214, -53828.78975019333, -87435.37514631453, -60517.41516797724, 0.066, 0.9380000000000001, 0.34, 192.0, 0.0, 0.0, 0.0, 0.0, 0.0, 0.0, 0.0, 0.0, 0.0, 1.7393885561151001E9, 0.0, 2025-02-12 16:29:16.115
47.0, -5635.142998116374, -5424.231937436097, -5906.828451970631, -5906.023789170241, -44468.54972464439, -53823.358276290695, -87490.33808593013, -60532.346133273386, 0.066, 0.9380000000000001, 0.34, 192.0, 0.0, 0.0, 0.0, 0.0, 0.0, 0.0, 0.0, 0.0, 0.0, 1.739388556115124E9, 0.0, 2025-02-12 16:29:16.115
48.0, -5797.2825523951715, -5532.749656766612, -5884.409652281958, -5874.843105655087, -44468.84029732231, -53781.42640369254, -87455.15644015747, -60488.11203099633, 0.06, 0.9420000000000001, 0.34400000000000003, 192.0, 1.0, 224.0, 29.0, 112.0, 10.0, 192.0, 0.0, 0.0, 0.0, 1.7393885561151426E9, 0.0, 2025-02-12 16:29:16.115
49.0, -5914.606859041079, -5644.553082532058, -5845.674079140911, -5854.525369945213, -44463.967617031056, -53779.660615880566, -87406.98843085629, -60466.3190801524, 0.06, 0.9420000000000001, 0.34400000000000003, 192.0, 0.0, 0.0, 0.0, 0.0, 0.0, 0.0, 0.0, 0.0, 0.0, 1.7393885561151621E9, 0.0, 2025-02-12 16:29:16.115
50.0, -5767.152400869418, -5549.289947663539, -5864.181323549906, -5884.253190070772, -44463.72174784205, -53820.56430823378, -87447.86977146505, -60507.20042076116, 0.06, 0.9420000000000001, 0.34400000000000003, 192.0, 0.0, 0.0, 0.0, 0.0, 0.0, 0.0, 0.0, 0.0, 0.0, 1.7393885561151812E9, 0.0, 2025-02-12 16:29:16.115
51.0, -5630.44913178076, -5424.298992669463, -5905.733216492322, -5908.92951594943, -44466.895695554704, -53825.14641584711, -87510.78993210674, -60531.85439489537, 0.06, 0.9420000000000001, 0.34400000000000003, 192.0, 0.0, 0.0, 0.0, 0.0, 0.0, 0.0, 0.0, 0.0, 0.0, 1.7393885561152E9, 0.0, 2025-02-12 16:29:16.115
52.0, -5759.441049032337, -5501.7924906960125, -5892.948018663886, -5882.554457492168, -44466.49336415451, -53782.43223219302, -87487.78998706222, -60492.24710372056, 0.06, 0.9420000000000001, 0.34400000000000003, 192.0, 0.0, 0.0, 0.0, 0.0, 0.0, 0.0, 0.0, 0.0, 0.0, 1.7393885561152189E9, 0.0, 2025-02-12 16:29:16.115
53.0, -5910.40473108348, -5633.846596937967, -5848.5798059201015, -5853.944224589375, -44462.917085041656, -53771.27871170983, -87431.9329776684, -60461.669917305706, 0.06, 0.9420000000000001, 0.34400000000000003, 192.0, 0.0, 0.0, 0.0, 0.0, 0.0, 0.0, 0.0, 0.0, 0.0, 1.7393885561152444E9, 0.0, 2025-02-12 16:29:16.115
54.0, -5795.941447727853, -5567.752488583624, -5851.798457121666, -5872.809096909654, -44457.99970126149, -53806.79563364931, -87452.78715524521, -60491.73301359809, 0.06, 0.9420000000000001, 0.34400000000000003, 192.0, 0.0, 0.0, 0.0, 0.0, 0.0, 0.0, 0.0, 0.0, 0.0, 1.7393885561152632E9, 0.0, 2025-02-12 16:29:16.115
55.0, -5628.079846868497, -5424.50015836956, -5894.803213453676, -5901.97812342383, -44456.92681752763, -53818.48559599944, -87517.27193799877, -60521.840813379386, 0.06, 0.9420000000000001, 0.34400000000000003, 192.0, 0.0, 0.0, 0.0, 0.0, 0.0, 0.0, 0.0, 0.0, 0.0, 1.739388556115282E9, 0.0, 2025-02-12 16:29:16.115
56.0, -5715.475167688748, -5466.007347823066, -5892.12100411904, -5881.839201669598, -44455.65276809368, -53777.559551901766, -87507.9512605609, -60489.006100774546, 0.06, 0.9420000000000001, 0.34400000000000003, 192.0, 0.0, 0.0, 0.0, 0.0, 0.0, 0.0, 0.0, 0.0, 0.0, 1.739388556115301E9, 0.0, 2025-02-12 16:29:16.115
57.0, -5892.411576796959, -5612.0312943495865, -5847.484570441791, -5849.026840809208, -44454.19990470409, -53758.046478992284, -87448.98735868781, -60452.10337067883, 0.06, 0.9420000000000001, 0.34400000000000003, 192.0, 0.0, 0.0, 0.0, 0.0, 0.0, 0.0, 0.0, 0.0, 0.0, 1.7393885561153195E9, 0.0, 2025-02-12 16:29:16.115
58.0, -5823.098817241052, -5584.225724247185, -5840.577881405102, -5861.230893281805, -44450.48951512451, -53791.35057823069, -87454.75410875728, -60475.03626048998, 0.062, 0.9420000000000001, 0.34400000000000003, 192.0, 1.0, 240.0, 29.0, 112.0, 10.0, 192.0, 0.0, 0.0, 0.0, 1.7393885561153386E9, 0.0, 2025-02-12 16:29:16.115
59.0, -5639.0322016515975, -5436.011306764043, -5886.644826727489, -5897.97716116633, -44452.30000642539, -53815.95984887599, -87523.64218516853, -60515.470566209624, 0.062, 0.9420000000000001, 0.34400000000000003, 192.0, 0.0, 0.0, 0.0, 0.0, 0.0, 0.0, 0.0, 0.0, 0.0, 1.7393885561153584E9, 0.0, 2025-02-12 16:29:16.115
60.0, -5684.585056851513, -5444.0355830234985, -5899.564135022657, -5890.444623284891, -44454.75869831547, -53784.26507523836, -87533.58871145114, -60495.912789811235, 0.062, 0.9420000000000001, 0.34400000000000003, 192.0, 0.0, 0.0, 0.0, 0.0, 0.0, 0.0, 0.0, 0.0, 0.0, 1.7393885561153777E9, 0.0, 2025-02-12 16:29:16.115
61.0, -5873.434945754403, -5592.093538295453, -5854.860646112043, -5852.580768177601, -44451.69650932509, -53754.0902202237, -87472.7472630438, -60451.27635613398, 0.062, 0.9420000000000001, 0.34400000000000003, 192.0, 0.0, 0.0, 0.0, 0.0, 0.0, 0.0, 0.0, 0.0, 0.0, 1.7393885561153965E9, 0.0, 2025-02-12 16:29:16.115
62.0, -5853.92187284492, -5604.409349490327, -5838.6779831264, -5857.520503702224, -44449.68485232411, -53782.991025804404, -87463.6948065394, -60465.96145224112, 0.062, 0.9420000000000001, 0.34400000000000003, 192.0, 0.0, 0.0, 0.0, 0.0, 0.0, 0.0, 0.0, 0.0, 0.0, 1.73938855611542E9, 0.0, 2025-02-12 16:29:16.115
63.0, -5661.227483895717, -5456.485504685104, -5880.609855724556, -5895.026730898229, -44449.617797090745, -53814.61874420867, -87527.88901661504, -60509.815574862434, 0.062, 0.9420000000000001, 0.34400000000000003, 192.0, 0.0, 0.0, 0.0, 0.0, 0.0, 0.0, 0.0, 0.0, 0.0, 1.7393885561154456E9, 0.0, 2025-02-12 16:29:16.115
64.0, -5659.707565272756, -5428.344658415873, -5905.5767542811345, -5898.0665681441515, -44453.059965736866, -53791.395281719604, -87552.92297040498, -60502.126574769805, 0.062, 0.9420000000000001, 0.34400000000000003, 192.0, 0.0, 0.0, 0.0, 0.0, 0.0, 0.0, 0.0, 0.0, 0.0, 1.7393885561154633E9, 0.0, 2025-02-12 16:29:16.115
65.0, -5852.424305966414, -5572.871038063889, -5867.377623007014, -5861.387355492992, -44451.875323280736, -53756.235987691405, -87496.39540867752, -60456.1713881697, 0.062, 0.9420000000000001, 0.34400000000000003, 192.0, 0.0, 0.0, 0.0, 0.0, 0.0, 0.0, 0.0, 0.0, 0.0, 1.739388556115481E9, 0.0, 2025-02-12 16:29:16.115
66.0, -5882.576809236623, -5623.16246308833, -5841.471951183314, -5857.6322624245, -44450.31070116886, -53777.87247632414, -87472.05435896569, -60460.44057136066, 0.062, 0.9420000000000001, 0.34400000000000003, 192.0, 0.0, 0.0, 0.0, 0.0, 0.0, 0.0, 0.0, 0.0, 0.0, 1.7393885561154983E9, 0.0, 2025-02-12 16:29:16.115
67.0, -5696.69970234629, -5487.777946922534, -5879.380509779515, -5896.613704754556, -44451.9423785141, -53817.345657032216, -87531.57705445017, -60507.938028328186, 0.062, 0.9420000000000001, 0.34400000000000003, 192.0, 0.0, 0.0, 0.0, 0.0, 0.0, 0.0, 0.0, 0.0, 0.0, 1.7393885561155164E9, 0.0, 2025-02-12 16:29:16.115
68.0, -5643.524902287114, -5420.722713556614, -5910.181213638927, -5904.973257180841, -44450.71303256906, -53798.88311611213, -87565.8199269557, -60507.15571727225, 0.068, 0.9420000000000001, 0.34400000000000003, 192.0, 2.0, 32.0, 29.0, 112.0, 10.0, 192.0, 0.0, 0.0, 0.0, 1.739388556115534E9, 0.0, 2025-02-12 16:29:16.115
69.0, -5823.322334685604, -5548.261767418596, -5876.787707422699, -5866.952939862364, -44446.17562844463, -53755.54308361329, -87513.06981004117, -60457.467789348106, 0.068, 0.9420000000000001, 0.34400000000000003, 192.0, 0.0, 0.0, 0.0, 0.0, 0.0, 0.0, 0.0, 0.0, 0.0, 1.7393885561155589E9, 0.0, 2025-02-12 16:29:16.115
70.0, -5899.854707700576, -5632.036105637087, -5842.120151772518, -5853.720707144822, -44444.67806156613, -53767.72478434143, -87474.42364387795, -60450.49404507805, 0.068, 0.9420000000000001, 0.34400000000000003, 192.0, 0.0, 0.0, 0.0, 0.0, 0.0, 0.0, 0.0, 0.0, 0.0, 1.7393885561155765E9, 0.0, 2025-02-12 16:29:16.115
71.0, -5729.556766695591, -5514.756502480091, -5870.3057015306595, -5888.969408150841, -44446.51090461146, -53811.42244475156, -87523.39631597952, -60497.49976366756, 0.068, 0.9420000000000001, 0.34400000000000003, 192.0, 0.0, 0.0, 0.0, 0.0, 0.0, 0.0, 0.0, 0.0, 0.0, 1.739388556115594E9, 0.0, 2025-02-12 16:29:16.115
72.0, -5634.003059149153, -5418.845167022368, -5910.494138061302, -5907.990742682307, -44446.689718567104, -53805.096901070705, -87570.04440665775, -60509.54735392897, 0.068, 0.9420000000000001, 0.34400000000000003, 192.0, 0.0, 0.0, 0.0, 0.0, 0.0, 0.0, 0.0, 0.0, 0.0, 1.739388556115612E9, 0.0, 2025-02-12 16:29:16.115
73.0, -5793.370997115493, -5525.172415396263, -5888.254152328272, -5875.714823688844, -44442.73345979851, -53760.39341216009, -87528.02312708177, -60463.01102197302, 0.068, 0.9420000000000001, 0.34400000000000003, 192.0, 0.0, 0.0, 0.0, 0.0, 0.0, 0.0, 0.0, 0.0, 0.0, 1.7393885561156297E9, 0.0, 2025-02-12 16:29:16.115
74.0, -5910.605896783579, -5636.26058533914, -5846.478741941302, -5853.564244933635, -44440.94532024209, -53761.80157206077, -87477.70935031287, -60444.950812453135, 0.068, 0.9420000000000001, 0.34400000000000003, 192.0, 0.0, 0.0, 0.0, 0.0, 0.0, 0.0, 0.0, 0.0, 0.0, 1.7393885561156473E9, 0.0, 2025-02-12 16:29:16.115
75.0, -5767.219456102784, -5545.400744128317, -5864.181323549906, -5883.3367685481035, -44442.219369676044, -53806.16978480456, -87513.09216178562, -60487.799106573955, 0.068, 0.9420000000000001, 0.34400000000000003, 192.0, 0.0, 0.0, 0.0, 0.0, 0.0, 0.0, 0.0, 0.0, 0.0, 1.7393885561156645E9, 0.0, 2025-02-12 16:29:16.115
76.0, -5633.958355660243, -5425.371876403317, -5909.667123516456, -5910.181213638927, -44441.68292780912, -53810.72954067344, -87567.18338336748, -60510.30731324045, 0.068, 0.9420000000000001, 0.34400000000000003, 192.0, 0.0, 0.0, 0.0, 0.0, 0.0, 0.0, 0.0, 0.0, 0.0, 1.739388556115682E9, 0.0, 2025-02-12 16:29:16.115
77.0, -5763.687880478845, -5504.608810497381, -5900.659370500966, -5885.9742743938305, -44440.09595395279, -53768.752964586376, -87539.86955164309, -60471.34822265485, 0.068, 0.9420000000000001, 0.34400000000000003, 192.0, 0.0, 0.0, 0.0, 0.0, 0.0, 0.0, 0.0, 0.0, 0.0, 1.7393885561156995E9, 0.0, 2025-02-12 16:29:16.115
78.0, -5914.986838696818, -5636.528806272603, -5854.994756578774, -5856.693489157377, -44437.950186485075, -53759.54404587079, -87481.08446372562, -60443.22972813007, 0.064, 0.9520000000000001, 0.34, 192.0, 2.0, 0.0, 29.0, 192.0, 10.0, 160.0, 0.0, 0.0, 0.0, 1.7393885561157231E9, 0.0, 2025-02-12 16:29:16.115
79.0, -5806.737340299766, -5576.469668921193, -5859.755678147755, -5878.061756856651, -44437.72666904052, -53801.185345791026, -87499.97168779036, -60478.433725647184, 0.064, 0.9520000000000001, 0.34, 192.0, 0.0, 0.0, 0.0, 0.0, 0.0, 0.0, 0.0, 0.0, 0.0, 1.7393885561157415E9, 0.0, 2025-02-12 16:29:16.115
80.0, -5641.155617374852, -5436.793617819979, -5904.593277525101, -5907.923687448942, -44434.30685213886, -53813.09882558571, -87556.23102858437, -60506.887496338786, 0.064, 0.9520000000000001, 0.34, 192.0, 0.0, 0.0, 0.0, 0.0, 0.0, 0.0, 0.0, 0.0, 0.0, 1.7393885561157591E9, 0.0, 2025-02-12 16:29:16.115
81.0, -5731.680182418845, -5482.726452675635, -5908.2813153602265, -5891.696320974389, -44431.870511993235, -53773.24566522189, -87542.59646446664, -60474.365708156314, 0.064, 0.9520000000000001, 0.34, 192.0, 0.0, 0.0, 0.0, 0.0, 0.0, 0.0, 0.0, 0.0, 0.0, 1.7393885561157768E9, 0.0, 2025-02-12 16:29:16.115
82.0, -5908.862460716065, -5628.97391664671, -5863.331957260604, -5858.436925224892, -44430.37294511473, -53754.626662090624, -87479.60924859157, -60438.89348970575, 0.064, 0.9520000000000001, 0.34, 192.0, 0.0, 0.0, 0.0, 0.0, 0.0, 0.0, 0.0, 0.0, 0.0, 1.739388556115794E9, 0.0, 2025-02-12 16:29:16.115
83.0, -5844.332974473593, -5605.459881479726, -5856.693489157377, -5871.870323642532, -44431.06584919284, -53793.295179998306, -87483.07376898215, -60466.78846678597, 0.064, 0.9520000000000001, 0.34, 192.0, 0.0, 0.0, 0.0, 0.0, 0.0, 0.0, 0.0, 0.0, 0.0, 1.7393885561158116E9, 0.0, 2025-02-12 16:29:16.115
84.0, -5660.601635050969, -5458.430106452716, -5902.112233890562, -5906.962562437363, -44428.94243346959, -53816.04925585381, -87542.32824353316, -60503.75825211505, 0.064, 0.9520000000000001, 0.34, 192.0, 0.0, 0.0, 0.0, 0.0, 0.0, 0.0, 0.0, 0.0, 0.0, 1.7393885561158352E9, 0.0, 2025-02-12 16:29:16.115
85.0, -5704.70162686129, -5466.2755687565295, -5917.043199186707, -5898.982989666819, -44425.567320056834, -53780.621740892144, -87543.49053424485, -60479.73012682559, 0.064, 0.9520000000000001, 0.34, 192.0, 0.0, 0.0, 0.0, 0.0, 0.0, 0.0, 0.0, 0.0, 0.0, 1.7393885561158528E9, 0.0, 2025-02-12 16:29:16.115
86.0, -5895.518469276246, -5616.479291496193, -5875.156030077462, -5863.801343894165, -44425.34380261228, -53754.31373766825, -87482.29145792621, -60439.67580076168, 0.064, 0.9520000000000001, 0.34, 192.0, 0.0, 0.0, 0.0, 0.0, 0.0, 0.0, 0.0, 0.0, 0.0, 1.7393885561158705E9, 0.0, 2025-02-12 16:29:16.115
87.0, -5875.82658241112, -5628.191605590774, -5854.525369945213, -5866.572960206623, -44426.50609332396, -53787.17080201755, -87470.2438676648, -60458.45126610414, 0.064, 0.9520000000000001, 0.34, 192.0, 0.0, 0.0, 0.0, 0.0, 0.0, 0.0, 0.0, 0.0, 0.0, 1.7393885561158948E9, 0.0, 2025-02-12 16:29:16.115
88.0, -5685.814402796555, -5483.374653264839, -5896.3678355655475, -5904.3474083360925, -44427.42251484663, -53821.458378011994, -87529.56539744919, -60503.467679437126, 0.07, 0.92, 0.328, 192.0, 2.0, 48.0, 28.0, 192.0, 10.0, 64.0, 0.0, 0.0, 0.0, 1.739388556115913E9, 0.0, 2025-02-12 16:29:16.115
89.0, -5685.4567748852705, -5457.893664585789, -5925.380399868536, -5909.041274671707, -44426.95312821306, -53796.49147945541, -87548.162048836, -60492.627083376305, 0.07, 0.92, 0.328, 192.0, 0.0, 0.0, 0.0, 0.0, 0.0, 0.0, 0.0, 0.0, 0.0, 1.7393885561159315E9, 0.0, 2025-02-12 16:29:16.115
90.0, -5876.854762656065, -5601.481270966682, -5887.538896505702, -5872.205599809361, -44424.06975317833, -53760.95220577147, -87487.78998706222, -60446.96246945411, 0.07, 0.92, 0.328, 192.0, 0.0, 0.0, 0.0, 0.0, 0.0, 0.0, 0.0, 0.0, 0.0, 1.7393885561159492E9, 0.0, 2025-02-12 16:29:16.115
91.0, -5905.26382985876, -5649.336355845494, -5856.313509501638, -5865.477724728314, -44425.41085784565, -53785.8967525836, -87460.58791406012, -60455.232614902576, 0.07, 0.92, 0.328, 192.0, 0.0, 0.0, 0.0, 0.0, 0.0, 0.0, 0.0, 0.0, 0.0, 1.7393885561159666E9, 0.0, 2025-02-12 16:29:16.115
92.0, -5719.789054368622, -5514.667095502269, -5891.07047212964, -5902.492213546302, -44427.69073578009, -53827.336886803736, -87514.67913564196, -60503.31121722594, 0.07, 0.92, 0.328, 192.0, 0.0, 0.0, 0.0, 0.0, 0.0, 0.0, 0.0, 0.0, 0.0, 1.7393885561159887E9, 0.0, 2025-02-12 16:29:16.115
93.0, -5668.335338632505, -5450.875216826823, -5925.5368620797235, -5912.751664251288, -44422.706296766555, -53807.77911040534, -87542.417650511, -60499.757289857545, 0.07, 0.92, 0.328, 192.0, 0.0, 0.0, 0.0, 0.0, 0.0, 0.0, 0.0, 0.0, 0.0, 1.7393885561160066E9, 0.0, 2025-02-12 16:29:16.116
94.0, -5850.546759432168, -5581.655273634824, -5897.150146621483, -5879.313454546149, -44420.09114266529, -53768.14946748608, -87489.68988534092, -60454.33854512436, 0.07, 0.92, 0.328, 192.0, 0.0, 0.0, 0.0, 0.0, 0.0, 0.0, 0.0, 0.0, 0.0, 1.7393885561160307E9, 0.0, 2025-02-12 16:29:16.116
95.0, -5926.274469646749, -5664.177914163818, -5858.5039804582575, -5864.740117161288, -44422.97451770002, -53784.91327582757, -87451.06607092216, -60453.08684743486, 0.07, 0.92, 0.328, 192.0, 0.0, 0.0, 0.0, 0.0, 0.0, 0.0, 0.0, 0.0, 0.0, 1.7393885561160483E9, 0.0, 2025-02-12 16:29:16.116
96.0, -5757.496447264725, -5548.3958778853275, -5883.917913903942, -5898.804175711176, -44426.75196251297, -53831.449607783514, -87496.95420228889, -60501.83600209189, 0.07, 0.92, 0.328, 192.0, 0.0, 0.0, 0.0, 0.0, 0.0, 0.0, 0.0, 0.0, 0.0, 1.739388556116066E9, 0.0, 2025-02-12 16:29:16.116
97.0, -5663.909693230355, -5455.814952351446, -5927.615574314067, -5919.792463754709, -44423.44390433358, -53823.827662924254, -87537.8578946421, -60511.11197604084, 0.07, 0.92, 0.328, 192.0, 0.0, 0.0, 0.0, 0.0, 0.0, 0.0, 0.0, 0.0, 0.0, 1.739388556116084E9, 0.0, 2025-02-12 16:29:16.116
98.0, -5823.299982941149, -5563.215084459196, -5908.437777571414, -5889.617608740045, -44417.87831996421, -53779.05711878027, -87493.42262666496, -60465.06738246291, 0.074, 0.934, 0.342, 192.0, 2.0, 80.0, 29.0, 48.0, 10.0, 176.0, 0.0, 0.0, 0.0, 1.7393885561161015E9, 0.0, 2025-02-12 16:29:16.116
99.0, -5939.327888408648, -5672.537466590103, -5863.06373632714, -5866.751774162266, -44421.14167465469, -53785.941456072505, -87445.1875621304, -60453.91386197971, 0.074, 0.934, 0.342, 192.0, 0.0, 0.0, 0.0, 0.0, 0.0, 0.0, 0.0, 0.0, 0.0, 1.7393885561161206E9, 0.0, 2025-02-12 16:29:16.116
100.0, -5794.5779913160795, -5579.643616633847, -5874.373719021526, -5892.7245012193325, -44424.382677600704, -53832.54484326182, -87477.61994333506, -60498.48324042359, 0.074, 0.934, 0.342, 192.0, 0.0, 0.0, 0.0, 0.0, 0.0, 0.0, 0.0, 0.0, 0.0, 1.7393885561161575E9, 0.0, 2025-02-12 16:29:16.116
101.0, -5661.830980996011, -5461.22407450963, -5920.999457955296, -5919.345428865604, -44419.24177637599, -53833.7071339735, -87525.05034506922, -60515.80584237645, 0.074, 0.934, 0.342, 192.0, 0.0, 0.0, 0.0, 0.0, 0.0, 0.0, 0.0, 0.0, 0.0, 1.7393885561161766E9, 0.0, 2025-02-12 16:29:16.116
102.0, -5791.359340114515, -5541.66800280428, -5915.7915014972095, -5897.016036154751, -44412.82682571731, -53788.55661017378, -87493.71319934288, -60473.80691454493, 0.074, 0.934, 0.342, 192.0, 0.0, 0.0, 0.0, 0.0, 0.0, 0.0, 0.0, 0.0, 0.0, 1.7393885561161952E9, 0.0, 2025-02-12 16:29:16.116
103.0, -5939.931385508941, -5670.726975289223, -5866.237684039794, -5866.572960206623, -44415.46433156304, -53783.92979907153, -87437.31974808214, -60452.34923986784, 0.074, 0.934, 0.342, 192.0, 0.0, 0.0, 0.0, 0.0, 0.0, 0.0, 0.0, 0.0, 0.0, 1.739388556116214E9, 0.0, 2025-02-12 16:29:16.116
104.0, -5831.972459789808, -5610.198451304252, -5865.477724728314, -5886.398957538481, -44422.572186299825, -53833.01422989539, -87457.90570472548, -60494.95166479966, 0.074, 0.934, 0.342, 192.0, 0.0, 0.0, 0.0, 0.0, 0.0, 0.0, 0.0, 0.0, 0.0, 1.7393885561162329E9, 0.0, 2025-02-12 16:29:16.116
105.0, -5671.688100300801, -5476.646778183792, -5915.07624567464, -5920.239498643816, -44418.90650020916, -53846.51468354639, -87511.28167048475, -60522.86899362433, 0.074, 0.934, 0.342, 192.0, 0.0, 0.0, 0.0, 0.0, 0.0, 0.0, 0.0, 0.0, 0.0, 1.7393885561162517E9, 0.0, 2025-02-12 16:29:16.116
106.0, -5762.033851389152, -5523.898365962311, -5923.346391123104, -5906.716693248355, -44411.396314072175, -53803.018188836366, -87494.11553074307, -60486.83798156238, 0.074, 0.934, 0.342, 192.0, 0.0, 0.0, 0.0, 0.0, 0.0, 0.0, 0.0, 0.0, 0.0, 1.7393885561162708E9, 0.0, 2025-02-12 16:29:16.116
107.0, -5933.471731361357, -5664.4461350972815, -5873.278483543216, -5870.886846886498, -44411.955107683556, -53786.05321479478, -87432.80469570216, -60455.47848409158, 0.074, 0.934, 0.342, 192.0, 0.0, 0.0, 0.0, 0.0, 0.0, 0.0, 0.0, 0.0, 0.0, 1.7393885561162896E9, 0.0, 2025-02-12 16:29:16.116
108.0, -5867.3105677736485, -5638.361649317939, -5859.576864192112, -5882.018015625241, -44420.15819789865, -53831.65077348361, -87438.77261147174, -60491.06246126443, 0.068, 0.9420000000000001, 0.34400000000000003, 192.0, 2.0, 32.0, 29.0, 112.0, 10.0, 192.0, 0.0, 0.0, 0.0, 1.7393885561163085E9, 0.0, 2025-02-12 16:29:16.116
109.0, -5688.049577242086, -5496.606885982381, -5907.767225237754, -5920.328905621637, -44419.353535098264, -53857.19881739603, -87496.50716739979, -60528.94866811618, 0.068, 0.9420000000000001, 0.34400000000000003, 192.0, 0.0, 0.0, 0.0, 0.0, 0.0, 0.0, 0.0, 0.0, 0.0, 1.7393885561163347E9, 0.0, 2025-02-12 16:29:16.116
110.0, -5734.250633031205, -5508.0733308879535, -5928.777865025743, -5915.947963708397, -44410.72576173851, -53817.77034017687, -87493.75790283179, -60500.33843521338, 0.068, 0.9420000000000001, 0.34400000000000003, 192.0, 0.0, 0.0, 0.0, 0.0, 0.0, 0.0, 0.0, 0.0, 0.0, 1.7393885561163535E9, 0.0, 2025-02-12 16:29:16.116
111.0, -5924.754551023788, -5657.584149549502, -5886.7342337053105, -5880.676910957923, -44411.06103790534, -53791.50704044188, -87433.11762012454, -60461.73697253907, 0.068, 0.9420000000000001, 0.34400000000000003, 192.0, 0.0, 0.0, 0.0, 0.0, 0.0, 0.0, 0.0, 0.0, 0.0, 1.7393885561163723E9, 0.0, 2025-02-12 16:29:16.116
112.0, -5903.45333855788, -5666.413088609349, -5859.532160703202, -5879.671082457434, -44416.85013971927, -53827.42629378156, -87422.56759674163, -60484.40164141675, 0.068, 0.9420000000000001, 0.34400000000000003, 192.0, 0.0, 0.0, 0.0, 0.0, 0.0, 0.0, 0.0, 0.0, 0.0, 1.7393885561163914E9, 0.0, 2025-02-12 16:29:16.116
113.0, -5712.234164742728, -5520.411493827283, -5898.401844310981, -5914.8527282300865, -44415.88901470769, -53859.23282614146, -87478.22344043535, -60525.8864791258, 0.068, 0.9420000000000001, 0.34400000000000003, 192.0, 0.0, 0.0, 0.0, 0.0, 0.0, 0.0, 0.0, 0.0, 0.0, 1.7393885561164105E9, 0.0, 2025-02-12 16:29:16.116
114.0, -5711.138929264418, -5495.578705737437, -5931.281260404738, -5920.798292255198, -44408.736456481995, -53828.49917751541, -87492.61796386457, -60508.8320981064, 0.068, 0.9420000000000001, 0.34400000000000003, 192.0, 0.0, 0.0, 0.0, 0.0, 0.0, 0.0, 0.0, 0.0, 0.0, 1.739388556116429E9, 0.0, 2025-02-12 16:29:16.116
115.0, -5902.916896690953, -5639.769809218623, -5896.3678355655475, -5886.242495327294, -44407.59651751477, -53793.764566631864, -87435.64336724799, -60465.693231307654, 0.068, 0.9420000000000001, 0.34400000000000003, 192.0, 0.0, 0.0, 0.0, 0.0, 0.0, 0.0, 0.0, 0.0, 0.0, 1.7393885561164553E9, 0.0, 2025-02-12 16:29:16.116
116.0, -5932.4659028608685, -5687.580190608524, -5862.214370037838, -5879.06758535714, -44416.492511807985, -53824.14058734663, -87414.40921001545, -60480.49008613707, 0.068, 0.9420000000000001, 0.34400000000000003, 192.0, 0.0, 0.0, 0.0, 0.0, 0.0, 0.0, 0.0, 0.0, 0.0, 1.739388556116474E9, 0.0, 2025-02-12 16:29:16.116
117.0, -5747.393458770926, -5552.821523287478, -5895.339655320604, -5915.098597419095, -44419.711163009546, -53865.491314588944, -87468.05339670819, -60527.853432637865, 0.068, 0.9420000000000001, 0.34400000000000003, 192.0, 0.0, 0.0, 0.0, 0.0, 0.0, 0.0, 0.0, 0.0, 0.0, 1.7393885561164925E9, 0.0, 2025-02-12 16:29:16.116
118.0, -5696.945571535298, -5490.750728935091, -5935.595147084612, -5928.710809792377, -44411.57512802781, -53842.357259077704, -87495.61309762158, -60520.387949989796, 0.062, 0.9460000000000001, 0.35000000000000003, 192.0, 1.0, 240.0, 29.0, 144.0, 10.0, 240.0, 0.0, 0.0, 0.0, 1.739388556116511E9, 0.0, 2025-02-12 16:29:16.116
119.0, -5877.659425456456, -5619.787349675578, -5909.2200886273495, -5895.652579742978, -44407.261241347944, -53799.35250274569, -87445.5451900417, -60472.89049302226, 0.062, 0.9460000000000001, 0.35000000000000003, 192.0, 0.0, 0.0, 0.0, 0.0, 0.0, 0.0, 0.0, 0.0, 0.0, 1.739388556116531E9, 0.0, 2025-02-12 16:29:16.116
120.0, -5952.0683827481735, -5699.493670403203, -5866.64001543999, -5878.531143490212, -44413.966764684534, -53817.122139587664, -87411.65994544745, -60474.00808024503, 0.062, 0.9460000000000001, 0.35000000000000003, 192.0, 0.0, 0.0, 0.0, 0.0, 0.0, 0.0, 0.0, 0.0, 0.0, 1.7393885561165493E9, 0.0, 2025-02-12 16:29:16.116
121.0, -5781.926903954376, -5581.878791079377, -5889.103518617573, -5910.225917127838, -44418.660631020146, -53862.74205002094, -87458.33038787013, -60521.81846163493, 0.062, 0.9460000000000001, 0.35000000000000003, 192.0, 0.0, 0.0, 0.0, 0.0, 0.0, 0.0, 0.0, 0.0, 0.0, 1.7393885565936446E9, 0.0, 2025-02-12 16:29:16.593
122.0, -5686.93199001932, -5488.426147511738, -5935.773961040254, -5932.130626694039, -44412.11156989474, -53851.14149464864, -87499.16702498998, -60526.89230762629, 0.062, 0.9460000000000001, 0.35000000000000003, 192.0, 0.0, 0.0, 0.0, 0.0, 0.0, 0.0, 0.0, 0.0, 0.0, 1.7393885565937233E9, 0.0, 2025-02-12 16:29:16.593
123.0, -5847.037535552685, -5596.2956662530505, -5921.670010288955, -5905.129719392028, -44407.30594483685, -53805.521584215356, -87459.93971347091, -60481.11593498182, 0.062, 0.9460000000000001, 0.35000000000000003, 192.0, 0.0, 0.0, 0.0, 0.0, 0.0, 0.0, 0.0, 0.0, 0.0, 1.7393885565937521E9, 0.0, 2025-02-12 16:29:16.593
124.0, -5961.500818908313, -5702.3099902045715, -5872.54087597619, -5878.5758469791235, -44411.01633441643, -53809.88017438414, -87413.3363262816, -60468.4201441312, 0.062, 0.9460000000000001, 0.35000000000000003, 192.0, 0.0, 0.0, 0.0, 0.0, 0.0, 0.0, 0.0, 0.0, 0.0, 1.739388556593772E9, 0.0, 2025-02-12 16:29:16.593
125.0, -5815.789796804166, -5607.404483247338, -5880.811021424654, -5901.97812342383, -44415.307869351855, -53855.18716039505, -87447.06510866465, -60511.69312139668, 0.062, 0.9460000000000001, 0.35000000000000003, 192.0, 0.0, 0.0, 0.0, 0.0, 0.0, 0.0, 0.0, 0.0, 0.0, 1.7393885565938709E9, 0.0, 2025-02-12 16:29:16.593
126.0, -5682.953379506276, -5489.364920778861, -5931.504777849291, -5931.5271295937455, -44410.92692743861, -53856.30474761781, -87499.21172847888, -60529.37335126083, 0.062, 0.9460000000000001, 0.35000000000000003, 192.0, 0.0, 0.0, 0.0, 0.0, 0.0, 0.0, 0.0, 0.0, 0.0, 1.7393885565938892E9, 0.0, 2025-02-12 16:29:16.593
127.0, -5811.2523926797385, -5568.467744406194, -5929.873100504053, -5911.3882078395145, -44405.249584346966, -53810.30485752879, -87473.68603631092, -60487.44147866267, 0.062, 0.9460000000000001, 0.35000000000000003, 192.0, 0.0, 0.0, 0.0, 0.0, 0.0, 0.0, 0.0, 0.0, 0.0, 1.7393885565939076E9, 0.0, 2025-02-12 16:29:16.593
128.0, -5959.980900285352, -5696.096205245996, -5879.045233612685, -5878.821716168131, -44407.50711053695, -53802.571153947254, -87419.59481472908, -60463.39100162876, 0.068, 0.9500000000000001, 0.354, 192.0, 2.0, 32.0, 29.0, 176.0, 11.0, 16.0, 0.0, 0.0, 0.0, 1.739388556593926E9, 0.0, 2025-02-12 16:29:16.593
129.0, -5849.853855354054, -5632.326678315006, -5873.859628899054, -5893.909143675464, -44411.88805245019, -53846.29116610184, -87439.57727427212, -60500.8301735914, 0.068, 0.9500000000000001, 0.354, 192.0, 0.0, 0.0, 0.0, 0.0, 0.0, 0.0, 0.0, 0.0, 0.0, 1.739388556593946E9, 0.0, 2025-02-12 16:29:16.593
130.0, -5685.74734756319, -5495.109319103875, -5923.256984145282, -5927.168539424961, -44408.535290781896, -53858.294052874335, -87497.35653368909, -60528.211060549154, 0.068, 0.9500000000000001, 0.354, 192.0, 0.0, 0.0, 0.0, 0.0, 0.0, 0.0, 0.0, 0.0, 0.0, 1.7393885565939884E9, 0.0, 2025-02-12 16:29:16.593
131.0, -5772.42741256087, -5538.38229636935, -5932.488254605324, -5913.757492751777, -44400.55571801135, -53813.09882558571, -87484.32546667165, -60491.241275220076, 0.068, 0.9500000000000001, 0.354, 192.0, 0.0, 0.0, 0.0, 0.0, 0.0, 0.0, 0.0, 0.0, 0.0, 1.7393885565940073E9, 0.0, 2025-02-12 16:29:16.594
132.0, -5944.424086144458, -5677.723071303734, -5881.503925502769, -5875.7595271777545, -44399.281668577394, -53792.088185797715, -87423.99810838678, -60455.567891069404, 0.068, 0.9500000000000001, 0.354, 192.0, 0.0, 0.0, 0.0, 0.0, 0.0, 0.0, 0.0, 0.0, 0.0, 1.7393885565940263E9, 0.0, 2025-02-12 16:29:16.594
133.0, -5880.475745257824, -5652.778524491611, -5867.154105562461, -5885.236666826805, -44407.46240704804, -53835.07059038527, -87433.05056489118, -60488.49201065207, 0.068, 0.9500000000000001, 0.354, 192.0, 0.0, 0.0, 0.0, 0.0, 0.0, 0.0, 0.0, 0.0, 0.0, 1.739388556594046E9, 0.0, 2025-02-12 16:29:16.594
134.0, -5696.900868046388, -5506.642819242814, -5913.399864840492, -5921.401789355492, -44406.32246808082, -53858.42816334107, -87494.38375167653, -60524.97005760313, 0.068, 0.9500000000000001, 0.354, 192.0, 0.0, 0.0, 0.0, 0.0, 0.0, 0.0, 0.0, 0.0, 0.0, 1.739388556594064E9, 0.0, 2025-02-12 16:29:16.594
135.0, -5741.492598234725, -5516.835214714434, -5937.807969785687, -5920.507719577279, -44401.807415700845, -53822.46420651248, -87499.97168779036, -60500.76311835804, 0.068, 0.9500000000000001, 0.354, 192.0, 0.0, 0.0, 0.0, 0.0, 0.0, 0.0, 0.0, 0.0, 0.0, 1.739388556594082E9, 0.0, 2025-02-12 16:29:16.594
136.0, -5930.521301093257, -5664.043803697086, -5894.579696009123, -5883.962617392853, -44401.27097383392, -53793.96573233196, -87441.11954463954, -60460.14999868274, 0.068, 0.9500000000000001, 0.354, 192.0, 0.0, 0.0, 0.0, 0.0, 0.0, 0.0, 0.0, 0.0, 0.0, 1.7393885565941E9, 0.0, 2025-02-12 16:29:16.594
137.0, -5914.092768918606, -5676.583132336514, -5868.919893374431, -5884.074376115129, -44408.71410473753, -53829.79557869382, -87433.7881724582, -60482.479391393594, 0.068, 0.9500000000000001, 0.354, 192.0, 0.0, 0.0, 0.0, 0.0, 0.0, 0.0, 0.0, 0.0, 0.0, 1.7393885565941422E9, 0.0, 2025-02-12 16:29:16.594
138.0, -5723.477092203748, -5531.386200354838, -5909.577716538634, -5921.424141099947, -44410.21167161604, -53863.814933754795, -87493.95906853188, -60526.534679715005, 0.058, 0.9420000000000001, 0.34600000000000003, 192.0, 1.0, 208.0, 29.0, 112.0, 10.0, 208.0, 0.0, 0.0, 0.0, 1.7393885565941613E9, 0.0, 2025-02-12 16:29:16.594
139.0, -5716.615106655969, -5501.077234873443, -5941.026620987252, -5926.721504535854, -44403.57320351282, -53833.41656129558, -87511.12520827356, -60510.731996385104, 0.058, 0.9420000000000001, 0.34600000000000003, 192.0, 0.0, 0.0, 0.0, 0.0, 0.0, 0.0, 0.0, 0.0, 0.0, 1.7393885565941813E9, 0.0, 2025-02-12 16:29:16.594
140.0, -5907.297838604193, -5643.636661009391, -5904.928553691931, -5890.578733751623, -44400.60042150026, -53796.46912771096, -87453.88239072352, -60464.73210629608, 0.058, 0.9420000000000001, 0.34600000000000003, 192.0, 0.0, 0.0, 0.0, 0.0, 0.0, 0.0, 0.0, 0.0, 0.0, 1.739388556594253E9, 0.0, 2025-02-12 16:29:16.594
141.0, -5938.903205263997, -5692.631684855424, -5868.919893374431, -5880.274579557727, -44404.73549422449, -53821.48072975645, -87428.04377413318, -60473.44928663365, 0.058, 0.9420000000000001, 0.34600000000000003, 192.0, 0.0, 0.0, 0.0, 0.0, 0.0, 0.0, 0.0, 0.0, 0.0, 1.739388556594291E9, 0.0, 2025-02-12 16:29:16.594
142.0, -5751.595586728524, -5556.062526233498, -5899.541783278201, -5914.137472407517, -44406.0318954029, -53861.35624186471, -87479.8551177806, -60519.605638933856, 0.058, 0.9420000000000001, 0.34600000000000003, 192.0, 0.0, 0.0, 0.0, 0.0, 0.0, 0.0, 0.0, 0.0, 0.0, 1.739388556594334E9, 0.0, 2025-02-12 16:29:16.594
143.0, -5696.207963968273, -5490.102528345887, -5938.5679290971675, -5928.062609203173, -44400.22044184452, -53841.95492767751, -87509.67234488396, -60516.610505176846, 0.058, 0.9420000000000001, 0.34600000000000003, 192.0, 0.0, 0.0, 0.0, 0.0, 0.0, 0.0, 0.0, 0.0, 0.0, 1.7393885565943546E9, 0.0, 2025-02-12 16:29:16.594
144.0, -5876.810059167155, -5618.915631641821, -5912.014056684263, -5894.982027409319, -44395.41481678663, -53799.77718589034, -87457.43631809192, -60469.04599297595, 0.058, 0.9420000000000001, 0.34600000000000003, 192.0, 0.0, 0.0, 0.0, 0.0, 0.0, 0.0, 0.0, 0.0, 0.0, 1.739388556594373E9, 0.0, 2025-02-12 16:29:16.594
145.0, -5955.667013605477, -5702.17587973784, -5868.83048639661, -5875.7595271777545, -44397.180604598594, -53813.36704651917, -87415.52679723821, -60464.32977489589, 0.058, 0.9420000000000001, 0.34600000000000003, 192.0, 0.0, 0.0, 0.0, 0.0, 0.0, 0.0, 0.0, 0.0, 0.0, 1.7393885565943909E9, 0.0, 2025-02-12 16:29:16.594
146.0, -5787.090156923551, -5586.416195203805, -5891.048120385185, -5907.275486859738, -44400.95804941154, -53859.18812265255, -87458.93388497042, -60512.140156285786, 0.058, 0.9420000000000001, 0.34600000000000003, 192.0, 0.0, 0.0, 0.0, 0.0, 0.0, 0.0, 0.0, 0.0, 0.0, 1.7393885565944257E9, 0.0, 2025-02-12 16:29:16.594
147.0, -5688.876591786932, -5491.130708590831, -5937.495045363313, -5930.945984237907, -44398.387598799185, -53853.555483049815, -87502.4527314249, -60523.91952561373, 0.058, 0.9420000000000001, 0.34600000000000003, 192.0, 0.0, 0.0, 0.0, 0.0, 0.0, 0.0, 0.0, 0.0, 0.0, 1.7393885565944436E9, 0.0, 2025-02-12 16:29:16.594
148.0, -5848.982137320297, -5599.380206987883, -5923.704019034389, -5904.727387991833, -44394.744264452966, -53810.7518924179, -87461.57139081614, -60479.99834775906, 0.058, 0.9380000000000001, 0.342, 192.0, 1.0, 208.0, 29.0, 80.0, 10.0, 176.0, 0.0, 0.0, 0.0, 1.7393885565944612E9, 0.0, 2025-02-12 16:29:16.594
149.0, -5970.352109712614, -5712.077702531541, -5876.653596955967, -5878.598198723579, -44395.03483713089, -53813.009418607886, -87407.34605876757, -60463.27924290649, 0.058, 0.9380000000000001, 0.342, 192.0, 0.0, 0.0, 0.0, 0.0, 0.0, 0.0, 0.0, 0.0, 0.0, 1.7393885565944808E9, 0.0, 2025-02-12 16:29:16.594
150.0, -5827.68092485439, -5620.68141945379, -5885.415480782447, -5902.02282691274, -44397.180604598594, -53857.668204029585, -87436.04569864819, -60505.635798649295, 0.058, 0.9380000000000001, 0.342, 192.0, 0.0, 0.0, 0.0, 0.0, 0.0, 0.0, 0.0, 0.0, 0.0, 1.7393885565944984E9, 0.0, 2025-02-12 16:29:16.594
151.0, -5691.402338910382, -5500.339627306417, -5935.192815684416, -5932.7564755387875, -44396.75592145394, -53864.19491341054, -87489.57812661864, -60529.820386149935, 0.058, 0.9380000000000001, 0.342, 192.0, 0.0, 0.0, 0.0, 0.0, 0.0, 0.0, 0.0, 0.0, 0.0, 1.7393885565945163E9, 0.0, 2025-02-12 16:29:16.594
152.0, -5817.265011938216, -5577.430793932771, -5931.750647038299, -5912.081111917629, -44391.391502784674, -53820.69841870051, -87460.40910010447, -60489.83311531939, 0.058, 0.9380000000000001, 0.342, 192.0, 0.0, 0.0, 0.0, 0.0, 0.0, 0.0, 0.0, 0.0, 0.0, 1.739388556594534E9, 0.0, 2025-02-12 16:29:16.594
153.0, -5975.180086514961, -5713.999952554697, -5885.706053460366, -5882.532105747713, -44392.509090007436, -53813.769377919365, -87400.59583194206, -60464.28507140697, 0.058, 0.9380000000000001, 0.342, 192.0, 0.0, 0.0, 0.0, 0.0, 0.0, 0.0, 0.0, 0.0, 0.0, 1.7393885565945516E9, 0.0, 2025-02-12 16:29:16.594
154.0, -5873.166724820939, -5658.925254216821, -5885.795460438188, -5901.665199001455, -44397.91821216562, -53859.903378475115, -87418.09724785057, -60503.512382926034, 0.058, 0.9380000000000001, 0.342, 192.0, 0.0, 0.0, 0.0, 0.0, 0.0, 0.0, 0.0, 0.0, 0.0, 1.7393885565945697E9, 0.0, 2025-02-12 16:29:16.594
155.0, -5706.668580373357, -5520.702066505202, -5934.857539517587, -5936.3998098850025, -44398.07467437681, -53877.36009089471, -87476.5023561123, -60537.37527577583, 0.058, 0.9380000000000001, 0.342, 192.0, 0.0, 0.0, 0.0, 0.0, 0.0, 0.0, 0.0, 0.0, 0.0, 1.7393885565945873E9, 0.0, 2025-02-12 16:29:16.594
156.0, -5791.5828575590685, -5563.036270503553, -5943.351202410603, -5923.815777756665, -44392.7773109409, -53837.41752355308, -87461.34787337159, -60505.25581899355, 0.058, 0.9380000000000001, 0.342, 192.0, 0.0, 0.0, 0.0, 0.0, 0.0, 0.0, 0.0, 0.0, 0.0, 1.7393885565946133E9, 0.0, 2025-02-12 16:29:16.594
157.0, -5971.782621357754, -5710.669542630857, -5896.412539054459, -5888.16474535045, -44389.78217718389, -53817.65858145459, -87393.13034929399, -60468.241330175566, 0.058, 0.9380000000000001, 0.342, 192.0, 0.0, 0.0, 0.0, 0.0, 0.0, 0.0, 0.0, 0.0, 0.0, 1.7393885565946312E9, 0.0, 2025-02-12 16:29:16.594
158.0, -5912.975181695841, -5691.067062743552, -5883.046195870184, -5896.792518710198, -44392.55379349635, -53857.44468658503, -87390.96223008183, -60496.538638655984, 0.06, 0.9380000000000001, 0.342, 192.0, 1.0, 224.0, 29.0, 80.0, 10.0, 176.0, 0.0, 0.0, 0.0, 1.7393885565946493E9, 0.0, 2025-02-12 16:29:16.594
159.0, -5728.238013772728, -5544.9090057503, -5929.627231315045, -5934.455208117391, -44393.98430514149, -53885.496125876445, -87450.01553893276, -60538.7387321876, 0.06, 0.9380000000000001, 0.342, 192.0, 0.0, 0.0, 0.0, 0.0, 0.0, 0.0, 0.0, 0.0, 0.0, 1.739388556594668E9, 0.0, 2025-02-12 16:29:16.594
160.0, -5768.202932858817, -5551.48041862016, -5951.151961225505, -5932.354144138592, -44390.69859870656, -53853.555483049815, -87451.11077441106, -60518.286886010996, 0.06, 0.9380000000000001, 0.342, 192.0, 0.0, 0.0, 0.0, 0.0, 0.0, 0.0, 0.0, 0.0, 0.0, 1.7393885565946944E9, 0.0, 2025-02-12 16:29:16.594
161.0, -5964.428897431958, -5706.154490250885, -5911.164690394961, -5897.843050699598, -44389.13397659468, -53827.58275599274, -87383.85437534504, -60477.42789714669, 0.06, 0.9380000000000001, 0.342, 192.0, 0.0, 0.0, 0.0, 0.0, 0.0, 0.0, 0.0, 0.0, 0.0, 1.7393885565947196E9, 0.0, 2025-02-12 16:29:16.594
162.0, -5956.583435128145, -5727.500406205703, -5888.902352917476, -5899.273562344738, -44392.73260745199, -53862.60793955421, -87364.9671512803, -60496.98567354509, 0.06, 0.9380000000000001, 0.342, 192.0, 0.0, 0.0, 0.0, 0.0, 0.0, 0.0, 0.0, 0.0, 0.0, 1.739388556594738E9, 0.0, 2025-02-12 16:29:16.594
163.0, -5763.240845589739, -5580.738852112157, -5927.5932225696115, -5934.991649984318, -44392.28557256288, -53896.962570782016, -87417.136122839, -60542.35971478936, 0.06, 0.9380000000000001, 0.342, 192.0, 0.0, 0.0, 0.0, 0.0, 0.0, 0.0, 0.0, 0.0, 0.0, 1.7393885565947573E9, 0.0, 2025-02-12 16:29:16.594
164.0, -5750.813275672588, -5546.0489447175205, -5956.046993261218, -5938.791446541721, -44386.362360282226, -53870.3639948802, -87429.16136135595, -60530.580345461414, 0.06, 0.9380000000000001, 0.342, 192.0, 0.0, 0.0, 0.0, 0.0, 0.0, 0.0, 0.0, 0.0, 0.0, 1.7393885565947764E9, 0.0, 2025-02-12 16:29:16.594
165.0, -5947.821551301665, -5694.93391453432, -5923.3687428675585, -5905.308533347671, -44384.14953758115, -53837.5069305309, -87364.94479953585, -60486.323891439904, 0.06, 0.9380000000000001, 0.342, 192.0, 0.0, 0.0, 0.0, 0.0, 0.0, 0.0, 0.0, 0.0, 0.0, 1.7393885565947983E9, 0.0, 2025-02-12 16:29:16.594
166.0, -5990.647493678033, -5754.970700141275, -5893.350350064082, -5899.0053414112745, -44387.9269823941, -53864.55254132182, -87330.94779621933, -60494.996368288565, 0.06, 0.9380000000000001, 0.342, 192.0, 0.0, 0.0, 0.0, 0.0, 0.0, 0.0, 0.0, 0.0, 0.0, 1.7393885565948174E9, 0.0, 2025-02-12 16:29:16.594
167.0, -5803.652799564934, -5619.452073508749, -5924.843958001609, -5933.471731361357, -44389.223383572506, -53905.500937163946, -87378.2217357423, -60543.1420258453, 0.06, 0.9380000000000001, 0.342, 192.0, 0.0, 0.0, 0.0, 0.0, 0.0, 0.0, 0.0, 0.0, 0.0, 1.7393885565948367E9, 0.0, 2025-02-12 16:29:16.594
168.0, -5744.577138969557, -5550.854569775412, -5963.825400331664, -5948.514455379779, -44387.0776161048, -53891.017006756905, -87408.55305296816, -60546.27127006904, 0.052000000000000005, 0.9420000000000001, 0.34, 192.0, 1.0, 160.0, 29.0, 112.0, 10.0, 160.0, 0.0, 0.0, 0.0, 1.7393885565948558E9, 0.0, 2025-02-12 16:29:16.594
169.0, -5927.526167336246, -5682.126364961429, -5938.724391308355, -5916.618516042056, -44383.23311605849, -53851.67793651557, -87351.98078775177, -60500.11491776883, 0.052000000000000005, 0.9420000000000001, 0.34, 192.0, 0.0, 0.0, 0.0, 0.0, 0.0, 0.0, 0.0, 0.0, 0.0, 1.7393885565948763E9, 0.0, 2025-02-12 16:29:16.594
170.0, -6014.966191645407, -5773.656758505912, -5899.698245489389, -5899.742948978299, -44384.37305502571, -53865.89364598914, -87303.54455751712, -60494.03524327699, 0.052000000000000005, 0.9420000000000001, 0.34, 192.0, 0.0, 0.0, 0.0, 0.0, 0.0, 0.0, 0.0, 0.0, 0.0, 1.7393885565948951E9, 0.0, 2025-02-12 16:29:16.594
171.0, -5848.736268131289, -5660.3334141175055, -5924.016943456762, -5932.644716816511, -44389.156328339144, -53912.58644015628, -87345.118802204, -60543.70081945668, 0.052000000000000005, 0.9420000000000001, 0.34, 192.0, 0.0, 0.0, 0.0, 0.0, 0.0, 0.0, 0.0, 0.0, 0.0, 1.739388556594932E9, 0.0, 2025-02-12 16:29:16.594
172.0, -5743.593662213524, -5558.655328590314, -5968.049880033717, -5954.8847025495415, -44387.45759576054, -53907.91492556512, -87388.52588993621, -60558.341212074905, 0.052000000000000005, 0.9420000000000001, 0.34, 192.0, 0.0, 0.0, 0.0, 0.0, 0.0, 0.0, 0.0, 0.0, 0.0, 1.7393885565949605E9, 0.0, 2025-02-12 16:29:16.594
173.0, -5902.894544946497, -5665.966053720243, -5954.08003974915, -5928.6437545590115, -44384.21659281452, -53867.05593670082, -87345.25291267072, -60515.42586272072, 0.052000000000000005, 0.9420000000000001, 0.34, 192.0, 0.0, 0.0, 0.0, 0.0, 0.0, 0.0, 0.0, 0.0, 0.0, 1.7393885565949788E9, 0.0, 2025-02-12 16:29:16.594
174.0, -6033.316973843214, -5787.0678051790965, -5911.723484006344, -5905.5767542811345, -44385.44593875956, -53871.25806465842, -87287.8536329095, -60498.50559216805, 0.052000000000000005, 0.9420000000000001, 0.34, 192.0, 0.0, 0.0, 0.0, 0.0, 0.0, 0.0, 0.0, 0.0, 0.0, 1.7393885565949976E9, 0.0, 2025-02-12 16:29:16.594
175.0, -5897.485422788313, -5702.4217489268485, -5926.006248713285, -5933.4046761279915, -44391.41385452913, -53919.33666698178, -87318.11789490198, -60544.81840667944, 0.052000000000000005, 0.9420000000000001, 0.34, 192.0, 0.0, 0.0, 0.0, 0.0, 0.0, 0.0, 0.0, 0.0, 0.0, 1.7393885565950153E9, 0.0, 2025-02-12 16:29:16.595
176.0, -5756.200046086317, -5577.743718355146, -5975.403603959514, -5964.495952665324, -44393.000828385455, -53927.919736852615, -87373.55022115115, -60573.07101167095, 0.052000000000000005, 0.9420000000000001, 0.34, 192.0, 0.0, 0.0, 0.0, 0.0, 0.0, 0.0, 0.0, 0.0, 0.0, 1.7393885565950332E9, 0.0, 2025-02-12 16:29:16.595
177.0, -5879.894599901986, -5652.666765769335, -5971.804973102209, -5943.999402999807, -44388.597534727756, -53886.52430612139, -87343.80004928113, -60534.782473419014, 0.052000000000000005, 0.9420000000000001, 0.34, 192.0, 0.0, 0.0, 0.0, 0.0, 0.0, 0.0, 0.0, 0.0, 0.0, 1.7393885565950577E9, 0.0, 2025-02-12 16:29:16.595
178.0, -6038.279061112293, -5788.721834268789, -5922.2511556447935, -5909.711827005366, -44383.21076431403, -53874.05203271533, -87273.79438564711, -60501.6795398807, 0.062, 0.936, 0.34400000000000003, 192.0, 1.0, 240.0, 29.0, 64.0, 10.0, 192.0, 0.0, 0.0, 0.0, 1.7393885565950756E9, 0.0, 2025-02-12 16:29:16.595
179.0, -5937.897376763508, -5734.652964431401, -5921.379437611036, -5926.721504535854, -44385.535345737386, -53916.49799543596, -87285.73021718624, -60537.35292403137, 0.062, 0.936, 0.34400000000000003, 192.0, 0.0, 0.0, 0.0, 0.0, 0.0, 0.0, 0.0, 0.0, 0.0, 1.7393885565950952E9, 0.0, 2025-02-12 16:29:16.595
180.0, -5765.118392123984, -5590.4842126946705, -5968.116935267083, -5959.735031096343, -44385.177717826096, -53932.904175866155, -87344.3141394036, -60572.48986631512, 0.062, 0.936, 0.34400000000000003, 192.0, 0.0, 0.0, 0.0, 0.0, 0.0, 0.0, 0.0, 0.0, 0.0, 1.7393885565951138E9, 0.0, 2025-02-12 16:29:16.595
181.0, -5845.91994832992, -5628.817454435522, -5976.118859782084, -5947.173350712461, -44381.15440382414, -53894.7720998254, -87331.2160171528, -60542.58323223391, 0.062, 0.936, 0.34400000000000003, 192.0, 0.0, 0.0, 0.0, 0.0, 0.0, 0.0, 0.0, 0.0, 0.0, 1.7393885565951316E9, 0.0, 2025-02-12 16:29:16.595
182.0, -6030.992392419862, -5780.541095798147, -5931.504777849291, -5912.639905529011, -44378.516897978414, -53875.504896104925, -87261.7467953857, -60504.1829352597, 0.062, 0.936, 0.34400000000000003, 192.0, 0.0, 0.0, 0.0, 0.0, 0.0, 0.0, 0.0, 0.0, 0.0, 1.7393885565951498E9, 0.0, 2025-02-12 16:29:16.595
183.0, -5976.7223568823765, -5764.7607642126995, -5919.658353287978, -5921.491196333313, -44380.908534635135, -53913.61462040122, -87257.90229533939, -60530.62504895032, 0.062, 0.936, 0.34400000000000003, 192.0, 0.0, 0.0, 0.0, 0.0, 0.0, 0.0, 0.0, 0.0, 0.0, 1.7393885565951676E9, 0.0, 2025-02-12 16:29:16.595
184.0, -5785.6596452784115, -5612.433625749783, -5963.423068931469, -5956.650490361511, -44381.31086603533, -53938.87209163572, -87318.31906060208, -60572.601625037394, 0.062, 0.936, 0.34400000000000003, 192.0, 0.0, 0.0, 0.0, 0.0, 0.0, 0.0, 0.0, 0.0, 0.0, 1.739388556595186E9, 0.0, 2025-02-12 16:29:16.595
185.0, -5821.601250362546, -5614.981724617687, -5985.953627342418, -5956.315214194681, -44381.534383479884, -53909.70306512155, -87326.23157813927, -60556.48601728511, 0.062, 0.936, 0.34400000000000003, 192.0, 0.0, 0.0, 0.0, 0.0, 0.0, 0.0, 0.0, 0.0, 0.0, 1.739388556595206E9, 0.0, 2025-02-12 16:29:16.595
186.0, -6018.8106916917195, -5769.544037526136, -5945.988708256329, -5920.910050977475, -44379.18745031208, -53882.25512293042, -87258.90812383988, -60512.81070861944, 0.062, 0.936, 0.34400000000000003, 192.0, 0.0, 0.0, 0.0, 0.0, 0.0, 0.0, 0.0, 0.0, 0.0, 1.7393885565952313E9, 0.0, 2025-02-12 16:29:16.595
187.0, -6015.010895134318, -5793.840383749054, -5924.687495790422, -5921.871175989053, -44382.20493581354, -53914.374579712705, -87240.51263815316, -60528.88161288281, 0.062, 0.936, 0.34400000000000003, 192.0, 0.0, 0.0, 0.0, 0.0, 0.0, 0.0, 0.0, 0.0, 0.0, 1.73938855659525E9, 0.0, 2025-02-12 16:29:16.595
188.0, -5818.539061372168, -5643.904881942854, -5963.244254975826, -5957.7010223509105, -44383.79190966987, -53947.656327206656, -87299.49889177071, -60575.686165772226, 0.064, 0.9380000000000001, 0.34, 192.0, 2.0, 0.0, 29.0, 80.0, 10.0, 160.0, 0.0, 0.0, 0.0, 1.7393885565952682E9, 0.0, 2025-02-12 16:29:16.595
189.0, -5800.076520452085, -5603.425872734293, -5991.608618689611, -5962.37253694207, -44380.93088637959, -53922.398855972155, -87320.68834551434, -60567.572482534946, 0.064, 0.9380000000000001, 0.34, 192.0, 0.0, 0.0, 0.0, 0.0, 0.0, 0.0, 0.0, 0.0, 0.0, 1.7393885565952876E9, 0.0, 2025-02-12 16:29:16.595
190.0, -5996.391892003047, -5750.90268265041, -5958.326871195659, -5927.8837952475305, -44378.47219448951, -53888.24539044445, -87258.9975308177, -60520.991447090084, 0.064, 0.9380000000000001, 0.34, 192.0, 0.0, 0.0, 0.0, 0.0, 0.0, 0.0, 0.0, 0.0, 0.0, 1.7393885565953066E9, 0.0, 2025-02-12 16:29:16.595
191.0, -6042.592947792166, -5812.884070024976, -5928.107312692084, -5919.904222476986, -44380.81912765731, -53911.67001863361, -87225.26874843464, -60524.65713318076, 0.064, 0.9380000000000001, 0.34, 192.0, 0.0, 0.0, 0.0, 0.0, 0.0, 0.0, 0.0, 0.0, 0.0, 1.7393885565953403E9, 0.0, 2025-02-12 16:29:16.595
192.0, -5851.038497810185, -5672.626873567924, -5956.695193850422, -5951.5989961146115, -44380.908534635135, -53948.19276907358, -87275.62722869245, -60570.45585756968, 0.064, 0.9380000000000001, 0.34, 192.0, 0.0, 0.0, 0.0, 0.0, 0.0, 0.0, 0.0, 0.0, 0.0, 1.7393885565954132E9, 0.0, 2025-02-12 16:29:16.595
193.0, -5783.647988277435, -5595.848631363944, -5993.352054757125, -5965.5688363991785, -44379.76859566791, -53932.680658421596, -87312.82053146607, -60575.1497239053, 0.064, 0.9380000000000001, 0.34, 192.0, 0.0, 0.0, 0.0, 0.0, 0.0, 0.0, 0.0, 0.0, 0.0, 1.739388556595434E9, 0.0, 2025-02-12 16:29:16.595
194.0, -5965.188856743438, -5725.041714315619, -5967.714603866888, -5932.7564755387875, -44376.505240977436, -53892.827498057784, -87260.07041455155, -60527.65226693777, 0.064, 0.9380000000000001, 0.34, 192.0, 0.0, 0.0, 0.0, 0.0, 0.0, 0.0, 0.0, 0.0, 0.0, 1.739388556595456E9, 0.0, 2025-02-12 16:29:16.595
195.0, -6056.518084587823, -5819.366075917015, -5928.934327236931, -5914.584507296623, -44376.68405493308, -53904.316294707816, -87212.2376814172, -60517.236354021596, 0.064, 0.9380000000000001, 0.34, 192.0, 0.0, 0.0, 0.0, 0.0, 0.0, 0.0, 0.0, 0.0, 0.0, 1.7393885565954747E9, 0.0, 2025-02-12 16:29:16.595
196.0, -5888.365911050548, -5703.98637103872, -5951.688403092433, -5945.876949534053, -44380.68501719058, -53947.45516150656, -87256.65059764989, -60564.71145924467, 0.064, 0.9380000000000001, 0.34, 192.0, 0.0, 0.0, 0.0, 0.0, 0.0, 0.0, 0.0, 0.0, 0.0, 1.7393885565954976E9, 0.0, 2025-02-12 16:29:16.595
197.0, -5774.595531773035, -5594.06049180752, -5992.525040212279, -5966.261740477293, -44379.20980205653, -53940.77198991442, -87305.98089766275, -60579.97770070764, 0.064, 0.9380000000000001, 0.34, 192.0, 0.0, 0.0, 0.0, 0.0, 0.0, 0.0, 0.0, 0.0, 0.0, 1.739388556595516E9, 0.0, 2025-02-12 16:29:16.595
198.0, -5928.710809792377, -5695.939743034809, -5975.761231870799, -5937.115065707572, -44375.20883979903, -53897.454309160035, -87265.65835066538, -60534.49190074109, 0.064, 0.9380000000000001, 0.334, 192.0, 2.0, 0.0, 29.0, 80.0, 10.0, 112.0, 0.0, 0.0, 0.0, 1.7393885565955346E9, 0.0, 2025-02-12 16:29:16.595
199.0, -6059.937901489485, -5816.5944596045565, -5930.945984237907, -5910.225917127838, -44373.554810709335, -53896.62729461519, -87206.5379865811, -60510.62023766283, 0.064, 0.9380000000000001, 0.334, 192.0, 0.0, 0.0, 0.0, 0.0, 0.0, 0.0, 0.0, 0.0, 0.0, 1.7393885565955613E9, 0.0, 2025-02-12 16:29:16.595
200.0, -5923.681667289933, -5730.987278340731, -5943.708830321888, -5936.489216862824, -44378.76276716743, -53941.06256259234, -87238.9927195302, -60554.004973650575, 0.064, 0.9380000000000001, 0.334, 192.0, 0.0, 0.0, 0.0, 0.0, 0.0, 0.0, 0.0, 0.0, 0.0, 1.7393885565955791E9, 0.0, 2025-02-12 16:29:16.595
201.0, -5776.964816685298, -5601.302457011039, -5992.480336723368, -5968.519266667279, -44383.30017129185, -53949.91385339664, -87303.63396449495, -60585.36447112137, 0.064, 0.9380000000000001, 0.334, 192.0, 0.0, 0.0, 0.0, 0.0, 0.0, 0.0, 0.0, 0.0, 0.0, 1.7393885565955973E9, 0.0, 2025-02-12 16:29:16.595
202.0, -5894.557344264668, -5670.12347818893, -5986.601827931622, -5946.078115234151, -44379.94740962356, -53906.886745320175, -87279.69524618331, -60545.86893866884, 0.064, 0.9380000000000001, 0.334, 192.0, 0.0, 0.0, 0.0, 0.0, 0.0, 0.0, 0.0, 0.0, 0.0, 1.7393885565956378E9, 0.0, 2025-02-12 16:29:16.595
203.0, -6059.915549745029, -5811.990000246764, -5941.227786687349, -5914.539803807713, -44379.54507822336, -53896.35907368173, -87216.28334716361, -60512.69894989717, 0.064, 0.9380000000000001, 0.334, 192.0, 0.0, 0.0, 0.0, 0.0, 0.0, 0.0, 0.0, 0.0, 0.0, 1.7393885565956576E9, 0.0, 2025-02-12 16:29:16.595
204.0, -5960.785563085743, -5758.457572276303, -5939.663164575478, -5930.297783648704, -44381.69084569107, -53935.74284741197, -87231.50488513766, -60545.37720029083, 0.064, 0.9380000000000001, 0.334, 192.0, 0.0, 0.0, 0.0, 0.0, 0.0, 0.0, 0.0, 0.0, 0.0, 1.7393885565956783E9, 0.0, 2025-02-12 16:29:16.595
205.0, -5780.339930098049, -5607.180965802785, -5983.494935452335, -5961.925502052964, -44381.601438713245, -53949.667984207634, -87297.57664174755, -60580.80471525249, 0.064, 0.9380000000000001, 0.334, 192.0, 0.0, 0.0, 0.0, 0.0, 0.0, 0.0, 0.0, 0.0, 0.0, 1.7393885565956984E9, 0.0, 2025-02-12 16:29:16.595
206.0, -5854.2795007562045, -5638.696925484768, -5989.149926799528, -5947.776847812754, -44379.20980205653, -53910.08304477728, -87292.27927831165, -60550.56280500446, 0.064, 0.9380000000000001, 0.334, 192.0, 0.0, 0.0, 0.0, 0.0, 0.0, 0.0, 0.0, 0.0, 0.0, 1.7393885565957184E9, 0.0, 2025-02-12 16:29:16.595
207.0, -6043.218796636916, -5792.923962226387, -5945.7875425562315, -5913.466920073858, -44380.21563055702, -53891.03935850136, -87228.64386184739, -60510.530830685006, 0.064, 0.9380000000000001, 0.334, 192.0, 0.0, 0.0, 0.0, 0.0, 0.0, 0.0, 0.0, 0.0, 0.0, 1.7393885565957377E9, 0.0, 2025-02-12 16:29:16.595
208.0, -5991.4521564784245, -5778.708252752812, -5933.963469739374, -5921.670010288955, -44383.143709080665, -53926.310411251834, -87228.71091708075, -60533.70958968515, 0.064, 0.934, 0.34, 192.0, 2.0, 0.0, 29.0, 48.0, 10.0, 160.0, 0.0, 0.0, 0.0, 1.7393885565957637E9, 0.0, 2025-02-12 16:29:16.595
209.0, -5796.120261683495, -5622.849538665955, -5977.012929560296, -5957.924539795464, -44385.46829050402, -53951.567882486335, -87298.6048219925, -60578.23426464013, 0.064, 0.934, 0.34, 192.0, 0.0, 0.0, 0.0, 0.0, 0.0, 0.0, 0.0, 0.0, 0.0, 1.7393885565957837E9, 0.0, 2025-02-12 16:29:16.595
210.0, -5822.361209674026, -5616.121663584908, -5994.3355315131585, -5953.700060093411, -44385.06595910382, -53919.269611748416, -87312.2617378547, -60560.50933128707, 0.064, 0.934, 0.34, 192.0, 0.0, 0.0, 0.0, 0.0, 0.0, 0.0, 0.0, 0.0, 0.0, 1.7393885565958037E9, 0.0, 2025-02-12 16:29:16.595
211.0, -6020.241203336859, -5770.125182881973, -5953.118914737573, -5916.082074175129, -44383.79190966987, -53889.47473638949, -87247.70989986777, -60512.45308070816, 0.064, 0.934, 0.34, 192.0, 0.0, 0.0, 0.0, 0.0, 0.0, 0.0, 0.0, 0.0, 0.0, 1.7393885565958235E9, 0.0, 2025-02-12 16:29:16.595
212.0, -6018.229546335882, -5794.935619227364, -5930.722466793355, -5914.718617763355, -44385.311828292826, -53916.94503032506, -87230.40964965936, -60522.84664187988, 0.064, 0.934, 0.34, 192.0, 0.0, 0.0, 0.0, 0.0, 0.0, 0.0, 0.0, 0.0, 0.0, 1.739388556595843E9, 0.0, 2025-02-12 16:29:16.595
213.0, -5817.3544189160375, -5640.976803419209, -5967.669900377978, -5950.257891447293, -44386.854098660246, -53947.94689988458, -87297.21901383628, -60569.874712213845, 0.064, 0.934, 0.34, 192.0, 0.0, 0.0, 0.0, 0.0, 0.0, 0.0, 0.0, 0.0, 0.0, 1.7393885565958612E9, 0.0, 2025-02-12 16:29:16.595
214.0, -5790.957008714319, -5592.96525632921, -5992.7485576568315, -5953.6553566044995, -44385.40123527065, -53921.88476584969, -87326.72331651728, -60562.69980224369, 0.064, 0.934, 0.34, 192.0, 0.0, 0.0, 0.0, 0.0, 0.0, 0.0, 0.0, 0.0, 0.0, 1.7393885565958788E9, 0.0, 2025-02-12 16:29:16.595
215.0, -5988.5240779547785, -5740.464417989781, -5960.271472963271, -5918.943097465408, -44386.80939517134, -53887.95481776653, -87271.08982456801, -60514.75531038706, 0.064, 0.934, 0.34, 192.0, 0.0, 0.0, 0.0, 0.0, 0.0, 0.0, 0.0, 0.0, 0.0, 1.7393885565958967E9, 0.0, 2025-02-12 16:29:16.595
216.0, -6039.91073845753, -5806.737340299766, -5931.88475750503, -5911.2764491172375, -44391.21268882903, -53909.63600988818, -87241.92079805385, -60515.44821446517, 0.064, 0.934, 0.34, 192.0, 0.0, 0.0, 0.0, 0.0, 0.0, 0.0, 0.0, 0.0, 0.0, 1.7393885565959153E9, 0.0, 2025-02-12 16:29:16.595
217.0, -5847.797494864166, -5666.256626398162, -5960.986728785841, -5944.602900100101, -44392.15146209615, -53945.71172543904, -87300.08003712655, -60562.69980224369, 0.064, 0.934, 0.34, 192.0, 0.0, 0.0, 0.0, 0.0, 0.0, 0.0, 0.0, 0.0, 0.0, 1.7393885565959554E9, 0.0, 2025-02-12 16:29:16.595
218.0, -5770.415755559892, -5580.068299778498, -5992.4579849789125, -5955.443496160924, -44388.70929345003, -53927.360943241234, -87341.9672062358, -60566.49959880109, 0.06, 0.934, 0.34, 192.0, 1.0, 224.0, 29.0, 48.0, 10.0, 160.0, 0.0, 0.0, 0.0, 1.7393885565959864E9, 0.0, 2025-02-12 16:29:16.595
219.0, -5949.2520629468045, -5705.528641406137, -5964.94298755443, -5920.6641817884665, -44386.74233993797, -53885.76434680991, -87294.11212135699, -60516.29758075447, 0.06, 0.934, 0.34, 192.0, 0.0, 0.0, 0.0, 0.0, 0.0, 0.0, 0.0, 0.0, 0.0, 1.739388556596007E9, 0.0, 2025-02-12 16:29:16.596
220.0, -6045.431619337991, -5803.026950720186, -5927.280298147238, -5902.000475168285, -44388.597534727756, -53895.01796901441, -87250.95090281378, -60501.90305732525, 0.06, 0.934, 0.34, 192.0, 0.0, 0.0, 0.0, 0.0, 0.0, 0.0, 0.0, 0.0, 0.0, 1.7393885565960267E9, 0.0, 2025-02-12 16:29:16.596
221.0, -5876.832410911609, -5687.289617930605, -5949.587339113634, -5933.5164348502685, -44392.3302760518, -53936.033420089894, -87301.13056911595, -60548.57349974794, 0.06, 0.934, 0.34, 192.0, 0.0, 0.0, 0.0, 0.0, 0.0, 0.0, 0.0, 0.0, 0.0, 1.7393885565960455E9, 0.0, 2025-02-12 16:29:16.596
222.0, -5757.228226331262, -5572.871038063889, -5989.641665177544, -5955.085868249639, -44392.374979540706, -53930.46783572053, -87358.79806981064, -60567.483075557124, 0.06, 0.934, 0.34, 192.0, 0.0, 0.0, 0.0, 0.0, 0.0, 0.0, 0.0, 0.0, 0.0, 1.7393885565960646E9, 0.0, 2025-02-12 16:29:16.596
223.0, -5909.734178749822, -5672.403356123371, -5972.542580669235, -5925.872138246553, -44390.25156381745, -53887.597189855245, -87324.46579032729, -60521.773758146024, 0.06, 0.934, 0.34, 192.0, 0.0, 0.0, 0.0, 0.0, 0.0, 0.0, 0.0, 0.0, 0.0, 1.7393885565961077E9, 0.0, 2025-02-12 16:29:16.596
224.0, -6046.4597995829345, -5796.567296572602, -5929.806045270687, -5899.206507111372, -44390.765653939925, -53885.630236343175, -87270.08399606754, -60494.68344386619, 0.06, 0.934, 0.34, 192.0, 0.0, 0.0, 0.0, 0.0, 0.0, 0.0, 0.0, 0.0, 0.0, 1.739388556596128E9, 0.0, 2025-02-12 16:29:16.596
225.0, -5910.069454916651, -5710.55778390858, -5942.054801232195, -5925.223937657349, -44395.19129934208, -53927.07037056331, -87307.56787151907, -60536.05652285297, 0.06, 0.934, 0.34, 192.0, 0.0, 0.0, 0.0, 0.0, 0.0, 0.0, 0.0, 0.0, 0.0, 1.739388556596151E9, 0.0, 2025-02-12 16:29:16.596
226.0, -5752.959043140298, -5571.619340374392, -5985.171316286483, -5953.722411837865, -44396.08536912029, -53931.853643876755, -87376.56770665261, -60566.164322634264, 0.06, 0.934, 0.34, 192.0, 0.0, 0.0, 0.0, 0.0, 0.0, 0.0, 0.0, 0.0, 0.0, 1.7393885565961697E9, 0.0, 2025-02-12 16:29:16.596
227.0, -5866.327091017615, -5635.992364405676, -5977.281150493759, -5929.6495830595, -44393.06788361882, -53888.17833521108, -87357.97105526579, -60525.99823784808, 0.06, 0.934, 0.34, 192.0, 0.0, 0.0, 0.0, 0.0, 0.0, 0.0, 0.0, 0.0, 0.0, 1.7393885565961924E9, 0.0, 2025-02-12 16:29:16.596
228.0, -6038.547282045756, -5783.156249899417, -5935.4610366178795, -5899.83235595612, -44395.83949993128, -53878.634140328664, -87299.36478130399, -60491.241275220076, 0.068, 0.9400000000000001, 0.34400000000000003, 192.0, 2.0, 32.0, 29.0, 96.0, 10.0, 192.0, 0.0, 0.0, 0.0, 1.7393885565962117E9, 0.0, 2025-02-12 16:29:16.596
229.0, -5942.74770531031, -5732.529548708147, -5935.416333128969, -5916.819681742154, -44397.962915654534, -53916.81091985833, -87318.02848792417, -60522.57842094641, 0.068, 0.9400000000000001, 0.34400000000000003, 192.0, 0.0, 0.0, 0.0, 0.0, 0.0, 0.0, 0.0, 0.0, 0.0, 1.739388556596233E9, 0.0, 2025-02-12 16:29:16.596
230.0, -5756.244749575228, -5576.0449857765425, -5977.012929560296, -5948.268586190771, -44396.68886622058, -53929.50671070894, -87389.55407018114, -60559.7940754645, 0.068, 0.9400000000000001, 0.34400000000000003, 192.0, 0.0, 0.0, 0.0, 0.0, 0.0, 0.0, 0.0, 0.0, 0.0, 1.739388556596254E9, 0.0, 2025-02-12 16:29:16.596
231.0, -5826.742151587267, -5603.962314601221, -5982.153830785016, -5934.566966839668, -44396.21947958702, -53891.24052420146, -87390.69400914837, -60531.34030477289, 0.068, 0.9400000000000001, 0.34400000000000003, 192.0, 0.0, 0.0, 0.0, 0.0, 0.0, 0.0, 0.0, 0.0, 0.0, 1.739388556596274E9, 0.0, 2025-02-12 16:29:16.596
232.0, -6019.14596785855, -5760.111601365996, -5939.864330275575, -5899.4747280448355, -44397.91821216562, -53870.408698369116, -87328.77967700717, -60487.19560947366, 0.068, 0.9400000000000001, 0.34400000000000003, 192.0, 0.0, 0.0, 0.0, 0.0, 0.0, 0.0, 0.0, 0.0, 0.0, 1.7393885565962932E9, 0.0, 2025-02-12 16:29:16.596
233.0, -5969.458039934402, -5747.572272726568, -5927.45911210288, -5906.269658359249, -44398.40995054364, -53902.14817549565, -87329.13730491845, -60506.21694400513, 0.068, 0.9400000000000001, 0.34400000000000003, 192.0, 0.0, 0.0, 0.0, 0.0, 0.0, 0.0, 0.0, 0.0, 0.0, 1.7393885565963244E9, 0.0, 2025-02-12 16:29:16.596
234.0, -5767.130049124962, -5585.678587636779, -5966.239388732838, -5940.043144231217, -44396.420645287115, -53923.65055366165, -87400.1264453085, -60549.6910869707, 0.068, 0.9400000000000001, 0.34400000000000003, 192.0, 0.0, 0.0, 0.0, 0.0, 0.0, 0.0, 0.0, 0.0, 0.0, 1.7393885565963435E9, 0.0, 2025-02-12 16:29:16.596
235.0, -5787.425433090381, -5573.3404246974505, -5981.058595306707, -5934.589318584123, -44394.744264452966, -53890.748785823445, -87416.46557050533, -60532.25672629556, 0.068, 0.9400000000000001, 0.34400000000000003, 192.0, 0.0, 0.0, 0.0, 0.0, 0.0, 0.0, 0.0, 0.0, 0.0, 1.7393885565963624E9, 0.0, 2025-02-12 16:29:16.596
236.0, -5990.535734955756, -5731.523720207658, -5943.530016366246, -5899.273562344738, -44397.337066809785, -53863.16673316559, -87356.5181918762, -60484.15577222774, 0.068, 0.9400000000000001, 0.34400000000000003, 192.0, 0.0, 0.0, 0.0, 0.0, 0.0, 0.0, 0.0, 0.0, 0.0, 1.7393885565963807E9, 0.0, 2025-02-12 16:29:16.596
237.0, -5994.871973380086, -5761.743278711233, -5923.860481245575, -5899.720597233844, -44400.37690405571, -53890.79348931235, -87341.94485449135, -60493.58820838788, 0.068, 0.9400000000000001, 0.34400000000000003, 192.0, 0.0, 0.0, 0.0, 0.0, 0.0, 0.0, 0.0, 0.0, 0.0, 1.7393885565963986E9, 0.0, 2025-02-12 16:29:16.596
238.0, -5793.1698314153955, -5607.695055925257, -5961.32200495267, -5937.427990129947, -44401.941526167575, -53923.20351877255, -87412.01757335872, -60543.87963341232, 0.068, 0.9380000000000001, 0.34400000000000003, 192.0, 2.0, 32.0, 29.0, 80.0, 10.0, 192.0, 0.0, 0.0, 0.0, 1.7393885565964236E9, 0.0, 2025-02-12 16:29:16.596
239.0, -5761.8103339446, -5555.771953555579, -5985.216019775394, -5941.004269242796, -44399.996924399966, -53898.080158004785, -87444.04762316319, -60538.96224963215, 0.068, 0.9380000000000001, 0.34400000000000003, 192.0, 0.0, 0.0, 0.0, 0.0, 0.0, 0.0, 0.0, 0.0, 0.0, 1.7393885565964432E9, 0.0, 2025-02-12 16:29:16.596
240.0, -5958.796257829221, -5702.086472760019, -5950.906092036497, -5903.386283324514, -44399.19226159957, -53861.579759309265, -87386.17895676839, -60486.480353651095, 0.068, 0.9380000000000001, 0.34400000000000003, 192.0, 0.0, 0.0, 0.0, 0.0, 0.0, 0.0, 0.0, 0.0, 0.0, 1.7393885565964615E9, 0.0, 2025-02-12 16:29:16.596
241.0, -6015.502633512335, -5772.539171283147, -5923.972239967852, -5895.965504165352, -44403.10381687925, -53882.210419441515, -87355.49001163126, -60484.33458618338, 0.068, 0.9380000000000001, 0.34400000000000003, 192.0, 0.0, 0.0, 0.0, 0.0, 0.0, 0.0, 0.0, 0.0, 0.0, 1.739388557073775E9, 0.0, 2025-02-12 16:29:17.073
242.0, -5824.909308541931, -5634.2712800826175, -5955.108219994095, -5932.488254605324, -44405.67426749162, -53920.588364671275, -87416.75614318326, -60535.65419145277, 0.068, 0.9380000000000001, 0.34400000000000003, 192.0, 0.0, 0.0, 0.0, 0.0, 0.0, 0.0, 0.0, 0.0, 0.0, 1.7393885570738232E9, 0.0, 2025-02-12 16:29:17.073
243.0, -5742.543130224125, -5544.283156905551, -5985.059557564206, -5943.619423344067, -44402.34385756777, -53903.444576674054, -87461.12435592704, -60542.51617700055, 0.068, 0.9380000000000001, 0.34400000000000003, 192.0, 0.0, 0.0, 0.0, 0.0, 0.0, 0.0, 0.0, 0.0, 0.0, 1.739388557073854E9, 0.0, 2025-02-12 16:29:17.073
244.0, -5921.938231222419, -5670.0787747000195, -5957.27633920626, -5907.923687448942, -44400.22044184452, -53862.09384943174, -87411.2799657917, -60490.458964164136, 0.068, 0.9380000000000001, 0.34400000000000003, 192.0, 0.0, 0.0, 0.0, 0.0, 0.0, 0.0, 0.0, 0.0, 0.0, 1.7393885570738747E9, 0.0, 2025-02-12 16:29:17.073
245.0, -6027.974906918395, -5776.674244007379, -5925.0674754461625, -5893.26094308626, -44405.383694813696, -53874.879047260176, -87367.31408444811, -60476.93615876868, 0.068, 0.9380000000000001, 0.34400000000000003, 192.0, 0.0, 0.0, 0.0, 0.0, 0.0, 0.0, 0.0, 0.0, 0.0, 1.7393885570738945E9, 0.0, 2025-02-12 16:29:17.073
246.0, -5857.878131613509, -5660.065193184041, -5944.915824522474, -5923.212280656372, -44405.29428783587, -53914.03930354587, -87413.35867802605, -60522.80193839097, 0.068, 0.9380000000000001, 0.34400000000000003, 192.0, 0.0, 0.0, 0.0, 0.0, 0.0, 0.0, 0.0, 0.0, 0.0, 1.739388557073914E9, 0.0, 2025-02-12 16:29:17.073
247.0, -5730.920223107365, -5539.343421380928, -5980.410394717503, -5942.41242914348, -44401.673305234115, -53907.26672497592, -87469.28274265323, -60542.31501130045, 0.068, 0.9380000000000001, 0.34400000000000003, 192.0, 0.0, 0.0, 0.0, 0.0, 0.0, 0.0, 0.0, 0.0, 0.0, 1.7393885570739331E9, 0.0, 2025-02-12 16:29:17.073
248.0, -5884.454355770869, -5640.149788874363, -5964.831228832153, -5914.539803807713, -44401.98622965649, -53866.92182623409, -87435.2410358478, -60497.812688089936, 0.064, 0.9380000000000001, 0.34400000000000003, 192.0, 2.0, 0.0, 29.0, 80.0, 10.0, 192.0, 0.0, 0.0, 0.0, 1.739388557073986E9, 0.0, 2025-02-12 16:29:17.073
249.0, -6029.472473796902, -5772.226246860772, -5926.252117902293, -5890.489326773802, -44405.00371515795, -53866.966529722995, -87378.40054969795, -60470.20828368763, 0.064, 0.9380000000000001, 0.34400000000000003, 192.0, 0.0, 0.0, 0.0, 0.0, 0.0, 0.0, 0.0, 0.0, 0.0, 1.7393885570740073E9, 0.0, 2025-02-12 16:29:17.074
250.0, -5893.819736697643, -5687.535487119614, -5936.578623840645, -5914.808024741176, -44405.160177369144, -53906.5738208978, -87409.24595704627, -60509.83792660689, 0.064, 0.9380000000000001, 0.34400000000000003, 192.0, 0.0, 0.0, 0.0, 0.0, 0.0, 0.0, 0.0, 0.0, 0.0, 1.739388557074062E9, 0.0, 2025-02-12 16:29:17.074
251.0, -5730.741409151722, -5544.149046438819, -5975.627121404067, -5941.138379709528, -44401.47213953402, -53910.664190133124, -87472.90372525499, -60540.75038918858, 0.064, 0.9380000000000001, 0.34400000000000003, 192.0, 0.0, 0.0, 0.0, 0.0, 0.0, 0.0, 0.0, 0.0, 0.0, 1.739388557074082E9, 0.0, 2025-02-12 16:29:17.074
252.0, -5846.63520415249, -5611.114872826919, -5971.000310301818, -5920.731237021832, -44401.78506395639, -53871.74980303643, -87454.19531514589, -60504.585266659895, 0.064, 0.9380000000000001, 0.34400000000000003, 192.0, 0.0, 0.0, 0.0, 0.0, 0.0, 0.0, 0.0, 0.0, 0.0, 1.7393885570741076E9, 0.0, 2025-02-12 16:29:17.074
253.0, -6023.661020238522, -5762.4138310448925, -5930.990687726819, -5891.159879107461, -44404.62373550222, -53861.91503547609, -87390.85047135955, -60467.25785341953, 0.064, 0.9380000000000001, 0.34400000000000003, 192.0, 0.0, 0.0, 0.0, 0.0, 0.0, 0.0, 0.0, 0.0, 0.0, 1.739388557074129E9, 0.0, 2025-02-12 16:29:17.074
254.0, -5932.4659028608685, -5716.659810144879, -5932.734123794333, -5909.935344449919, -44406.92596518111, -53901.3211609508, -87407.18959655639, -60499.73493811309, 0.064, 0.9380000000000001, 0.34400000000000003, 192.0, 0.0, 0.0, 0.0, 0.0, 0.0, 0.0, 0.0, 0.0, 0.0, 1.739388557074163E9, 0.0, 2025-02-12 16:29:17.074
255.0, -5742.610185457491, -5558.521218123582, -5972.006138802307, -5940.870158776064, -44403.12616862371, -53914.91102157963, -87474.69186481141, -60539.27517405453, 0.064, 0.9380000000000001, 0.34400000000000003, 192.0, 0.0, 0.0, 0.0, 0.0, 0.0, 0.0, 0.0, 0.0, 0.0, 1.7393885570741816E9, 0.0, 2025-02-12 16:29:17.074
0.0, -5809.687770567867, -5584.0916137804525, -5975.47065919288, -5926.02860045774, -44400.44395928907, -53876.91305600561, -87469.95329498689, -60510.88845859629, 0.064, 0.9380000000000001, 0.34400000000000003, 192.0, 0.0, 0.0, 0.0, 0.0, 0.0, 0.0, 0.0, 0.0, 0.0, 1.7393885570741997E9, 0.0, 2025-02-12 16:29:17.074
1.0, -6006.226659563382, -5743.973641869265, -5934.723429050855, -5891.338693063104, -44401.539194767385, -53856.461209829, -87401.7804743982, -60464.97797548509, 0.064, 0.9380000000000001, 0.34400000000000003, 192.0, 0.0, 0.0, 0.0, 0.0, 0.0, 0.0, 0.0, 0.0, 0.0, 1.7393885570742264E9, 0.0, 2025-02-12 16:29:17.074
2.0, -5964.384193943048, -5739.056258089096, -5926.386228369025, -5902.000475168285, -44403.84142444628, -53891.91107653512, -87399.61235518604, -60486.815629817924, 0.062, 0.9440000000000001, 0.34600000000000003, 192.0, 1.0, 240.0, 29.0, 128.0, 10.0, 208.0, 0.0, 0.0, 0.0, 1.7393885570742457E9, 0.0, 2025-02-12 16:29:17.074
3.0, -5763.129086867462, -5579.174230000285, -5966.798182344221, -5938.791446541721, -44403.19322385707, -53917.5261756809, -87469.97564673134, -60535.69889494168, 0.062, 0.9440000000000001, 0.34600000000000003, 192.0, 0.0, 0.0, 0.0, 0.0, 0.0, 0.0, 0.0, 0.0, 0.0, 1.7393885570742664E9, 0.0, 2025-02-12 16:29:17.074
4.0, -5780.854020220521, -5565.1820379712635, -5981.572685429178, -5934.209338928383, -44401.69565697857, -53886.59136135475, -87484.14665271601, -60520.76792964553, 0.062, 0.9440000000000001, 0.34600000000000003, 192.0, 0.0, 0.0, 0.0, 0.0, 0.0, 0.0, 0.0, 0.0, 0.0, 1.7393885570742857E9, 0.0, 2025-02-12 16:29:17.074
5.0, -5984.143136041539, -5723.410036970382, -5943.038277988229, -5896.636056499012, -44401.36038081174, -53856.79648599583, -87416.91260539443, -60469.04599297595, 0.062, 0.9440000000000001, 0.34600000000000003, 192.0, 0.0, 0.0, 0.0, 0.0, 0.0, 0.0, 0.0, 0.0, 0.0, 1.7393885570743046E9, 0.0, 2025-02-12 16:29:17.074
6.0, -5993.933200112963, -5759.195179843328, -5925.179234168439, -5898.155975121972, -44403.68496223509, -53885.3173119208, -87396.9301458514, -60478.45607739164, 0.062, 0.9440000000000001, 0.34600000000000003, 192.0, 0.0, 0.0, 0.0, 0.0, 0.0, 0.0, 0.0, 0.0, 0.0, 1.7393885570743237E9, 0.0, 2025-02-12 16:29:17.074
7.0, -5789.4147383469035, -5603.559983201026, -5959.109182251595, -5933.5164348502685, -44400.82393894481, -53916.4756436915, -87459.60443730408, -60528.56868846044, 0.062, 0.9440000000000001, 0.34600000000000003, 192.0, 0.0, 0.0, 0.0, 0.0, 0.0, 0.0, 0.0, 0.0, 0.0, 1.7393885570743425E9, 0.0, 2025-02-12 16:29:17.074
8.0, -5754.277796063161, -5548.686450563247, -5981.796202873731, -5936.645679074011, -44397.180604598594, -53892.24635270195, -87487.67822833994, -60525.39474074778, 0.062, 0.9440000000000001, 0.34600000000000003, 192.0, 0.0, 0.0, 0.0, 0.0, 0.0, 0.0, 0.0, 0.0, 0.0, 1.739388557074368E9, 0.0, 2025-02-12 16:29:17.074
9.0, -5955.3540891831035, -5698.621952369446, -5952.0683827481735, -5903.185117624416, -44399.438130788585, -53859.1657709081, -87429.42958228942, -60475.52799886799, 0.062, 0.9440000000000001, 0.34600000000000003, 192.0, 0.0, 0.0, 0.0, 0.0, 0.0, 0.0, 0.0, 0.0, 0.0, 1.7393885570743868E9, 0.0, 2025-02-12 16:29:17.074
