%OpenBCI Raw EXG Data
%Number of channels = 8
%Sample Rate = 250 Hz
%Board = OpenBCI_GUI$BoardCytonSerial
Sample Index, EXG Channel 0, EXG Channel 1, EXG Channel 2, EXG Channel 3, EXG Channel 4, EXG Channel 5, EXG Channel 6, EXG Channel 7, Accel Channel 0, Accel Channel 1, Accel Channel 2, Not Used, Digital Channel 0 (D11), Digital Channel 1 (D12), Digital Channel 2 (D13), Digital Channel 3 (D17), Not Used, Digital Channel 4 (D18), Analog Channel 0, Analog Channel 1, Analog Channel 2, Timestamp, Marker Channel, Timestamp (Formatted)
9.0, -6850.139123217956, -6248.899549114651, -7069.275625857786, 0.0, -47942.77077231059, -33773.552927202334, -89354.04889035808, -62885.09075463901, 0.0, 0.0, 0.0, 192.0, 0.0, 0.0, 0.0, 0.0, 0.0, 0.0, 0.0, 0.0, 0.0, 1.7393885970270295E9, 0.0, 2025-02-12 16:29:57.027
10.0, -7067.353375834629, -6402.679550967164, -7066.861637456613, 0.0, -47946.3694031679, -33743.847458821234, -89325.50571268865, -62873.6913649668, 0.044, 0.964, 0.35000000000000003, 192.0, 1.0, 96.0, 30.0, 32.0, 10.0, 240.0, 0.0, 0.0, 0.0, 1.7393885970270705E9, 0.0, 2025-02-12 16:29:57.027
11.0, -6984.361348672074, -6338.7759135694405, -7096.611809326627, 0.0, -47970.84456334646, -33759.60543866223, -89336.07808781601, -62884.26374009416, 0.044, 0.964, 0.35000000000000003, 192.0, 0.0, 0.0, 0.0, 0.0, 0.0, 0.0, 0.0, 0.0, 0.0, 1.739388597027098E9, 0.0, 2025-02-12 16:29:57.027
12.0, -6763.324947753543, -6164.7899347293305, -7107.497108876361, 0.0, -47977.99712157215, -33792.17193033361, -89368.95750390977, -62900.33464435752, 0.044, 0.964, 0.35000000000000003, 192.0, 0.0, 0.0, 0.0, 0.0, 0.0, 0.0, 0.0, 0.0, 0.0, 1.739388597027134E9, 0.0, 2025-02-12 16:29:57.027
13.0, -6822.892346726936, -6202.027940991872, -7083.4242800979955, 0.0, -47962.95439755373, -33787.38865702017, -89364.4424515298, -62894.97022568825, 0.044, 0.964, 0.35000000000000003, 192.0, 0.0, 0.0, 0.0, 0.0, 0.0, 0.0, 0.0, 0.0, 0.0, 1.7393885970271585E9, 0.0, 2025-02-12 16:29:57.027
14.0, -7054.456419283917, -6379.254922778002, -7070.840247969658, 0.0, -47963.4237841873, -33763.89697359764, -89332.16653253634, -62880.88862668141, 0.044, 0.964, 0.35000000000000003, 192.0, 0.0, 0.0, 0.0, 0.0, 0.0, 0.0, 0.0, 0.0, 0.0, 1.7393885970272088E9, 0.0, 2025-02-12 16:29:57.027
15.0, -7027.835491637647, -6361.351175469301, -7094.756614536836, 0.0, -47985.999046087156, -33772.68120916858, -89333.35117499247, -62887.504743040176, 0.044, 0.964, 0.35000000000000003, 192.0, 0.0, 0.0, 0.0, 0.0, 0.0, 0.0, 0.0, 0.0, 0.0, 1.7393885970272324E9, 0.0, 2025-02-12 16:29:57.027
16.0, -6796.96432315878, -6172.367176099679, -7114.3590944241405, 0.0, -47995.722054925216, -33802.431381038594, -89368.86809693195, -62906.41431884937, 0.044, 0.964, 0.35000000000000003, 192.0, 0.0, 0.0, 0.0, 0.0, 0.0, 0.0, 0.0, 0.0, 0.0, 1.7393885970272558E9, 0.0, 2025-02-12 16:29:57.027
17.0, -6798.439538292831, -6152.384716556635, -7097.505879104839, 0.0, -47983.24978151915, -33804.93477641759, -89376.57944876903, -62906.12374617145, 0.044, 0.964, 0.35000000000000003, 192.0, 0.0, 0.0, 0.0, 0.0, 0.0, 0.0, 0.0, 0.0, 0.0, 1.7393885970272796E9, 0.0, 2025-02-12 16:29:57.027
18.0, -7035.077456841166, -6324.515500606954, -7079.557428307227, 0.0, -47980.031130317584, -33785.801683163845, -89345.62228269843, -62891.75157448668, 0.044, 0.964, 0.35000000000000003, 192.0, 0.0, 0.0, 0.0, 0.0, 0.0, 0.0, 0.0, 0.0, 0.0, 1.7393885970273032E9, 0.0, 2025-02-12 16:29:57.027
19.0, -7067.77805897928, -6360.881788835739, -7096.298884904252, 0.0, -47998.94070612678, -33788.99798262095, -89338.15680005036, -62893.85263846548, 0.044, 0.964, 0.35000000000000003, 192.0, 0.0, 0.0, 0.0, 0.0, 0.0, 0.0, 0.0, 0.0, 0.0, 1.7393885970273268E9, 0.0, 2025-02-12 16:29:57.027
20.0, -6838.270346912187, -6199.278676423869, -7120.1705479825205, 0.0, -48010.85418592145, -33816.44592481207, -89371.93028592232, -62913.388063119426, 0.06, 0.974, 0.356, 192.0, 1.0, 224.0, 30.0, 112.0, 11.0, 32.0, 0.0, 0.0, 0.0, 1.7393885970273612E9, 0.0, 2025-02-12 16:29:57.027
21.0, -6773.562046714073, -6150.775390955853, -7105.708969319937, 0.0, -47995.34207526947, -33819.82103822482, -89382.90499244988, -62913.723339286254, 0.06, 0.974, 0.356, 192.0, 0.0, 0.0, 0.0, 0.0, 0.0, 0.0, 0.0, 0.0, 0.0, 1.7393885970273867E9, 0.0, 2025-02-12 16:29:57.027
22.0, -6992.0503487647, -6314.211346413058, -7078.842172484658, 0.0, -47984.45677571974, -33796.68698271358, -89350.22674205623, -62894.47848731023, 0.06, 0.974, 0.356, 192.0, 0.0, 0.0, 0.0, 0.0, 0.0, 0.0, 0.0, 0.0, 0.0, 1.7393885970274096E9, 0.0, 2025-02-12 16:29:57.027
23.0, -7084.385405109573, -6388.307379282401, -7089.392195867562, 0.0, -48002.1817090728, -33795.32352630181, -89336.54747444957, -62893.2938448541, 0.06, 0.974, 0.356, 192.0, 0.0, 0.0, 0.0, 0.0, 0.0, 0.0, 0.0, 0.0, 0.0, 1.7393885970274327E9, 0.0, 2025-02-12 16:29:57.027
24.0, -6873.317882218109, -6229.811159349819, -7114.716722335425, 0.0, -48014.36340980094, -33820.17866613611, -89364.48715501871, -62910.79526076261, 0.06, 0.974, 0.356, 192.0, 0.0, 0.0, 0.0, 0.0, 0.0, 0.0, 0.0, 0.0, 0.0, 1.7393885970274556E9, 0.0, 2025-02-12 16:29:57.027
25.0, -6751.880854592426, -6130.368248268158, -7107.228887942897, 0.0, -47999.29833403806, -33828.69468077358, -89381.96621918277, -62914.63976080892, 0.06, 0.974, 0.356, 192.0, 0.0, 0.0, 0.0, 0.0, 0.0, 0.0, 0.0, 0.0, 0.0, 1.7393885970275843E9, 0.0, 2025-02-12 16:29:57.027
26.0, -6944.9552231973685, -6271.295997058868, -7079.624483540593, 0.0, -47987.72013041021, -33806.857026440746, -89357.71457644875, -62896.82542047804, 0.06, 0.974, 0.356, 192.0, 0.0, 0.0, 0.0, 0.0, 0.0, 0.0, 0.0, 0.0, 0.0, 1.7393885970276172E9, 0.0, 2025-02-12 16:29:57.027
27.0, -7088.006387711333, -6386.161611814691, -7079.35626260713, 0.0, -48002.94166838428, -33795.725857702004, -89336.94980584977, -62888.82349596304, 0.06, 0.974, 0.356, 192.0, 0.0, 0.0, 0.0, 0.0, 0.0, 0.0, 0.0, 0.0, 0.0, 1.7393885970276425E9, 0.0, 2025-02-12 16:29:57.027
28.0, -6910.287667547187, -6261.95296787655, -7105.105472219643, 0.0, -48017.20208134676, -33819.32929984681, -89358.60864622696, -62905.9449322158, 0.06, 0.974, 0.356, 192.0, 0.0, 0.0, 0.0, 0.0, 0.0, 0.0, 0.0, 0.0, 0.0, 1.739388597027668E9, 0.0, 2025-02-12 16:29:57.027
29.0, -6739.699153864283, -6132.379905269135, -7107.3182949207185, 0.0, -48002.74050268418, -33836.09310818829, -89382.36855058296, -62915.13149918694, 0.06, 0.974, 0.356, 192.0, 0.0, 0.0, 0.0, 0.0, 0.0, 0.0, 0.0, 0.0, 0.0, 1.739388597027702E9, 0.0, 2025-02-12 16:29:57.027
30.0, -6890.349911493053, -6239.847092610252, -7078.909227718023, 0.0, -47988.21186878823, -33814.747192233466, -89363.28016081813, -62896.71366175576, 0.056, 0.976, 0.358, 192.0, 1.0, 192.0, 30.0, 128.0, 11.0, 48.0, 0.0, 0.0, 0.0, 1.7393885970277267E9, 0.0, 2025-02-12 16:29:57.027
31.0, -7078.30573061773, -6390.810774661395, -7069.566198535705, 0.0, -48004.21571781823, -33796.865796669226, -89336.32395700502, -62884.576664516535, 0.056, 0.976, 0.358, 192.0, 0.0, 0.0, 0.0, 0.0, 0.0, 0.0, 0.0, 0.0, 0.0, 1.7393885970277562E9, 0.0, 2025-02-12 16:29:57.027
32.0, -6947.458618576363, -6319.329895893324, -7093.191992424964, 0.0, -48020.666601737335, -33819.17283763562, -89352.17134382384, -62901.65339728039, 0.056, 0.976, 0.358, 192.0, 0.0, 0.0, 0.0, 0.0, 0.0, 0.0, 0.0, 0.0, 0.0, 1.7393885970277812E9, 0.0, 2025-02-12 16:29:57.027
33.0, -6730.758456082161, -6181.062004692794, -7100.724530306403, 0.0, -47999.52185148261, -33839.356462878764, -89377.27235284715, -62911.84579275201, 0.056, 0.976, 0.358, 192.0, 0.0, 0.0, 0.0, 0.0, 0.0, 0.0, 0.0, 0.0, 0.0, 1.7393885970278244E9, 0.0, 2025-02-12 16:29:57.027
34.0, -6827.049771195623, -6261.930616132095, -7076.3834805945735, 0.0, -47981.528697196096, -33819.39635508017, -89363.9954166407, -62893.942045443306, 0.056, 0.976, 0.358, 192.0, 0.0, 0.0, 0.0, 0.0, 0.0, 0.0, 0.0, 0.0, 0.0, 1.7393885970278492E9, 0.0, 2025-02-12 16:29:57.027
35.0, -7053.517646016794, -6437.727086273085, -7060.737259475859, 0.0, -48004.238069562685, -33796.64227922467, -89338.11209656145, -62880.82157144804, 0.056, 0.976, 0.358, 192.0, 0.0, 0.0, 0.0, 0.0, 0.0, 0.0, 0.0, 0.0, 0.0, 1.7393885970278814E9, 0.0, 2025-02-12 16:29:57.027
36.0, -6984.853087050091, -6401.785481188951, -7083.40192835354, 0.0, -48026.053372151066, -33819.95514869155, -89351.23257055672, -62900.15583040188, 0.056, 0.976, 0.358, 192.0, 0.0, 0.0, 0.0, 0.0, 0.0, 0.0, 0.0, 0.0, 0.0, 1.7393885970279088E9, 0.0, 2025-02-12 16:29:57.027
37.0, -6746.225863245233, -6230.749932616942, -7101.5068413623385, 0.0, -48005.154491085355, -33847.71601530505, -89377.89820169189, -62915.44442360931, 0.056, 0.976, 0.358, 192.0, 0.0, 0.0, 0.0, 0.0, 0.0, 0.0, 0.0, 0.0, 0.0, 1.7393885970279331E9, 0.0, 2025-02-12 16:29:57.027
38.0, -6783.553276485596, -6250.419467737612, -7081.680844030481, 0.0, -47984.25561001964, -33829.566398807336, -89368.89044867641, -62897.987711189715, 0.056, 0.976, 0.358, 192.0, 0.0, 0.0, 0.0, 0.0, 0.0, 0.0, 0.0, 0.0, 0.0, 1.7393885970279589E9, 0.0, 2025-02-12 16:29:57.027
39.0, -7025.622668936571, -6425.210109378113, -7057.5409600187495, 0.0, -48004.662752707336, -33800.486779270985, -89341.42015474083, -62879.14519061389, 0.056, 0.976, 0.358, 192.0, 0.0, 0.0, 0.0, 0.0, 0.0, 0.0, 0.0, 0.0, 0.0, 1.739388597027982E9, 0.0, 2025-02-12 16:29:57.027
40.0, -7016.5702124321715, -6431.110969914314, -7070.840247969658, 0.0, -48026.23218610671, -33816.66944225662, -89344.16941930883, -62892.623292520446, 0.064, 0.9520000000000001, 0.34600000000000003, 192.0, 2.0, 0.0, 29.0, 192.0, 10.0, 208.0, 0.0, 0.0, 0.0, 1.7393885970280051E9, 0.0, 2025-02-12 16:29:57.028
41.0, -6771.416279246364, -6261.975319621006, -7096.723568048903, 0.0, -48008.7307701982, -33850.10765196176, -89370.96916091075, -62913.07513869705, 0.064, 0.9520000000000001, 0.34600000000000003, 192.0, 0.0, 0.0, 0.0, 0.0, 0.0, 0.0, 0.0, 0.0, 0.0, 1.7393885970280626E9, 0.0, 2025-02-12 16:29:57.028
42.0, -6747.410505701364, -6236.516682686411, -7086.330006877185, 0.0, -47986.64724667636, -33839.624683812224, -89371.81852720006, -62901.563990302566, 0.064, 0.9520000000000001, 0.34600000000000003, 192.0, 0.0, 0.0, 0.0, 0.0, 0.0, 0.0, 0.0, 0.0, 0.0, 1.739388597028087E9, 0.0, 2025-02-12 16:29:57.028
43.0, -6989.748119085803, -6405.965257402094, -7059.306747830719, 0.0, -48004.64040096288, -33808.242834596975, -89346.49400073219, -62880.35218481448, 0.064, 0.9520000000000001, 0.34600000000000003, 192.0, 0.0, 0.0, 0.0, 0.0, 0.0, 0.0, 0.0, 0.0, 0.0, 1.7393885970281103E9, 0.0, 2025-02-12 16:29:57.028
44.0, -7044.576948234671, -6452.970975991604, -7065.632291511571, 0.0, -48030.590776275494, -33818.01054692394, -89342.29187277459, -62889.56110353007, 0.064, 0.9520000000000001, 0.34600000000000003, 192.0, 0.0, 0.0, 0.0, 0.0, 0.0, 0.0, 0.0, 0.0, 0.0, 1.7393885970281365E9, 0.0, 2025-02-12 16:29:57.028
45.0, -6806.910849441391, -6273.441764526578, -7091.202687168442, 0.0, -48015.413941790335, -33854.51094561946, -89366.76703295315, -62912.40458636339, 0.064, 0.9520000000000001, 0.34600000000000003, 192.0, 0.0, 0.0, 0.0, 0.0, 0.0, 0.0, 0.0, 0.0, 0.0, 1.7393885970282545E9, 0.0, 2025-02-12 16:29:57.028
46.0, -6725.505796135163, -6168.299158608814, -7090.68859704597, 0.0, -47991.07289207851, -33855.80734679787, -89375.595972013, -62907.53190607213, 0.064, 0.9520000000000001, 0.34600000000000003, 192.0, 0.0, 0.0, 0.0, 0.0, 0.0, 0.0, 0.0, 0.0, 0.0, 1.7393885970282855E9, 0.0, 2025-02-12 16:29:57.028
47.0, -6959.126229182033, -6281.644854741676, -7067.822762468191, 0.0, -48008.68606670929, -33825.81130573885, -89353.06541360205, -62884.75547847217, 0.064, 0.9520000000000001, 0.34600000000000003, 192.0, 0.0, 0.0, 0.0, 0.0, 0.0, 0.0, 0.0, 0.0, 0.0, 1.7393885970283113E9, 0.0, 2025-02-12 16:29:57.028
48.0, -7084.206591153931, -6339.49116939201, -7071.689614258959, 0.0, -48047.13106717242, -33832.986215708996, -89347.16455306584, -62893.40560357638, 0.064, 0.9520000000000001, 0.34600000000000003, 192.0, 0.0, 0.0, 0.0, 0.0, 0.0, 0.0, 0.0, 0.0, 0.0, 1.7393885970283363E9, 0.0, 2025-02-12 16:29:57.028
49.0, -6879.017577054212, -6173.440059833534, -7101.529193106794, 0.0, -48043.398325848386, -33875.83450982982, -89372.93611442282, -62923.513403357676, 0.064, 0.9520000000000001, 0.34600000000000003, 192.0, 0.0, 0.0, 0.0, 0.0, 0.0, 0.0, 0.0, 0.0, 0.0, 1.7393885970283597E9, 0.0, 2025-02-12 16:29:57.028
50.0, -6740.2132439867555, -6048.918491473019, -7111.587478111682, 0.0, -48014.00578188965, -33887.27860299094, -89387.48710006323, -62926.441481881324, 0.056, 0.9380000000000001, 0.332, 192.0, 1.0, 192.0, 29.0, 80.0, 10.0, 96.0, 0.0, 0.0, 0.0, 1.7393885970283828E9, 0.0, 2025-02-12 16:29:57.028
51.0, -6934.1593306254545, -6160.7442689829195, -7087.000559210845, 0.0, -48024.153473872364, -33852.70045431858, -89367.12466086444, -62900.53581005762, 0.056, 0.9380000000000001, 0.332, 192.0, 0.0, 0.0, 0.0, 0.0, 0.0, 0.0, 0.0, 0.0, 0.0, 1.7393885970284283E9, 0.0, 2025-02-12 16:29:57.028
52.0, -7108.279419932297, -6274.5593517493435, -7074.707099760426, 0.0, -48071.98620700672, -33845.436137370605, -89358.27337006014, -62901.92161821385, 0.056, 0.9380000000000001, 0.332, 192.0, 0.0, 0.0, 0.0, 0.0, 0.0, 0.0, 0.0, 0.0, 0.0, 1.7393885970284555E9, 0.0, 2025-02-12 16:29:57.028
53.0, -6943.725877252326, -6164.901693451607, -7098.26583841632, 0.0, -48071.71798607326, -33891.70424839309, -89380.08867264852, -62935.516290130174, 0.056, 0.9380000000000001, 0.332, 192.0, 0.0, 0.0, 0.0, 0.0, 0.0, 0.0, 0.0, 0.0, 0.0, 1.739388597028479E9, 0.0, 2025-02-12 16:29:57.028
54.0, -6741.889624820903, -6028.019610407307, -7114.917888035523, 0.0, -48014.76574120113, -33910.21149280208, -89386.86125121848, -62936.90209828641, 0.056, 0.9380000000000001, 0.332, 192.0, 0.0, 0.0, 0.0, 0.0, 0.0, 0.0, 0.0, 0.0, 0.0, 1.7393885970285027E9, 0.0, 2025-02-12 16:29:57.028
55.0, -6877.4529549423405, -6115.571393438744, -7088.028739455788, 0.0, -48019.01257264764, -33863.831623057325, -89369.47159403225, -62902.480411825236, 0.056, 0.9380000000000001, 0.332, 192.0, 0.0, 0.0, 0.0, 0.0, 0.0, 0.0, 0.0, 0.0, 0.0, 1.7393885970285268E9, 0.0, 2025-02-12 16:29:57.028
56.0, -7099.696350061459, -6277.062747128338, -7064.559407777716, 0.0, -48082.55858213408, -33849.772375794935, -89364.6436172299, -62904.000330448194, 0.056, 0.9380000000000001, 0.332, 192.0, 0.0, 0.0, 0.0, 0.0, 0.0, 0.0, 0.0, 0.0, 0.0, 1.7393885970285504E9, 0.0, 2025-02-12 16:29:57.028
57.0, -6988.943456285412, -6223.217394735503, -7084.698329531948, 0.0, -48082.6479891119, -33899.48265546354, -89378.97108542576, -62939.383141920945, 0.056, 0.9380000000000001, 0.332, 192.0, 0.0, 0.0, 0.0, 0.0, 0.0, 0.0, 0.0, 0.0, 0.0, 1.739388597028584E9, 0.0, 2025-02-12 16:29:57.028
58.0, -6747.47756093473, -6063.178904435505, -7106.6700943315145, 0.0, -48017.582061002504, -33922.19202783013, -89384.76018723968, -62942.19946172232, 0.056, 0.9380000000000001, 0.332, 192.0, 0.0, 0.0, 0.0, 0.0, 0.0, 0.0, 0.0, 0.0, 0.0, 1.7393885970286083E9, 0.0, 2025-02-12 16:29:57.028
59.0, -6822.668829282383, -6099.679303131021, -7083.580742309183, 0.0, -48009.24486032067, -33877.68970461961, -89371.30443707758, -62907.442499094315, 0.056, 0.9380000000000001, 0.332, 192.0, 0.0, 0.0, 0.0, 0.0, 0.0, 0.0, 0.0, 0.0, 0.0, 1.739388597028641E9, 0.0, 2025-02-12 16:29:57.028
60.0, -7068.001576423833, -6263.137610332681, -7050.567215748694, 0.0, -48070.66745408386, -33851.42640488463, -89362.58725674001, -62899.08294666803, 0.054, 0.936, 0.334, 192.0, 1.0, 176.0, 29.0, 64.0, 10.0, 112.0, 0.0, 0.0, 0.0, 1.739388597028676E9, 0.0, 2025-02-12 16:29:57.028
61.0, -7018.24659326632, -6237.835435609274, -7062.033660654267, 0.0, -48084.1008525015, -33894.98995482802, -89373.91959117886, -62931.87295578396, 0.054, 0.936, 0.334, 192.0, 0.0, 0.0, 0.0, 0.0, 0.0, 0.0, 0.0, 0.0, 0.0, 1.7393885970287125E9, 0.0, 2025-02-12 16:29:57.028
62.0, -6761.67091866385, -6054.372317120114, -7091.135631935076, 0.0, -48023.192348860786, -33929.47869652256, -89382.70382674978, -62944.36758093448, 0.054, 0.936, 0.334, 192.0, 0.0, 0.0, 0.0, 0.0, 0.0, 0.0, 0.0, 0.0, 0.0, 1.7393885970287385E9, 0.0, 2025-02-12 16:29:57.028
63.0, -6778.099450838501, -6036.736790744876, -7079.177448651487, 0.0, -48004.103959095955, -33895.59345192831, -89372.04204464461, -62914.93033348684, 0.054, 0.936, 0.334, 192.0, 0.0, 0.0, 0.0, 0.0, 0.0, 0.0, 0.0, 0.0, 0.0, 1.7393885970287647E9, 0.0, 2025-02-12 16:29:57.028
64.0, -7037.558500475705, -6203.927839270573, -7044.286375556752, 0.0, -48064.52072435865, -33862.356407923275, -89361.11204160596, -62900.89343796891, 0.054, 0.936, 0.334, 192.0, 0.0, 0.0, 0.0, 0.0, 0.0, 0.0, 0.0, 0.0, 0.0, 1.7393885970287905E9, 0.0, 2025-02-12 16:29:57.028
65.0, -7055.149323362032, -6233.052162295838, -7047.885006414057, 0.0, -48093.82386133956, -33896.62163217326, -89370.7456434662, -62930.50949937219, 0.054, 0.936, 0.334, 192.0, 0.0, 0.0, 0.0, 0.0, 0.0, 0.0, 0.0, 0.0, 0.0, 1.7393885970288143E9, 0.0, 2025-02-12 16:29:57.028
66.0, -6801.255858094199, -6073.39365165158, -7082.284341130775, 0.0, -48042.07957292552, -33940.76632747249, -89385.38603608443, -62952.235394982745, 0.054, 0.936, 0.334, 192.0, 0.0, 0.0, 0.0, 0.0, 0.0, 0.0, 0.0, 0.0, 0.0, 1.7393885970288389E9, 0.0, 2025-02-12 16:29:57.028
67.0, -6752.596110414996, -6030.970040675407, -7079.982111451878, 0.0, -48010.20598533225, -33915.553559726904, -89382.32384709404, -62927.44731038181, 0.054, 0.936, 0.334, 192.0, 0.0, 0.0, 0.0, 0.0, 0.0, 0.0, 0.0, 0.0, 0.0, 1.7393885970288692E9, 0.0, 2025-02-12 16:29:57.028
68.0, -6996.923029055957, -6188.169859429581, -7037.089113842144, 0.0, -48058.86573301146, -33869.44191091561, -89370.56682951056, -62901.20636239128, 0.054, 0.936, 0.334, 192.0, 0.0, 0.0, 0.0, 0.0, 0.0, 0.0, 0.0, 0.0, 0.0, 1.7393885970288925E9, 0.0, 2025-02-12 16:29:57.028
69.0, -7077.054032928233, -6255.090982328771, -7028.953078860412, 0.0, -48098.249506741704, -33893.604146671794, -89376.04300690211, -62923.6028103355, 0.054, 0.936, 0.334, 192.0, 0.0, 0.0, 0.0, 0.0, 0.0, 0.0, 0.0, 0.0, 0.0, 1.739388597028917E9, 0.0, 2025-02-12 16:29:57.028
70.0, -6841.243128924743, -6108.999980568884, -7064.782925222269, 0.0, -48056.809372521566, -33945.259028108005, -89388.82820473054, -62951.45308392681, 0.094, 0.932, 0.304, 192.0, 2.0, 240.0, 29.0, 32.0, 9.0, 128.0, 0.0, 0.0, 0.0, 1.7393885970289423E9, 0.0, 2025-02-12 16:29:57.028
71.0, -6733.105389249968, -6028.980735418884, -7074.014195682311, 0.0, -48017.49265402468, -33932.42912679066, -89387.8447279745, -62934.71162732979, 0.094, 0.932, 0.304, 192.0, 0.0, 0.0, 0.0, 0.0, 0.0, 0.0, 0.0, 0.0, 0.0, 1.73938859702897E9, 0.0, 2025-02-12 16:29:57.028
72.0, -6958.433325103918, -6171.562513299288, -7037.133817331054, 0.0, -48065.10186971448, -33885.982201812534, -89381.89916394939, -62909.4988595842, 0.094, 0.932, 0.304, 192.0, 0.0, 0.0, 0.0, 0.0, 0.0, 0.0, 0.0, 0.0, 0.0, 1.7393885970290427E9, 0.0, 2025-02-12 16:29:57.029
73.0, -7099.271666916808, -6276.123973861215, -7020.213546778387, 0.0, -48121.22710004176, -33900.868463619765, -89384.31315235057, -62929.01193249368, 0.094, 0.932, 0.304, 192.0, 0.0, 0.0, 0.0, 0.0, 0.0, 0.0, 0.0, 0.0, 0.0, 1.7393885970290716E9, 0.0, 2025-02-12 16:29:57.029
74.0, -6897.569524952117, -6154.128152624149, -7054.724640217381, 0.0, -48089.12999500394, -33954.62440903478, -89390.90691696489, -62959.857339842005, 0.094, 0.932, 0.304, 192.0, 0.0, 0.0, 0.0, 0.0, 0.0, 0.0, 0.0, 0.0, 0.0, 1.7393885970291233E9, 0.0, 2025-02-12 16:29:57.029
75.0, -6735.072342762035, -6038.167302390016, -7075.198838138443, 0.0, -48038.52564555713, -33951.85279272232, -89390.57164079805, -62948.07797051406, 0.094, 0.932, 0.304, 192.0, 0.0, 0.0, 0.0, 0.0, 0.0, 0.0, 0.0, 0.0, 0.0, 1.7393885970291512E9, 0.0, 2025-02-12 16:29:57.029
76.0, -6916.233231572299, -6142.035858873828, -7037.804369664714, 0.0, -48071.762689562165, -33900.46613221957, -89381.07214940454, -62917.009045721185, 0.094, 0.932, 0.304, 192.0, 0.0, 0.0, 0.0, 0.0, 0.0, 0.0, 0.0, 0.0, 0.0, 1.7393885970291777E9, 0.0, 2025-02-12 16:29:57.029
77.0, -7103.943181507967, -6266.132744089693, -7008.590639661627, 0.0, -48135.08518160405, -33900.98022234204, -89379.39576857041, -62927.44731038181, 0.094, 0.932, 0.304, 192.0, 0.0, 0.0, 0.0, 0.0, 0.0, 0.0, 0.0, 0.0, 0.0, 1.739388597029214E9, 0.0, 2025-02-12 16:29:57.029
78.0, -6948.75501975477, -6174.155315656104, -7040.151302832521, 0.0, -48120.19891979682, -33957.217211391595, -89394.63965828893, -62963.25480499921, 0.094, 0.932, 0.304, 192.0, 0.0, 0.0, 0.0, 0.0, 0.0, 0.0, 0.0, 0.0, 0.0, 1.7393885970292404E9, 0.0, 2025-02-12 16:29:57.029
79.0, -6738.738028852705, -6030.031267408284, -7067.934521190467, 0.0, -48061.30207315709, -33965.28619113996, -89401.03225720314, -62957.37629620747, 0.094, 0.932, 0.304, 192.0, 0.0, 0.0, 0.0, 0.0, 0.0, 0.0, 0.0, 0.0, 0.0, 1.7393885970292664E9, 0.0, 2025-02-12 16:29:57.029
80.0, -6870.210989738821, -6103.121471777138, -7039.368991776585, 0.0, -48080.5469251331, -33917.34169928333, -89392.27037337665, -62926.5532406036, 0.11, 0.91, 0.312, 192.0, 3.0, 112.0, 28.0, 112.0, 9.0, 192.0, 0.0, 0.0, 0.0, 1.7393885970293028E9, 0.0, 2025-02-12 16:29:57.029
81.0, -7097.617637827116, -6257.460267241034, -7004.030883792745, 0.0, -48150.44083004485, -33907.596338700816, -89388.55998379708, -62930.643609838924, 0.11, 0.91, 0.312, 192.0, 0.0, 0.0, 0.0, 0.0, 0.0, 0.0, 0.0, 0.0, 0.0, 1.7393885970293283E9, 0.0, 2025-02-12 16:29:57.029
82.0, -6995.805441833191, -6206.118310227193, -7025.466206725384, 0.0, -48149.233835844265, -33958.37950210327, -89401.74751302571, -62964.28298524416, 0.11, 0.91, 0.312, 192.0, 0.0, 0.0, 0.0, 0.0, 0.0, 0.0, 0.0, 0.0, 0.0, 1.73938859702936E9, 0.0, 2025-02-12 16:29:57.029
83.0, -6755.9488720832915, -6047.24211063887, -7061.832494954168, 0.0, -48089.241753726215, -33979.47954886908, -89409.39180962942, -62967.479284701265, 0.11, 0.91, 0.312, 192.0, 0.0, 0.0, 0.0, 0.0, 0.0, 0.0, 0.0, 0.0, 0.0, 1.7393885970293841E9, 0.0, 2025-02-12 16:29:57.029
84.0, -6826.647439795428, -6079.540381376789, -7042.230015066864, 0.0, -48092.48275667224, -33934.95487391411, -89398.64062054642, -62936.164490719384, 0.11, 0.91, 0.312, 192.0, 0.0, 0.0, 0.0, 0.0, 0.0, 0.0, 0.0, 0.0, 0.0, 1.739388597029408E9, 0.0, 2025-02-12 16:29:57.029
85.0, -7073.120125904099, -6242.171674033603, -6997.682988367437, 0.0, -48161.169667383394, -33909.697402679616, -89390.30341986459, -62928.4531388823, 0.11, 0.91, 0.312, 192.0, 0.0, 0.0, 0.0, 0.0, 0.0, 0.0, 0.0, 0.0, 0.0, 1.7393885970294344E9, 0.0, 2025-02-12 16:29:57.029
86.0, -7032.909337629001, -6231.264022739413, -7007.651866394504, 0.0, -48173.95486521183, -33952.54569680044, -89398.59591705751, -62958.3597729635, 0.11, 0.91, 0.312, 192.0, 0.0, 0.0, 0.0, 0.0, 0.0, 0.0, 0.0, 0.0, 0.0, 1.7393885970294623E9, 0.0, 2025-02-12 16:29:57.029
87.0, -6778.099450838501, -6065.525837603312, -7048.376744792074, 0.0, -48113.11341680449, -33983.636973337765, -89406.9554694838, -62968.4627614573, 0.11, 0.91, 0.312, 192.0, 0.0, 0.0, 0.0, 0.0, 0.0, 0.0, 0.0, 0.0, 0.0, 1.7393885970294895E9, 0.0, 2025-02-12 16:29:57.029
88.0, -6784.737918941727, -6056.003994465351, -7041.090076099644, 0.0, -48103.09983528851, -33947.494202553535, -89405.39084737192, -62941.104226244, 0.11, 0.91, 0.312, 192.0, 0.0, 0.0, 0.0, 0.0, 0.0, 0.0, 0.0, 0.0, 0.0, 1.7393885970295243E9, 0.0, 2025-02-12 16:29:57.029
89.0, -7037.87142489808, -6220.132854000671, -6994.531392399239, 0.0, -48171.0714901771, -33912.93840562563, -89399.13235892444, -62927.000275492705, 0.11, 0.91, 0.312, 192.0, 0.0, 0.0, 0.0, 0.0, 0.0, 0.0, 0.0, 0.0, 0.0, 1.739388597029549E9, 0.0, 2025-02-12 16:29:57.029
90.0, -7066.034622911767, -6255.00157535095, -6995.693683110915, 0.0, -48202.0286562477, -33949.952894443624, -89405.43555086083, -62956.12459851797, 0.1, 0.928, 0.34600000000000003, 192.0, 3.0, 32.0, 29.0, 0.0, 10.0, 208.0, 0.0, 0.0, 0.0, 1.739388597029574E9, 0.0, 2025-02-12 16:29:57.029
91.0, -6814.219869878277, -6094.672512373032, -7038.273756298275, 0.0, -48145.07641137557, -33989.00139200704, -89413.03514397563, -62972.55313069262, 0.1, 0.928, 0.34600000000000003, 192.0, 0.0, 0.0, 0.0, 0.0, 0.0, 0.0, 0.0, 0.0, 0.0, 1.7393885970296006E9, 0.0, 2025-02-12 16:29:57.029
92.0, -6754.518360438152, -6041.430657080491, -7041.134779588554, 0.0, -48117.24848952872, -33959.98882770405, -89409.68238230735, -62947.25095596921, 0.1, 0.928, 0.34600000000000003, 192.0, 0.0, 0.0, 0.0, 0.0, 0.0, 0.0, 0.0, 0.0, 0.0, 1.7393885970296364E9, 0.0, 2025-02-12 16:29:57.029
93.0, -6998.57705814565, -6196.5517636003215, -6996.163069744476, 0.0, -48180.056891448134, -33919.21924581757, -89402.1498444259, -62928.14021445993, 0.1, 0.928, 0.34600000000000003, 192.0, 0.0, 0.0, 0.0, 0.0, 0.0, 0.0, 0.0, 0.0, 0.0, 1.7393885970296607E9, 0.0, 2025-02-12 16:29:57.029
94.0, -7090.196858667953, -6271.720680203519, -6985.367177172563, 0.0, -48226.63792689299, -33945.16962113018, -89408.34127764002, -62952.19069149384, 0.1, 0.928, 0.34600000000000003, 192.0, 0.0, 0.0, 0.0, 0.0, 0.0, 0.0, 0.0, 0.0, 0.0, 1.7393885970296843E9, 0.0, 2025-02-12 16:29:57.029
95.0, -6859.660966355917, -6129.608288956677, -7029.444817238429, 0.0, -48181.599161815546, -33993.225871709095, -89422.42287664687, -62977.5152179617, 0.1, 0.928, 0.34600000000000003, 192.0, 0.0, 0.0, 0.0, 0.0, 0.0, 0.0, 0.0, 0.0, 0.0, 1.7393885970297103E9, 0.0, 2025-02-12 16:29:57.029
96.0, -6742.560177154563, -6041.5871192916775, -7047.929709902967, 0.0, -48142.19303634084, -33978.87605176879, -89423.4510568918, -62961.041982298135, 0.1, 0.928, 0.34600000000000003, 192.0, 0.0, 0.0, 0.0, 0.0, 0.0, 0.0, 0.0, 0.0, 0.0, 1.7393885970297353E9, 0.0, 2025-02-12 16:29:57.029
97.0, -6959.327394882131, -6175.585827301244, -7005.327284971152, 0.0, -48193.06560672112, -33932.33971981284, -89413.92921375386, -62935.78451106364, 0.1, 0.928, 0.34600000000000003, 192.0, 0.0, 0.0, 0.0, 0.0, 0.0, 0.0, 0.0, 0.0, 0.0, 1.7393885970297592E9, 0.0, 2025-02-12 16:29:57.029
98.0, -7107.050073987255, -6285.24348559898, -6981.746194570804, 0.0, -48250.50958997126, -33944.32025484088, -89416.29849866612, -62951.92247056037, 0.1, 0.928, 0.34600000000000003, 192.0, 0.0, 0.0, 0.0, 0.0, 0.0, 0.0, 0.0, 0.0, 0.0, 1.7393885970297925E9, 0.0, 2025-02-12 16:29:57.029
99.0, -6910.622943714016, -6168.053289419805, -7020.951154345412, 0.0, -48216.378476188, -33995.41634266572, -89428.14492322743, -62980.912683118906, 0.1, 0.928, 0.34600000000000003, 192.0, 0.0, 0.0, 0.0, 0.0, 0.0, 0.0, 0.0, 0.0, 0.0, 1.7393885970298162E9, 0.0, 2025-02-12 16:29:57.029
100.0, -6737.531034652118, -6044.6269565376, -7048.197930836432, 0.0, -48162.89075170646, -33991.50478738604, -89430.06717325059, -62968.70863064631, 0.088, 0.912, 0.326, 192.0, 2.0, 192.0, 28.0, 128.0, 10.0, 48.0, 0.0, 0.0, 0.0, 1.7393885970298407E9, 0.0, 2025-02-12 16:29:57.029
101.0, -6909.3265425356085, -6145.098047864205, -7008.367122217074, 0.0, -48197.29008642317, -33938.53115302696, -89420.14299871243, -62936.522118630666, 0.088, 0.912, 0.326, 192.0, 0.0, 0.0, 0.0, 0.0, 0.0, 0.0, 0.0, 0.0, 0.0, 1.7393885970298762E9, 0.0, 2025-02-12 16:29:57.029
102.0, -7106.558335609238, -6285.221133854525, -6975.845334034602, 0.0, -48266.15581108997, -33938.79937396042, -89420.23240569024, -62947.42976992486, 0.088, 0.912, 0.326, 192.0, 0.0, 0.0, 0.0, 0.0, 0.0, 0.0, 0.0, 0.0, 0.0, 1.7393885970299025E9, 0.0, 2025-02-12 16:29:57.029
103.0, -6958.030993703723, -6201.5138508694, -7007.696569883415, 0.0, -48246.687441669405, -33990.58836586337, -89428.30138543861, -62979.12454356248, 0.088, 0.912, 0.326, 192.0, 0.0, 0.0, 0.0, 0.0, 0.0, 0.0, 0.0, 0.0, 0.0, 1.7393885970299275E9, 0.0, 2025-02-12 16:29:57.029
104.0, -6746.650546389884, -6056.763953776831, -7047.482675013862, 0.0, -48187.477670607295, -34003.46297066963, -89434.5598738861, -62977.068183072595, 0.088, 0.912, 0.326, 192.0, 0.0, 0.0, 0.0, 0.0, 0.0, 0.0, 0.0, 0.0, 0.0, 1.73938859702996E9, 0.0, 2025-02-12 16:29:57.029
105.0, -6871.283873472676, -6126.210823799471, -7022.269907268275, 0.0, -48211.237574963285, -33958.692426525646, -89431.56474012909, -62948.63676412544, 0.088, 0.912, 0.326, 192.0, 0.0, 0.0, 0.0, 0.0, 0.0, 0.0, 0.0, 0.0, 0.0, 1.739388597029985E9, 0.0, 2025-02-12 16:29:57.029
106.0, -7099.495184361361, -6281.868372186229, -6978.304025924686, 0.0, -48283.7466339763, -33945.99663567503, -89428.03316450515, -62949.39672343693, 0.088, 0.912, 0.326, 192.0, 0.0, 0.0, 0.0, 0.0, 0.0, 0.0, 0.0, 0.0, 0.0, 1.739388597030011E9, 0.0, 2025-02-12 16:29:57.030
107.0, -7006.601334405105, -6236.002592563938, -6999.4264244349515, 0.0, -48280.48327928583, -33996.645688610755, -89436.92915879836, -62981.65029068593, 0.088, 0.912, 0.326, 192.0, 0.0, 0.0, 0.0, 0.0, 0.0, 0.0, 0.0, 0.0, 0.0, 1.739388597030038E9, 0.0, 2025-02-12 16:29:57.030
108.0, -6768.287035022621, -6077.484020886901, -7047.549730247228, 0.0, -48217.20549073285, -34020.78557262249, -89445.5122286692, -62987.64055819996, 0.088, 0.912, 0.326, 192.0, 0.0, 0.0, 0.0, 0.0, 0.0, 0.0, 0.0, 0.0, 0.0, 1.7393885970300736E9, 0.0, 2025-02-12 16:29:57.030
109.0, -6831.833044509059, -6105.356646222669, -7033.624593451571, 0.0, -48222.078171024106, -33979.61365933582, -89439.76783034418, -62959.0079735527, 0.088, 0.912, 0.326, 192.0, 0.0, 0.0, 0.0, 0.0, 0.0, 0.0, 0.0, 0.0, 0.0, 1.739388597030098E9, 0.0, 2025-02-12 16:29:57.030
110.0, -7080.630312041082, -6270.8042586808515, -6985.233066705831, 0.0, -48296.241259126815, -33959.608848048316, -89433.59874887452, -62953.576499650066, 0.022, 0.936, 0.366, 192.0, 0.0, 176.0, 29.0, 64.0, 11.0, 112.0, 0.0, 0.0, 0.0, 1.739388597030123E9, 0.0, 2025-02-12 16:29:57.030
111.0, -7050.67897447097, -6265.484543500489, -6994.017302276767, 0.0, -48310.7028377894, -34003.39591543626, -89441.15363850041, -62983.79605815364, 0.022, 0.936, 0.366, 192.0, 0.0, 0.0, 0.0, 0.0, 0.0, 0.0, 0.0, 0.0, 0.0, 1.7393885970301485E9, 0.0, 2025-02-12 16:29:57.030
112.0, -6801.166451116378, -6101.06511128725, -7046.320384302186, 0.0, -48246.955662602864, -34032.56494195043, -89447.92621707037, -62995.48602050377, 0.022, 0.936, 0.366, 192.0, 0.0, 0.0, 0.0, 0.0, 0.0, 0.0, 0.0, 0.0, 0.0, 1.7393885970301733E9, 0.0, 2025-02-12 16:29:57.030
113.0, -6799.937105171336, -6083.675454101021, -7045.53807324625, 0.0, -48231.95764207335, -33994.25405195404, -89442.53944665665, -62967.85926435701, 0.022, 0.936, 0.366, 192.0, 0.0, 0.0, 0.0, 0.0, 0.0, 0.0, 0.0, 0.0, 0.0, 1.7393885970301998E9, 0.0, 2025-02-12 16:29:57.030
114.0, -7050.880140171068, -6244.228034523491, -6993.1455842430105, 0.0, -48302.9020789745, -33964.570935317395, -89436.95151054281, -62953.86707232799, 0.022, 0.936, 0.366, 192.0, 0.0, 0.0, 0.0, 0.0, 0.0, 0.0, 0.0, 0.0, 0.0, 1.7393885970302415E9, 0.0, 2025-02-12 16:29:57.030
115.0, -7086.195896410453, -6280.460212285544, -6987.915276040469, 0.0, -48334.485093889845, -34001.138389246276, -89442.20417048981, -62981.20325579683, 0.022, 0.936, 0.366, 192.0, 0.0, 0.0, 0.0, 0.0, 0.0, 0.0, 0.0, 0.0, 0.0, 1.7393885970302677E9, 0.0, 2025-02-12 16:29:57.030
116.0, -6844.484131870763, -6128.110722078171, -7044.2193203233865, 0.0, -48278.24810484029, -34040.72332867662, -89452.73184212827, -63002.59387524056, 0.022, 0.936, 0.366, 192.0, 0.0, 0.0, 0.0, 0.0, 0.0, 0.0, 0.0, 0.0, 0.0, 1.739388597030298E9, 0.0, 2025-02-12 16:29:57.030
117.0, -6780.044052606113, -6072.410174895546, -7057.943291418946, 0.0, -48246.77684864722, -34011.24137774007, -89450.42961244937, -62978.63280518446, 0.022, 0.936, 0.366, 192.0, 0.0, 0.0, 0.0, 0.0, 0.0, 0.0, 0.0, 0.0, 0.0, 1.739388597030322E9, 0.0, 2025-02-12 16:29:57.030
118.0, -7015.229107764853, -6220.825758078785, -7005.796671604714, 0.0, -48307.81946275467, -33974.36099938882, -89442.53944665665, -62957.15277876292, 0.022, 0.936, 0.366, 192.0, 0.0, 0.0, 0.0, 0.0, 0.0, 0.0, 0.0, 0.0, 0.0, 1.7393885970303447E9, 0.0, 2025-02-12 16:29:57.030
119.0, -7112.459196145439, -6297.849869471774, -6987.401185917996, 0.0, -48355.47338193338, -34006.12282825981, -89444.90873156891, -62980.555055207624, 0.022, 0.936, 0.366, 192.0, 0.0, 0.0, 0.0, 0.0, 0.0, 0.0, 0.0, 0.0, 0.0, 1.7393885970303762E9, 0.0, 2025-02-12 16:29:57.030
120.0, -6892.093347560567, -6161.951263183506, -7040.978317377368, 0.0, -48308.71353253288, -34052.77091893803, -89456.59869391903, -63007.91359042092, 0.03, 0.9480000000000001, 0.396, 192.0, 0.0, 240.0, 29.0, 160.0, 12.0, 96.0, 0.0, 0.0, 0.0, 1.739388597030403E9, 0.0, 2025-02-12 16:29:57.030
121.0, -6771.818610646559, -6074.757108063353, -7071.622559025594, 0.0, -48264.39002327801, -34034.97893035161, -89458.00685381972, -62991.99914836874, 0.03, 0.9480000000000001, 0.396, 192.0, 0.0, 0.0, 0.0, 0.0, 0.0, 0.0, 0.0, 0.0, 0.0, 1.7393885970304277E9, 0.0, 2025-02-12 16:29:57.030
122.0, -6978.594598602605, -6201.960885758506, -7024.505081713806, 0.0, -48313.31799189067, -33993.292926942464, -89447.45683043681, -62964.77472362218, 0.03, 0.9480000000000001, 0.396, 192.0, 0.0, 0.0, 0.0, 0.0, 0.0, 0.0, 0.0, 0.0, 0.0, 1.7393885970304585E9, 0.0, 2025-02-12 16:29:57.030
123.0, -7132.084027777199, -6314.479567346521, -6994.307874954686, 0.0, -48376.573428699194, -34018.05865979894, -89452.03893805014, -62984.108982576014, 0.03, 0.9480000000000001, 0.396, 192.0, 0.0, 0.0, 0.0, 0.0, 0.0, 0.0, 0.0, 0.0, 0.0, 1.7393885970304818E9, 0.0, 2025-02-12 16:29:57.030
124.0, -6947.749191254282, -6204.218411948492, -7040.82185516618, 0.0, -48344.632785872556, -34068.730064479125, -89465.42763297888, -63016.362549825026, 0.03, 0.9480000000000001, 0.396, 192.0, 0.0, 0.0, 0.0, 0.0, 0.0, 0.0, 0.0, 0.0, 0.0, 1.7393885970305169E9, 0.0, 2025-02-12 16:29:57.030
125.0, -6776.467773493264, -6082.87079130063, -7083.759556264825, 0.0, -48287.70289274489, -34059.65525623027, -89466.72403415729, -63007.04187238716, 0.03, 0.9480000000000001, 0.396, 192.0, 0.0, 0.0, 0.0, 0.0, 0.0, 0.0, 0.0, 0.0, 0.0, 1.7393885970305412E9, 0.0, 2025-02-12 16:29:57.030
126.0, -6944.843464475091, -6183.073661693771, -7049.717849459393, 0.0, -48325.99143099683, -34018.55039817696, -89462.05251956613, -62980.84562788554, 0.03, 0.9480000000000001, 0.396, 192.0, 0.0, 0.0, 0.0, 0.0, 0.0, 0.0, 0.0, 0.0, 0.0, 1.7393885970305655E9, 0.0, 2025-02-12 16:29:57.030
127.0, -7141.516463937339, -6321.25214591648, -7006.62368614956, 0.0, -48397.673475465, -34031.670872172224, -89463.59478993354, -62991.03802335716, 0.03, 0.9480000000000001, 0.396, 192.0, 0.0, 0.0, 0.0, 0.0, 0.0, 0.0, 0.0, 0.0, 0.0, 1.7393885970306869E9, 0.0, 2025-02-12 16:29:57.030
128.0, -7005.953133815901, -6246.418505480112, -7043.437009267451, 0.0, -48381.62492294609, -34084.48804432011, -89475.08358658357, -63026.24202087427, 0.03, 0.9480000000000001, 0.396, 192.0, 0.0, 0.0, 0.0, 0.0, 0.0, 0.0, 0.0, 0.0, 0.0, 1.7393885970307128E9, 0.0, 2025-02-12 16:29:57.030
129.0, -6801.188802860833, -6108.776463124331, -7100.612771584127, 0.0, -48322.14693095052, -34088.868986233356, -89483.51019424322, -63028.70071276435, 0.03, 0.9480000000000001, 0.396, 192.0, 0.0, 0.0, 0.0, 0.0, 0.0, 0.0, 0.0, 0.0, 0.0, 1.7393885970307398E9, 0.0, 2025-02-12 16:29:57.030
130.0, -6917.84255717308, -6175.921103468073, -7079.512724818316, 0.0, -48343.62695737207, -34047.49590724658, -89479.15160407443, -63000.89514266195, 0.036000000000000004, 0.934, 0.34800000000000003, 192.0, 1.0, 32.0, 29.0, 48.0, 10.0, 224.0, 0.0, 0.0, 0.0, 1.7393885970307744E9, 0.0, 2025-02-12 16:29:57.030
131.0, -7145.31626049474, -6335.087875734315, -7028.126064315566, 0.0, -48418.527653041805, -34050.625151470325, -89474.7706621612, -63002.70563396283, 0.036000000000000004, 0.934, 0.34800000000000003, 192.0, 0.0, 0.0, 0.0, 0.0, 0.0, 0.0, 0.0, 0.0, 0.0, 1.7393885970308013E9, 0.0, 2025-02-12 16:29:57.030
132.0, -7064.022965910789, -6301.537907306899, -7049.181407592465, 0.0, -48417.14184488557, -34101.721239295155, -89482.54906923164, -63035.51799482322, 0.036000000000000004, 0.934, 0.34800000000000003, 192.0, 0.0, 0.0, 0.0, 0.0, 0.0, 0.0, 0.0, 0.0, 0.0, 1.7393885970308263E9, 0.0, 2025-02-12 16:29:57.030
0.0, 0.0, 0.0, 0.0, 0.0, 0.0, 0.0, 0.0, 0.0, 0.038, 0.936, 0.35000000000000003, 192.0, 1.0, 48.0, 29.0, 64.0, 10.0, 240.0, 0.0, 0.0, 0.0, 1.7393885971084137E9, 0.0, 2025-02-12 16:29:57.108
1.0, -7155.84393213319, -6527.223471072134, -7183.023653390844, 0.0, -48799.311971582414, -28538.84143100279, -93378.56988651394, -63457.6306888617, 0.038, 0.936, 0.35000000000000003, 192.0, 0.0, 0.0, 0.0, 0.0, 0.0, 0.0, 0.0, 0.0, 0.0, 1.7393885975927932E9, 0.0, 2025-02-12 16:29:57.592
2.0, -6971.039708976711, -6404.713559712596, -7219.926383486555, 0.0, -48835.030059221994, -28532.046500688375, -93395.78072974453, -63461.76576158593, 0.038, 0.936, 0.35000000000000003, 192.0, 0.0, 0.0, 0.0, 0.0, 0.0, 0.0, 0.0, 0.0, 0.0, 1.7393885975929596E9, 0.0, 2025-02-12 16:29:57.592
3.0, -6944.172912141432, -6397.091614853337, -7212.460900838483, 0.0, -48810.44314032116, -28540.31664613684, -93396.71950301166, -63468.15836050014, 0.038, 0.936, 0.35000000000000003, 192.0, 0.0, 0.0, 0.0, 0.0, 0.0, 0.0, 0.0, 0.0, 0.0, 1.7393885975929863E9, 0.0, 2025-02-12 16:29:57.592
4.0, -7127.233699230397, -6518.930973879215, -7176.206371331975, 0.0, -48778.79307017244, -28561.059064991365, -93387.13060464032, -63473.74629661397, 0.038, 0.936, 0.35000000000000003, 192.0, 0.0, 0.0, 0.0, 0.0, 0.0, 0.0, 0.0, 0.0, 0.0, 1.7393885975930104E9, 0.0, 2025-02-12 16:29:57.593
5.0, -7180.363795800662, -6538.041715388503, -7178.195676588497, 0.0, -48810.55489904343, -28570.826777318332, -93390.93040119772, -63479.24482574998, 0.038, 0.936, 0.35000000000000003, 192.0, 0.0, 0.0, 0.0, 0.0, 0.0, 0.0, 0.0, 0.0, 0.0, 1.739388597593034E9, 0.0, 2025-02-12 16:29:57.593
6.0, -7024.460378224895, -6426.7076762566185, -7226.631906823148, 0.0, -48867.64125438229, -28566.445835405095, -93406.97895371664, -63483.29049149639, 0.038, 0.936, 0.35000000000000003, 192.0, 0.0, 0.0, 0.0, 0.0, 0.0, 0.0, 0.0, 0.0, 0.0, 1.7393885975930705E9, 0.0, 2025-02-12 16:29:57.593
7.0, -6976.0464997347, -6409.273315581479, -7246.592014621737, 0.0, -48865.80841133695, -28574.604222131282, -93415.22674742065, -63489.52662819942, 0.038, 0.936, 0.35000000000000003, 192.0, 0.0, 0.0, 0.0, 0.0, 0.0, 0.0, 0.0, 0.0, 0.0, 1.7393885975930939E9, 0.0, 2025-02-12 16:29:57.593
8.0, -7148.2890425072965, -6538.533453766519, -7214.8525374952005, 0.0, -48830.58206207539, -28599.906396854687, -93409.52705258454, -63499.38374750421, 0.036000000000000004, 0.934, 0.342, 192.0, 1.0, 32.0, 29.0, 48.0, 10.0, 176.0, 0.0, 0.0, 0.0, 1.7393885975931172E9, 0.0, 2025-02-12 16:29:57.593
9.0, -7247.3743256776725, -6599.2184399626785, -7209.152842659098, 0.0, -48856.80065832146, -28619.598283719813, -93413.46095960868, -63512.95125638858, 0.036000000000000004, 0.934, 0.342, 192.0, 0.0, 0.0, 0.0, 0.0, 0.0, 0.0, 0.0, 0.0, 0.0, 1.7393885975931425E9, 0.0, 2025-02-12 16:29:57.593
10.0, -7110.6040013556485, -6494.902848589761, -7254.236311225452, 0.0, -48920.90546141929, -28618.48069649705, -93432.21407320668, -63520.23792508101, 0.036000000000000004, 0.934, 0.342, 192.0, 0.0, 0.0, 0.0, 0.0, 0.0, 0.0, 0.0, 0.0, 0.0, 1.739388597593177E9, 0.0, 2025-02-12 16:29:57.593
11.0, -7011.608125163094, -6434.441379838155, -7277.325663247784, 0.0, -48924.526444021045, -28617.072536596363, -93442.29470995603, -63520.394387292195, 0.036000000000000004, 0.934, 0.342, 192.0, 0.0, 0.0, 0.0, 0.0, 0.0, 0.0, 0.0, 0.0, 0.0, 1.7393885975932004E9, 0.0, 2025-02-12 16:29:57.593
12.0, -7144.5339494388045, -6540.254538089578, -7241.495816885927, 0.0, -48875.12908877481, -28631.444708281128, -93429.82243654996, -63522.070768126345, 0.036000000000000004, 0.934, 0.342, 192.0, 0.0, 0.0, 0.0, 0.0, 0.0, 0.0, 0.0, 0.0, 0.0, 1.7393885975932345E9, 0.0, 2025-02-12 16:29:57.593
13.0, -7263.378174707673, -6619.379713461365, -7215.679552040047, 0.0, -48874.70440563016, -28643.849926453822, -93421.17231144576, -63528.5974775073, 0.036000000000000004, 0.934, 0.342, 192.0, 0.0, 0.0, 0.0, 0.0, 0.0, 0.0, 0.0, 0.0, 0.0, 1.739388597593258E9, 0.0, 2025-02-12 16:29:57.593
14.0, -7150.278347763819, -6527.804616427972, -7252.068192013287, 0.0, -48935.16587438177, -28641.033606652454, -93439.29957619902, -63534.49833804349, 0.036000000000000004, 0.934, 0.342, 192.0, 0.0, 0.0, 0.0, 0.0, 0.0, 0.0, 0.0, 0.0, 0.0, 1.739388597593281E9, 0.0, 2025-02-12 16:29:57.593
15.0, -7015.206756020398, -6435.424856594188, -7281.684253416569, 0.0, -48948.04047918803, -28632.629350737257, -93451.34716646041, -63531.302038586386, 0.036000000000000004, 0.934, 0.342, 192.0, 0.0, 0.0, 0.0, 0.0, 0.0, 0.0, 0.0, 0.0, 0.0, 1.7393885975933049E9, 0.0, 2025-02-12 16:29:57.593
16.0, -7109.821690299713, -6515.891136633294, -7250.257700712407, 0.0, -48894.93273436221, -28639.89366768523, -93436.84088430893, -63529.75976821897, 0.036000000000000004, 0.934, 0.342, 192.0, 0.0, 0.0, 0.0, 0.0, 0.0, 0.0, 0.0, 0.0, 0.0, 1.739388597593328E9, 0.0, 2025-02-12 16:29:57.593
17.0, -7254.862160070201, -6618.507995427608, -7215.679552040047, 0.0, -48879.93471383271, -28655.249316126028, -93426.06734348147, -63537.49347180051, 0.036000000000000004, 0.934, 0.342, 192.0, 0.0, 0.0, 0.0, 0.0, 0.0, 0.0, 0.0, 0.0, 0.0, 1.7393885975933511E9, 0.0, 2025-02-12 16:29:57.593
18.0, -7174.686452709014, -6546.468323048154, -7240.020601751877, 0.0, -48933.93652843673, -28651.360112590806, -93440.5065703996, -63541.47208231355, 0.048, 0.936, 0.34600000000000003, 192.0, 1.0, 128.0, 29.0, 64.0, 10.0, 208.0, 0.0, 0.0, 0.0, 1.7393885975933812E9, 0.0, 2025-02-12 16:29:57.593
19.0, -7020.258250267298, -6433.32379261539, -7278.845581870745, 0.0, -48962.971444484174, -28640.921847930178, -93456.1080880294, -63539.549832290395, 0.048, 0.936, 0.34600000000000003, 192.0, 0.0, 0.0, 0.0, 0.0, 0.0, 0.0, 0.0, 0.0, 0.0, 1.7393885975934067E9, 0.0, 2025-02-12 16:29:57.593
20.0, -7076.763460250314, -6486.409185696743, -7256.918520560089, 0.0, -48914.803435182985, -28645.325141587873, -93442.49587565612, -63536.57705027784, 0.048, 0.936, 0.34600000000000003, 192.0, 0.0, 0.0, 0.0, 0.0, 0.0, 0.0, 0.0, 0.0, 0.0, 1.7393885975934296E9, 0.0, 2025-02-12 16:29:57.593
21.0, -7230.6999243140135, -6599.598419618419, -7209.823394992757, 0.0, -48877.788946365, -28655.651647526225, -93423.4074858913, -63536.08531189982, 0.048, 0.936, 0.34600000000000003, 192.0, 0.0, 0.0, 0.0, 0.0, 0.0, 0.0, 0.0, 0.0, 0.0, 1.7393885975934525E9, 0.0, 2025-02-12 16:29:57.593
22.0, -7191.003226161388, -6557.353622597889, -7223.14503468812, 0.0, -48924.21351959867, -28655.696351015136, -93435.90211104181, -63540.91328870217, 0.048, 0.936, 0.34600000000000003, 192.0, 0.0, 0.0, 0.0, 0.0, 0.0, 0.0, 0.0, 0.0, 0.0, 1.7393885975934823E9, 0.0, 2025-02-12 16:29:57.593
23.0, -7028.3048782712085, -6433.122626915291, -7268.027337554377, 0.0, -48968.78289804255, -28645.99569392153, -93454.38700370635, -63541.8967654582, 0.048, 0.936, 0.34600000000000003, 192.0, 0.0, 0.0, 0.0, 0.0, 0.0, 0.0, 0.0, 0.0, 0.0, 1.7393885975935056E9, 0.0, 2025-02-12 16:29:57.593
24.0, -7045.53807324625, -6457.396621393755, -7260.4053926951165, 0.0, -48932.68483074723, -28649.437862567647, -93446.89916931381, -63540.57801253534, 0.048, 0.936, 0.34600000000000003, 192.0, 0.0, 0.0, 0.0, 0.0, 0.0, 0.0, 0.0, 0.0, 0.0, 1.7393885975935287E9, 0.0, 2025-02-12 16:29:57.593
25.0, -7206.247115879908, -6582.186410687735, -7212.840880494223, 0.0, -48885.47794645762, -28663.9664964636, -93428.63779409383, -63541.58384103583, 0.048, 0.936, 0.34600000000000003, 192.0, 0.0, 0.0, 0.0, 0.0, 0.0, 0.0, 0.0, 0.0, 0.0, 1.7393885975935516E9, 0.0, 2025-02-12 16:29:57.593
26.0, -7206.42592983555, -6570.92113148226, -7212.147976416109, 0.0, -48917.91032766227, -28665.262897642006, -93432.90697728479, -63544.48956781502, 0.048, 0.936, 0.34600000000000003, 192.0, 0.0, 0.0, 0.0, 0.0, 0.0, 0.0, 0.0, 0.0, 0.0, 1.7393885975935748E9, 0.0, 2025-02-12 16:29:57.593
27.0, -7046.499198257828, -6444.723182287596, -7261.299462473329, 0.0, -48976.248380690624, -28657.372731849282, -93456.19749500722, -63549.98809695103, 0.048, 0.936, 0.34600000000000003, 192.0, 0.0, 0.0, 0.0, 0.0, 0.0, 0.0, 0.0, 0.0, 0.0, 1.739388597593598E9, 0.0, 2025-02-12 16:29:57.593
28.0, -7024.236860780342, -6438.419990351199, -7268.764945121401, 0.0, -48955.97534846966, -28659.496147572536, -93458.74559387512, -63551.53036731844, 0.058, 0.928, 0.34400000000000003, 192.0, 1.0, 208.0, 29.0, 0.0, 10.0, 192.0, 0.0, 0.0, 0.0, 1.739388597593627E9, 0.0, 2025-02-12 16:29:57.593
29.0, -7176.765164943357, -6561.10871566638, -7218.518223585871, 0.0, -48896.72087391864, -28671.230813411574, -93436.63971860883, -63548.04349518341, 0.058, 0.928, 0.34400000000000003, 192.0, 0.0, 0.0, 0.0, 0.0, 0.0, 0.0, 0.0, 0.0, 0.0, 1.7393885975936515E9, 0.0, 2025-02-12 16:29:57.593
30.0, -7216.417159607072, -6582.231114176645, -7203.944886201011, 0.0, -48912.65766771528, -28675.142368691253, -93432.45994239568, -63549.18343415063, 0.058, 0.928, 0.34400000000000003, 192.0, 0.0, 0.0, 0.0, 0.0, 0.0, 0.0, 0.0, 0.0, 0.0, 1.7393885975936747E9, 0.0, 2025-02-12 16:29:57.593
31.0, -7063.665337999504, -6456.904883015738, -7248.491912900438, 0.0, -48974.862572534395, -28664.52529007498, -93453.24706473912, -63552.67030628566, 0.058, 0.928, 0.34400000000000003, 192.0, 0.0, 0.0, 0.0, 0.0, 0.0, 0.0, 0.0, 0.0, 0.0, 1.7393885975936975E9, 0.0, 2025-02-12 16:29:57.593
32.0, -6998.912334312479, -6414.704789484119, -7265.300424730829, 0.0, -48967.55355209751, -28660.770197006488, -93459.72907063116, -63552.46914058556, 0.058, 0.928, 0.34400000000000003, 192.0, 0.0, 0.0, 0.0, 0.0, 0.0, 0.0, 0.0, 0.0, 0.0, 1.7393885975937276E9, 0.0, 2025-02-12 16:29:57.593
33.0, -7142.812865115746, -6535.694782220696, -7224.687305055536, 0.0, -48909.72958919163, -28676.975211736586, -93442.8535035674, -63553.54202431942, 0.058, 0.928, 0.34400000000000003, 192.0, 0.0, 0.0, 0.0, 0.0, 0.0, 0.0, 0.0, 0.0, 0.0, 1.7393885975937514E9, 0.0, 2025-02-12 16:29:57.593
34.0, -7220.753398031402, -6589.428375891254, -7199.407482076584, 0.0, -48910.4448450142, -28684.753618807033, -93433.55517787399, -63554.21257665307, 0.058, 0.928, 0.34400000000000003, 192.0, 0.0, 0.0, 0.0, 0.0, 0.0, 0.0, 0.0, 0.0, 0.0, 1.7393885975937808E9, 0.0, 2025-02-12 16:29:57.593
35.0, -7084.3630533651185, -6472.752269834551, -7235.729066816458, 0.0, -48971.912142266294, -28672.929545990177, -93451.43657343824, -63555.710143531585, 0.058, 0.928, 0.34400000000000003, 192.0, 0.0, 0.0, 0.0, 0.0, 0.0, 0.0, 0.0, 0.0, 0.0, 1.7393885975938044E9, 0.0, 2025-02-12 16:29:57.593
36.0, -6983.869610294058, -6398.924457898672, -7262.2829392293625, 0.0, -48979.86936329238, -28664.748807519532, -93461.65132065432, -63555.12899817574, 0.058, 0.928, 0.34400000000000003, 192.0, 0.0, 0.0, 0.0, 0.0, 0.0, 0.0, 0.0, 0.0, 0.0, 1.7393885975938275E9, 0.0, 2025-02-12 16:29:57.593
37.0, -7098.377597138596, -6498.1438515357795, -7222.295668398818, 0.0, -48915.63044972783, -28672.884842501266, -93439.09841049892, -63549.65282078419, 0.058, 0.928, 0.34400000000000003, 192.0, 0.0, 0.0, 0.0, 0.0, 0.0, 0.0, 0.0, 0.0, 0.0, 1.7393885975938509E9, 0.0, 2025-02-12 16:29:57.593
38.0, -7206.805909491291, -6578.9677594861705, -7186.04113889231, 0.0, -48898.41960649724, -28681.62437458329, -93423.6533550803, -63547.663515527674, 0.07, 0.93, 0.342, 192.0, 2.0, 48.0, 29.0, 16.0, 10.0, 176.0, 0.0, 0.0, 0.0, 1.7393885975939054E9, 0.0, 2025-02-12 16:29:57.593
39.0, -7102.423262885006, -6486.632703141297, -7219.077017197254, 0.0, -48962.36794738388, -28677.06461871441, -93445.08867801294, -63554.14552141971, 0.07, 0.93, 0.342, 192.0, 0.0, 0.0, 0.0, 0.0, 0.0, 0.0, 0.0, 0.0, 0.0, 1.7393885975939307E9, 0.0, 2025-02-12 16:29:57.593
40.0, -6975.800630545692, -6389.089690338336, -7256.091506015242, 0.0, -48988.11715699639, -28668.593307565847, -93461.51721018758, -63556.42539935415, 0.07, 0.93, 0.342, 192.0, 0.0, 0.0, 0.0, 0.0, 0.0, 0.0, 0.0, 0.0, 0.0, 1.7393885975939531E9, 0.0, 2025-02-12 16:29:57.593
41.0, -7060.49139028685, -6466.180856964691, -7226.788369034335, 0.0, -48930.00262141259, -28675.164720435707, -93443.5017041566, -63552.17856790764, 0.07, 0.93, 0.342, 192.0, 0.0, 0.0, 0.0, 0.0, 0.0, 0.0, 0.0, 0.0, 0.0, 1.7393885975939763E9, 0.0, 2025-02-12 16:29:57.593
42.0, -7195.048891907799, -6572.128125682846, -7185.124717369643, 0.0, -48899.358379764366, -28688.039325241964, -93426.55908185948, -63551.351553362794, 0.07, 0.93, 0.342, 192.0, 0.0, 0.0, 0.0, 0.0, 0.0, 0.0, 0.0, 0.0, 0.0, 1.7393885975939996E9, 0.0, 2025-02-12 16:29:57.593
43.0, -7123.098626506166, -6504.402339983266, -7205.822432735256, 0.0, -48954.20956065769, -28684.418342640205, -93440.93125354424, -63555.37486736475, 0.07, 0.93, 0.342, 192.0, 0.0, 0.0, 0.0, 0.0, 0.0, 0.0, 0.0, 0.0, 0.0, 1.7393885975940328E9, 0.0, 2025-02-12 16:29:57.594
44.0, -6977.432307890929, -6388.5532484714095, -7250.123590245676, 0.0, -48995.80615708902, -28676.30465940293, -93461.83013460996, -63560.381658122744, 0.07, 0.93, 0.342, 192.0, 0.0, 0.0, 0.0, 0.0, 0.0, 0.0, 0.0, 0.0, 0.0, 1.7393885975940645E9, 0.0, 2025-02-12 16:29:57.594
45.0, -7028.1931195489315, -6439.5599293184205, -7234.544424360326, 0.0, -48949.11336292188, -28682.160816450218, -93451.63773913834, -63558.9511464776, 0.07, 0.93, 0.342, 192.0, 0.0, 0.0, 0.0, 0.0, 0.0, 0.0, 0.0, 0.0, 0.0, 1.7393885975940886E9, 0.0, 2025-02-12 16:29:57.594
46.0, -7177.435717277017, -6560.460515077176, -7187.225781348441, 0.0, -48903.694618188696, -28695.258938701027, -93430.62709935036, -63556.2018819096, 0.07, 0.93, 0.342, 192.0, 0.0, 0.0, 0.0, 0.0, 0.0, 0.0, 0.0, 0.0, 0.0, 1.739388597594113E9, 0.0, 2025-02-12 16:29:57.594
47.0, -7145.606833172659, -6525.569441982441, -7197.753452986891, 0.0, -48948.91219722178, -28696.64474685726, -93440.9536052887, -63561.40983836768, 0.07, 0.93, 0.342, 192.0, 0.0, 0.0, 0.0, 0.0, 0.0, 0.0, 0.0, 0.0, 0.0, 1.7393885975941381E9, 0.0, 2025-02-12 16:29:57.594
48.0, -6989.278732452242, -6397.985684631549, -7245.116799487687, 0.0, -49002.37756995888, -28687.324069419396, -93464.75821313361, -63566.93071924815, 0.07200000000000001, 0.932, 0.34, 192.0, 2.0, 64.0, 29.0, 32.0, 10.0, 160.0, 0.0, 0.0, 0.0, 1.7393885975941668E9, 0.0, 2025-02-12 16:29:57.594
49.0, -6996.923029055957, -6413.475443539077, -7238.590090106737, 0.0, -48965.430136374256, -28687.078200230386, -93457.91857933027, -63563.26503315748, 0.07200000000000001, 0.932, 0.34, 192.0, 0.0, 0.0, 0.0, 0.0, 0.0, 0.0, 0.0, 0.0, 0.0, 1.7393885975942044E9, 0.0, 2025-02-12 16:29:57.594
50.0, -7150.770086141835, -6540.76862821205, -7188.544534271305, 0.0, -48908.47789150213, -28698.946976536154, -93432.61640460687, -63558.01237321048, 0.07200000000000001, 0.932, 0.34, 192.0, 0.0, 0.0, 0.0, 0.0, 0.0, 0.0, 0.0, 0.0, 0.0, 1.739388597594228E9, 0.0, 2025-02-12 16:29:57.594
51.0, -7157.028574589322, -6536.745314210095, -7184.342406313706, 0.0, -48937.26693836057, -28701.249206215052, -93434.18102671874, -63560.024030211454, 0.07200000000000001, 0.932, 0.34, 192.0, 0.0, 0.0, 0.0, 0.0, 0.0, 0.0, 0.0, 0.0, 0.0, 1.7393885975942516E9, 0.0, 2025-02-12 16:29:57.594
52.0, -7000.320494213163, -6406.322885313379, -7231.884566770144, 0.0, -48999.181270501766, -28691.973232266097, -93459.61731190888, -63566.036649469934, 0.07200000000000001, 0.932, 0.34, 192.0, 0.0, 0.0, 0.0, 0.0, 0.0, 0.0, 0.0, 0.0, 0.0, 1.7393885975942745E9, 0.0, 2025-02-12 16:29:57.594
53.0, -6969.765659542759, -6390.542553727932, -7239.707677329502, 0.0, -48979.310569681, -28690.654479343237, -93460.64549215382, -63565.38844888073, 0.07200000000000001, 0.932, 0.34, 192.0, 0.0, 0.0, 0.0, 0.0, 0.0, 0.0, 0.0, 0.0, 0.0, 1.7393885975943048E9, 0.0, 2025-02-12 16:29:57.594
54.0, -7118.494167148372, -6515.935840122204, -7190.80206046129, 0.0, -48915.27282181654, -28701.807999826433, -93434.33748892993, -63559.755809277995, 0.07200000000000001, 0.932, 0.34, 192.0, 0.0, 0.0, 0.0, 0.0, 0.0, 0.0, 0.0, 0.0, 0.0, 1.7393885975943358E9, 0.0, 2025-02-12 16:29:57.594
55.0, -7164.806981659768, -6545.507198036576, -7174.731156197925, 0.0, -48928.25918534508, -28707.10536326234, -93430.2024162057, -63560.515768589474, 0.07200000000000001, 0.932, 0.34, 192.0, 0.0, 0.0, 0.0, 0.0, 0.0, 0.0, 0.0, 0.0, 0.0, 1.7393885975943587E9, 0.0, 2025-02-12 16:29:57.594
56.0, -7017.464282210384, -6420.695056998141, -7218.540575330327, 0.0, -48994.33094195497, -28698.321127691404, -93455.14696301782, -63566.48368435904, 0.07200000000000001, 0.932, 0.34, 192.0, 0.0, 0.0, 0.0, 0.0, 0.0, 0.0, 0.0, 0.0, 0.0, 1.7393885975943825E9, 0.0, 2025-02-12 16:29:57.594
57.0, -6949.760848255259, -6373.979911086549, -7239.238290695941, 0.0, -48992.11811925389, -28695.236586956573, -93462.85831485491, -63568.04830647091, 0.07200000000000001, 0.932, 0.34, 192.0, 0.0, 0.0, 0.0, 0.0, 0.0, 0.0, 0.0, 0.0, 0.0, 1.7393885975944057E9, 0.0, 2025-02-12 16:29:57.594
58.0, -7082.977245208889, -6488.577304908908, -7194.490098296416, 0.0, -48925.66638298826, -28704.557264394436, -93437.60084362041, -63561.789818023426, 0.066, 0.928, 0.342, 192.0, 2.0, 16.0, 29.0, 0.0, 10.0, 176.0, 0.0, 0.0, 0.0, 1.7393885975944288E9, 0.0, 2025-02-12 16:29:57.594
59.0, -7164.89638863759, -6548.05529690448, -7166.4833624939165, 0.0, -48921.039571886016, -28711.754526109045, -93427.18493070423, -63560.448713356105, 0.066, 0.928, 0.342, 192.0, 0.0, 0.0, 0.0, 0.0, 0.0, 0.0, 0.0, 0.0, 0.0, 1.7393885975944605E9, 0.0, 2025-02-12 16:29:57.594
60.0, -7036.977355119867, -6437.32475487289, -7203.944886201011, 0.0, -48986.44077616224, -28704.132581249785, -93448.88847457034, -63565.52255934746, 0.066, 0.928, 0.342, 192.0, 0.0, 0.0, 0.0, 0.0, 0.0, 0.0, 0.0, 0.0, 0.0, 1.7393885975944948E9, 0.0, 2025-02-12 16:29:57.594
61.0, -6935.2098626148545, -6361.909969080683, -7234.879700527156, 0.0, -49000.567078657994, -28698.835217813878, -93462.23246601016, -63568.78591403794, 0.066, 0.928, 0.342, 192.0, 0.0, 0.0, 0.0, 0.0, 0.0, 0.0, 0.0, 0.0, 0.0, 1.7393885975945191E9, 0.0, 2025-02-12 16:29:57.594
62.0, -7044.8004656792245, -6458.536560360976, -7197.753452986891, 0.0, -48936.64108951582, -28705.83131382839, -93440.61832912188, -63562.79564652391, 0.066, 0.928, 0.342, 192.0, 0.0, 0.0, 0.0, 0.0, 0.0, 0.0, 0.0, 0.0, 0.0, 1.739388597594543E9, 0.0, 2025-02-12 16:29:57.594
63.0, -7157.5650164562485, -6544.322555580445, -7160.3813362576175, 0.0, -48916.09983636139, -28715.420212199715, -93424.97210800316, -63560.49341684502, 0.066, 0.928, 0.342, 192.0, 0.0, 0.0, 0.0, 0.0, 0.0, 0.0, 0.0, 0.0, 0.0, 1.7393885975945663E9, 0.0, 2025-02-12 16:29:57.594
64.0, -7059.329099575174, -6456.904883015738, -7190.869115694656, 0.0, -48978.50590688061, -28711.86628483132, -93443.6581663678, -63566.72955354805, 0.066, 0.928, 0.342, 192.0, 0.0, 0.0, 0.0, 0.0, 0.0, 0.0, 0.0, 0.0, 0.0, 1.7393885975945897E9, 0.0, 2025-02-12 16:29:57.594
65.0, -6930.5159962792395, -6358.5572074123875, -7230.454055125005, 0.0, -49008.211375261715, -28705.25016847255, -93461.89718984332, -63571.04344022792, 0.066, 0.928, 0.342, 192.0, 0.0, 0.0, 0.0, 0.0, 0.0, 0.0, 0.0, 0.0, 0.0, 1.7393885975946205E9, 0.0, 2025-02-12 16:29:57.594
66.0, -7009.238840250831, -6431.356839103322, -7203.497851311905, 0.0, -48951.59440655642, -28710.324014463906, -93445.96039604669, -63566.327222147855, 0.066, 0.928, 0.342, 192.0, 0.0, 0.0, 0.0, 0.0, 0.0, 0.0, 0.0, 0.0, 0.0, 1.7393885975946436E9, 0.0, 2025-02-12 16:29:57.594
67.0, -7146.433847717506, -6537.751142710584, -7159.576673457226, 0.0, -48917.37388579534, -28721.008148313544, -93426.55908185948, -63563.466198857575, 0.066, 0.928, 0.342, 192.0, 0.0, 0.0, 0.0, 0.0, 0.0, 0.0, 0.0, 0.0, 0.0, 1.7393885975946667E9, 0.0, 2025-02-12 16:29:57.594
68.0, -7083.1337074200765, -6477.692005359174, -7179.916760911556, 0.0, -48971.53216261055, -28720.963444824632, -93441.44534366672, -63569.679983816146, 0.066, 0.93, 0.342, 192.0, 2.0, 16.0, 29.0, 16.0, 10.0, 176.0, 0.0, 0.0, 0.0, 1.7393885975946903E9, 0.0, 2025-02-12 16:29:57.594
69.0, -6934.494606792285, -6362.088783036325, -7224.754360288902, 0.0, -49013.66520090881, -28713.095630776363, -93463.059480555, -63574.03857398494, 0.066, 0.93, 0.342, 192.0, 0.0, 0.0, 0.0, 0.0, 0.0, 0.0, 0.0, 0.0, 0.0, 1.739388597594722E9, 0.0, 2025-02-12 16:29:57.594
70.0, -6975.465354378862, -6405.093539368337, -7208.482290325438, 0.0, -48966.43596487474, -28714.570845910413, -93450.67661412676, -63569.277652415956, 0.066, 0.93, 0.342, 192.0, 0.0, 0.0, 0.0, 0.0, 0.0, 0.0, 0.0, 0.0, 0.0, 1.7393885975947456E9, 0.0, 2025-02-12 16:29:57.594
71.0, -7127.278402719307, -6524.921241393237, -7160.314281024252, 0.0, -48920.23490908562, -28725.813773371432, -93428.07900048245, -63565.94724249211, 0.066, 0.93, 0.342, 192.0, 0.0, 0.0, 0.0, 0.0, 0.0, 0.0, 0.0, 0.0, 0.0, 1.7393885975947692E9, 0.0, 2025-02-12 16:29:57.594
72.0, -7100.277495417296, -6492.824136355417, -7166.013975860355, 0.0, -48960.244531660624, -28725.657311160245, -93435.2539104526, -63568.428286126655, 0.066, 0.93, 0.342, 192.0, 0.0, 0.0, 0.0, 0.0, 0.0, 0.0, 0.0, 0.0, 0.0, 1.7393885975947928E9, 0.0, 2025-02-12 16:29:57.594
73.0, -6940.641336517494, -6366.179152271647, -7211.879755482645, 0.0, -49011.60884041892, -28716.247226744563, -93457.3597857189, -63571.87045477277, 0.066, 0.93, 0.342, 192.0, 0.0, 0.0, 0.0, 0.0, 0.0, 0.0, 0.0, 0.0, 0.0, 1.7393885975948167E9, 0.0, 2025-02-12 16:29:57.594
74.0, -6944.284670863709, -6380.327806511857, -7210.493947326416, 0.0, -48979.623494103376, -28717.431869200693, -93452.17418100526, -63570.52935010545, 0.066, 0.93, 0.342, 192.0, 0.0, 0.0, 0.0, 0.0, 0.0, 0.0, 0.0, 0.0, 0.0, 1.7393885975948403E9, 0.0, 2025-02-12 16:29:57.594
75.0, -7101.350379151151, -6506.503403962065, -7162.2588827918635, 0.0, -48925.46521728817, -28729.412404228737, -93429.95654701669, -63567.78008553745, 0.066, 0.93, 0.342, 192.0, 0.0, 0.0, 0.0, 0.0, 0.0, 0.0, 0.0, 0.0, 0.0, 1.739388597594884E9, 0.0, 2025-02-12 16:29:57.594
76.0, -7115.230812457898, -6506.9504388511705, -7155.665118177548, 0.0, -48951.72851702315, -28732.251075774562, -93432.19172146222, -63569.545873349416, 0.066, 0.93, 0.342, 192.0, 0.0, 0.0, 0.0, 0.0, 0.0, 0.0, 0.0, 0.0, 0.0, 1.7393885975949073E9, 0.0, 2025-02-12 16:29:57.594
77.0, -6956.600482058583, -6379.232571033546, -7200.994455932911, 0.0, -49009.97716307368, -28723.466840203626, -93453.8058583505, -63573.07744897336, 0.066, 0.93, 0.342, 192.0, 0.0, 0.0, 0.0, 0.0, 0.0, 0.0, 0.0, 0.0, 0.0, 1.7393885975949304E9, 0.0, 2025-02-12 16:29:57.594
78.0, -6919.809510685148, -6361.30647198039, -7212.080921182743, 0.0, -48993.19100298775, -28722.371604725315, -93455.14696301782, -63572.8539315288, 0.044, 0.932, 0.34400000000000003, 192.0, 1.0, 96.0, 29.0, 32.0, 10.0, 192.0, 0.0, 0.0, 0.0, 1.7393885975949533E9, 0.0, 2025-02-12 16:29:57.594
79.0, -7068.895646202046, -6482.542333905975, -7163.778801414825, 0.0, -48934.42826681474, -28730.798212384965, -93428.54838711601, -63567.84714077081, 0.044, 0.932, 0.34400000000000003, 192.0, 0.0, 0.0, 0.0, 0.0, 0.0, 0.0, 0.0, 0.0, 0.0, 1.7393885975949779E9, 0.0, 2025-02-12 16:29:57.594
80.0, -7122.562184639238, -6514.326514521422, -7144.399838972073, 0.0, -48944.084220419434, -28735.805003142956, -93418.8477300224, -63568.80826578239, 0.044, 0.932, 0.34400000000000003, 192.0, 0.0, 0.0, 0.0, 0.0, 0.0, 0.0, 0.0, 0.0, 0.0, 1.7393885975950007E9, 0.0, 2025-02-12 16:29:57.595
81.0, -6976.448831134896, -6394.431757263155, -7187.47165053745, 0.0, -49005.08213103797, -28729.099479806362, -93445.4016024353, -63573.63624258474, 0.044, 0.932, 0.34400000000000003, 192.0, 0.0, 0.0, 0.0, 0.0, 0.0, 0.0, 0.0, 0.0, 0.0, 1.7393885975950415E9, 0.0, 2025-02-12 16:29:57.595
82.0, -6898.240077285776, -6342.195730471102, -7207.498813569405, 0.0, -49003.91984032629, -28723.01980531452, -93455.16931476227, -63571.781047794946, 0.044, 0.932, 0.34400000000000003, 192.0, 0.0, 0.0, 0.0, 0.0, 0.0, 0.0, 0.0, 0.0, 0.0, 1.7393885975950668E9, 0.0, 2025-02-12 16:29:57.595
83.0, -7031.121198072577, -6452.523941102499, -7164.382298515117, 0.0, -48941.29025236252, -28730.7311571516, -93425.39679114781, -63567.28834715943, 0.044, 0.932, 0.34400000000000003, 192.0, 0.0, 0.0, 0.0, 0.0, 0.0, 0.0, 0.0, 0.0, 0.0, 1.7393885975950916E9, 0.0, 2025-02-12 16:29:57.595
84.0, -7123.255088717353, -6516.248764544579, -7136.934356324, 0.0, -48937.8480837164, -28740.141241567286, -93416.3443346434, -63569.747039049515, 0.044, 0.932, 0.34400000000000003, 192.0, 0.0, 0.0, 0.0, 0.0, 0.0, 0.0, 0.0, 0.0, 0.0, 1.7393885975951166E9, 0.0, 2025-02-12 16:29:57.595
85.0, -6999.404072690496, -6412.357856316311, -7175.021728875844, 0.0, -49001.774072858585, -28736.8331833879, -93447.63677688084, -63576.09493447482, 0.044, 0.932, 0.34400000000000003, 192.0, 0.0, 0.0, 0.0, 0.0, 0.0, 0.0, 0.0, 0.0, 0.0, 1.7393885975951488E9, 0.0, 2025-02-12 16:29:57.595
86.0, -6890.46167021533, -6335.914890279161, -7207.3423513582175, 0.0, -49016.28035501008, -28731.848744374365, -93460.77960262056, -63577.61485309778, 0.044, 0.932, 0.34400000000000003, 192.0, 0.0, 0.0, 0.0, 0.0, 0.0, 0.0, 0.0, 0.0, 0.0, 1.7393885975951731E9, 0.0, 2025-02-12 16:29:57.595
87.0, -6999.33701745713, -6429.8145687359065, -7173.770031186346, 0.0, -48957.71878453717, -28739.247171789073, -93434.80687556349, -63574.88794027424, 0.044, 0.932, 0.34400000000000003, 192.0, 0.0, 0.0, 0.0, 0.0, 0.0, 0.0, 0.0, 0.0, 0.0, 1.7393885975951977E9, 0.0, 2025-02-12 16:29:57.595
88.0, -7118.047132259266, -6515.153529066269, -7133.961574311445, 0.0, -48936.77519998255, -28746.35502652586, -93420.72527655665, -63572.473951873064, 0.074, 0.962, 0.334, 192.0, 2.0, 80.0, 30.0, 16.0, 10.0, 112.0, 0.0, 0.0, 0.0, 1.739388597595222E9, 0.0, 2025-02-12 16:29:57.595
89.0, -7022.404017735007, -6431.446246081144, -7160.984833357911, 0.0, -48994.085072765956, -28743.31518927994, -93443.12172450087, -63576.49726587502, 0.074, 0.962, 0.334, 192.0, 0.0, 0.0, 0.0, 0.0, 0.0, 0.0, 0.0, 0.0, 0.0, 1.7393885975952492E9, 0.0, 2025-02-12 16:29:57.595
90.0, -6885.857210857536, -6331.5563001103765, -7199.653351265592, 0.0, -49020.19191028976, -28735.939113609686, -93453.3588234614, -63577.4583908866, 0.074, 0.962, 0.334, 192.0, 0.0, 0.0, 0.0, 0.0, 0.0, 0.0, 0.0, 0.0, 0.0, 1.739388597595274E9, 0.0, 2025-02-12 16:29:57.595
91.0, -6958.545083826195, -6398.633885220753, -7173.568865486249, 0.0, -48965.54189509653, -28737.6825496772, -93431.29765168401, -63571.57988209485, 0.074, 0.962, 0.334, 192.0, 0.0, 0.0, 0.0, 0.0, 0.0, 0.0, 0.0, 0.0, 0.0, 1.7393885975953076E9, 0.0, 2025-02-12 16:29:57.595
92.0, -7100.188088439476, -6504.961133594648, -7128.261879475342, 0.0, -48932.08133364694, -28746.7350061816, -93417.37251488835, -63569.30000416041, 0.074, 0.962, 0.334, 192.0, 0.0, 0.0, 0.0, 0.0, 0.0, 0.0, 0.0, 0.0, 0.0, 1.7393885975953307E9, 0.0, 2025-02-12 16:29:57.595
93.0, -7041.15713133301, -6449.417048623211, -7145.405667472562, 0.0, -48981.992779015636, -28746.757357926057, -93437.69025059823, -63573.7032978181, 0.074, 0.962, 0.334, 192.0, 0.0, 0.0, 0.0, 0.0, 0.0, 0.0, 0.0, 0.0, 0.0, 1.739388597595354E9, 0.0, 2025-02-12 16:29:57.595
94.0, -6885.209010268332, -6332.405666399678, -7188.052795893288, 0.0, -49021.37655274589, -28737.526087466013, -93456.39866070732, -63574.12798096275, 0.074, 0.962, 0.334, 192.0, 0.0, 0.0, 0.0, 0.0, 0.0, 0.0, 0.0, 0.0, 0.0, 1.7393885975953772E9, 0.0, 2025-02-12 16:29:57.595
95.0, -6922.245850830776, -6373.152896541703, -7175.558170742771, 0.0, -48979.57879061446, -28739.44833748917, -93441.33358494444, -63571.17755069466, 0.074, 0.962, 0.334, 192.0, 0.0, 0.0, 0.0, 0.0, 0.0, 0.0, 0.0, 0.0, 0.0, 1.7393885975954006E9, 0.0, 2025-02-12 16:29:57.595
96.0, -7078.708062017926, -6493.114709033336, -7127.479568419406, 0.0, -48934.13769413682, -28749.6854364497, -93418.93713700022, -63569.456466371594, 0.074, 0.962, 0.334, 192.0, 0.0, 0.0, 0.0, 0.0, 0.0, 0.0, 0.0, 0.0, 0.0, 1.739388597595424E9, 0.0, 2025-02-12 16:29:57.595
97.0, -7059.865541442102, -6467.298444187456, -7132.419303944029, 0.0, -48972.269770177576, -28751.764148684044, -93431.54352087302, -63573.47978037355, 0.074, 0.962, 0.334, 192.0, 0.0, 0.0, 0.0, 0.0, 0.0, 0.0, 0.0, 0.0, 0.0, 1.7393885975954695E9, 0.0, 2025-02-12 16:29:57.595
98.0, -6896.720158662815, -6341.63693685972, -7177.525124254838, 0.0, -49021.26479402361, -28742.376416012816, -93452.57651240546, -63574.61971934077, 0.044, 0.966, 0.3, 192.0, 1.0, 96.0, 30.0, 48.0, 9.0, 96.0, 0.0, 0.0, 0.0, 1.7393885975954933E9, 0.0, 2025-02-12 16:29:57.595
99.0, -6889.724062648304, -6347.806018329385, -7174.37352828664, 0.0, -48988.60889537441, -28739.202468300162, -93439.59014887693, -63569.322355904864, 0.044, 0.966, 0.3, 192.0, 0.0, 0.0, 0.0, 0.0, 0.0, 0.0, 0.0, 0.0, 0.0, 1.7393885975955188E9, 0.0, 2025-02-12 16:29:57.595
100.0, -7048.175579091976, -6471.925255289705, -7125.736132351892, 0.0, -48934.98706042612, -28749.059587604952, -93414.17621543125, -63566.64014657023, 0.044, 0.966, 0.3, 192.0, 0.0, 0.0, 0.0, 0.0, 0.0, 0.0, 0.0, 0.0, 0.0, 1.7393885975955434E9, 0.0, 2025-02-12 16:29:57.595
101.0, -7072.226056125886, -6479.61425538233, -7119.74586483787, 0.0, -48961.65269156131, -28754.871041163333, -93423.09456146891, -63571.1551989502, 0.044, 0.966, 0.3, 192.0, 0.0, 0.0, 0.0, 0.0, 0.0, 0.0, 0.0, 0.0, 0.0, 1.7393885975955925E9, 0.0, 2025-02-12 16:29:57.595
102.0, -6913.439263515385, -6354.6233003882535, -7165.008147359866, 0.0, -49018.895509111346, -28747.673779448724, -93447.77088734758, -63574.39620189622, 0.044, 0.966, 0.3, 192.0, 0.0, 0.0, 0.0, 0.0, 0.0, 0.0, 0.0, 0.0, 0.0, 1.7393885975956163E9, 0.0, 2025-02-12 16:29:57.595
103.0, -6868.959292049324, -6332.159797210669, -7177.6368829771145, 0.0, -49003.092825781445, -28746.086805592397, -93445.73687860214, -63573.7032978181, 0.044, 0.966, 0.3, 192.0, 0.0, 0.0, 0.0, 0.0, 0.0, 0.0, 0.0, 0.0, 0.0, 1.7393885975956392E9, 0.0, 2025-02-12 16:29:57.595
104.0, -7019.028904322256, -6452.814513780417, -7131.905213821557, 0.0, -48945.2018076422, -28755.496890008082, -93423.92157601376, -63570.97638499456, 0.044, 0.966, 0.3, 192.0, 0.0, 0.0, 0.0, 0.0, 0.0, 0.0, 0.0, 0.0, 0.0, 1.7393885975956647E9, 0.0, 2025-02-12 16:29:57.595
105.0, -7082.329044619685, -6491.594790410375, -7113.085044990188, 0.0, -48956.332976380945, -28762.492986022593, -93424.9050527698, -63573.591539095825, 0.044, 0.966, 0.3, 192.0, 0.0, 0.0, 0.0, 0.0, 0.0, 0.0, 0.0, 0.0, 0.0, 1.7393885975956876E9, 0.0, 2025-02-12 16:29:57.595
106.0, -6938.3838103275075, -6375.209257031591, -7154.882807121612, 0.0, -49016.99561083265, -28757.039160375498, -93445.24514022413, -63578.1065914758, 0.044, 0.966, 0.3, 192.0, 0.0, 0.0, 0.0, 0.0, 0.0, 0.0, 0.0, 0.0, 0.0, 1.7393885975957105E9, 0.0, 2025-02-12 16:29:57.595
107.0, -6853.514236630707, -6319.9333929936165, -7176.787516687813, 0.0, -49014.38045673138, -28751.562982983945, -93446.2509687246, -63576.43021064165, 0.044, 0.966, 0.3, 192.0, 0.0, 0.0, 0.0, 0.0, 0.0, 0.0, 0.0, 0.0, 0.0, 1.73938859759577E9, 0.0, 2025-02-12 16:29:57.595
108.0, -6982.528505626739, -6426.417103578699, -7134.654478389559, 0.0, -48953.71782227967, -28757.26267782005, -93425.21797719217, -63570.931681505645, 0.058, 0.9560000000000001, 0.314, 192.0, 1.0, 208.0, 29.0, 224.0, 9.0, 208.0, 0.0, 0.0, 0.0, 1.7393885975957935E9, 0.0, 2025-02-12 16:29:57.595
109.0, -7081.479678330384, -6494.2099445116455, -7105.194879197465, 0.0, -48949.24747338861, -28766.06926513544, -93418.66891606676, -63572.49630361752, 0.058, 0.9560000000000001, 0.314, 192.0, 0.0, 0.0, 0.0, 0.0, 0.0, 0.0, 0.0, 0.0, 0.0, 1.739388597595819E9, 0.0, 2025-02-12 16:29:57.595
110.0, -6961.584921072116, -6394.1858880741465, -7140.331821481207, 0.0, -49009.19485201775, -28762.470634278136, -93435.61153836388, -63577.368983908775, 0.058, 0.9560000000000001, 0.314, 192.0, 0.0, 0.0, 0.0, 0.0, 0.0, 0.0, 0.0, 0.0, 0.0, 1.7393885975958414E9, 0.0, 2025-02-12 16:29:57.595
111.0, -6847.009878994212, -6315.239526658002, -7174.731156197925, 0.0, -49024.59520394745, -28758.290858064993, -93448.21792223668, -63579.62651009876, 0.058, 0.9560000000000001, 0.314, 192.0, 0.0, 0.0, 0.0, 0.0, 0.0, 0.0, 0.0, 0.0, 0.0, 1.739388597595863E9, 0.0, 2025-02-12 16:29:57.595
112.0, -6949.447923832885, -6404.043007378938, -7141.94114708199, 0.0, -48967.46414511969, -28763.051779633974, -93432.77286681806, -63575.11145771879, 0.058, 0.9560000000000001, 0.314, 192.0, 0.0, 0.0, 0.0, 0.0, 0.0, 0.0, 0.0, 0.0, 0.0, 1.739388597595892E9, 0.0, 2025-02-12 16:29:57.595
113.0, -7076.271721872297, -6495.349883478866, -7102.69148381847, 0.0, -48946.900540220806, -28771.545442526993, -93417.48427361064, -63574.19503619612, 0.058, 0.9560000000000001, 0.314, 192.0, 0.0, 0.0, 0.0, 0.0, 0.0, 0.0, 0.0, 0.0, 0.0, 1.7393885975959172E9, 0.0, 2025-02-12 16:29:57.595
114.0, -6987.311778940175, -6417.610516263308, -7127.926603308511, 0.0, -49001.99759030314, -28769.35497157037, -93428.7048493272, -63578.53127462045, 0.058, 0.9560000000000001, 0.314, 192.0, 0.0, 0.0, 0.0, 0.0, 0.0, 0.0, 0.0, 0.0, 0.0, 1.7393885975959413E9, 0.0, 2025-02-12 16:29:57.595
115.0, -6846.764009805204, -6316.513576091955, -7168.5397229838045, 0.0, -49031.1219133284, -28763.141186611796, -93443.79227683453, -63580.8558560438, 0.058, 0.9560000000000001, 0.314, 192.0, 0.0, 0.0, 0.0, 0.0, 0.0, 0.0, 0.0, 0.0, 0.0, 1.7393885975959644E9, 0.0, 2025-02-12 16:29:57.595
116.0, -6915.473272260818, -6381.110117567792, -7147.059696562254, 0.0, -48982.685683093754, -28767.7903494585, -93431.34235517292, -63578.46421938708, 0.058, 0.9560000000000001, 0.314, 192.0, 0.0, 0.0, 0.0, 0.0, 0.0, 0.0, 0.0, 0.0, 0.0, 1.7393885975959952E9, 0.0, 2025-02-12 16:29:57.595
117.0, -7063.687689743959, -6488.242028742079, -7102.535021607283, 0.0, -48948.24164488813, -28779.03327691952, -93412.27631715254, -63577.27957693095, 0.058, 0.9560000000000001, 0.314, 192.0, 0.0, 0.0, 0.0, 0.0, 0.0, 0.0, 0.0, 0.0, 0.0, 1.7393885975960145E9, 0.0, 2025-02-12 16:29:57.596
118.0, -7013.172747274965, -6435.313097871912, -7117.689504347981, 0.0, -48995.67204662228, -28780.284974609018, -93426.31321267047, -63581.88403628875, 0.07200000000000001, 0.916, 0.34, 192.0, 2.0, 64.0, 28.0, 160.0, 10.0, 160.0, 0.0, 0.0, 0.0, 1.7393885975960333E9, 0.0, 2025-02-12 16:29:57.596
119.0, -6853.804809308625, -6315.150119680181, -7160.358984513162, 0.0, -49036.53103548659, -28771.970125671643, -93444.06049776799, -63583.26984444498, 0.07200000000000001, 0.916, 0.34, 192.0, 0.0, 0.0, 0.0, 0.0, 0.0, 0.0, 0.0, 0.0, 0.0, 1.739388597596059E9, 0.0, 2025-02-12 16:29:57.596
120.0, -6879.442260198863, -6349.035364274427, -7147.216158773442, 0.0, -48992.811023332004, -28771.098407637885, -93429.50951212758, -63578.508922876, 0.07200000000000001, 0.916, 0.34, 192.0, 0.0, 0.0, 0.0, 0.0, 0.0, 0.0, 0.0, 0.0, 0.0, 1.739388597596078E9, 0.0, 2025-02-12 16:29:57.596
121.0, -7035.815064408192, -6471.23235121159, -7097.863507016124, 0.0, -48945.51473206458, -28780.68730600921, -93413.70682879769, -63575.64789958572, 0.07200000000000001, 0.916, 0.34, 192.0, 0.0, 0.0, 0.0, 0.0, 0.0, 0.0, 0.0, 0.0, 0.0, 1.7393885980739255E9, 0.0, 2025-02-12 16:29:58.073
122.0, -7024.840357880636, -6451.495760857554, -7100.83628902868, 0.0, -48982.88684879385, -28784.93413745572, -93429.10718072738, -63579.98413801005, 0.07200000000000001, 0.916, 0.34, 192.0, 0.0, 0.0, 0.0, 0.0, 0.0, 0.0, 0.0, 0.0, 0.0, 1.7393885980740736E9, 0.0, 2025-02-12 16:29:58.074
123.0, -6861.560864634617, -6324.359038395767, -7146.992641328889, 0.0, -49032.887701140375, -28779.45796006417, -93447.88264606985, -63583.82863805636, 0.07200000000000001, 0.916, 0.34, 192.0, 0.0, 0.0, 0.0, 0.0, 0.0, 0.0, 0.0, 0.0, 0.0, 1.7393885980741143E9, 0.0, 2025-02-12 16:29:58.074
124.0, -6848.842722039548, -6325.118997707248, -7149.2278157744195, 0.0, -49002.824604847985, -28779.27914610853, -93440.73008784415, -63581.839332799835, 0.07200000000000001, 0.916, 0.34, 192.0, 0.0, 0.0, 0.0, 0.0, 0.0, 0.0, 0.0, 0.0, 0.0, 1.7393885980741472E9, 0.0, 2025-02-12 16:29:58.074
125.0, -7007.361293716585, -6447.047763710948, -7101.126861706599, 0.0, -48949.87332223336, -28787.057553178973, -93424.83799753642, -63578.44186764263, 0.07200000000000001, 0.916, 0.34, 192.0, 0.0, 0.0, 0.0, 0.0, 0.0, 0.0, 0.0, 0.0, 0.0, 1.7393885980741796E9, 0.0, 2025-02-12 16:29:58.074
126.0, -7040.263061554798, -6458.80478129444, -7092.633198813582, 0.0, -48972.67210157777, -28792.287861381516, -93431.78939006203, -63582.37577466676, 0.07200000000000001, 0.916, 0.34, 192.0, 0.0, 0.0, 0.0, 0.0, 0.0, 0.0, 0.0, 0.0, 0.0, 1.7393885980742273E9, 0.0, 2025-02-12 16:29:58.074
127.0, -6881.990359066768, -6330.818692543351, -7136.263803990341, 0.0, -49026.4727504817, -28785.515282811557, -93452.44240193874, -63585.46031540159, 0.07200000000000001, 0.916, 0.34, 192.0, 0.0, 0.0, 0.0, 0.0, 0.0, 0.0, 0.0, 0.0, 0.0, 1.7393885980743394E9, 0.0, 2025-02-12 16:29:58.074
128.0, -6824.278154883165, -6294.877087459217, -7146.36679248414, 0.0, -49008.50194793963, -28780.061457164462, -93455.6610531403, -63581.0570217439, 0.088, 0.92, 0.336, 192.0, 2.0, 192.0, 28.0, 192.0, 10.0, 128.0, 0.0, 0.0, 0.0, 1.7393885980744479E9, 0.0, 2025-02-12 16:29:58.074
129.0, -6971.620854332549, -6412.64842899423, -7100.702178561947, 0.0, -48950.00743270009, -28787.057553178973, -93440.52892214405, -63576.609024597296, 0.088, 0.92, 0.336, 192.0, 0.0, 0.0, 0.0, 0.0, 0.0, 0.0, 0.0, 0.0, 0.0, 1.739388598074822E9, 0.0, 2025-02-12 16:29:58.074
130.0, -7046.320384302186, -6460.458810384132, -7082.64196904206, 0.0, -48960.959787483196, -28796.31117538347, -93440.59597737742, -63581.280539188454, 0.088, 0.92, 0.336, 192.0, 0.0, 0.0, 0.0, 0.0, 0.0, 0.0, 0.0, 0.0, 0.0, 1.7393885980748527E9, 0.0, 2025-02-12 16:29:58.074
131.0, -6905.884373889491, -6346.01787877296, -7123.568013139727, 0.0, -49022.114160312914, -28793.204282904182, -93458.29855898602, -63586.77906832446, 0.088, 0.92, 0.336, 192.0, 0.0, 0.0, 0.0, 0.0, 0.0, 0.0, 0.0, 0.0, 0.0, 1.739388598074879E9, 0.0, 2025-02-12 16:29:58.074
132.0, -6812.0070471772015, -6282.024834397416, -7145.875054106124, 0.0, -49020.303669012035, -28788.108085168373, -93462.23246601016, -63584.83446655685, 0.088, 0.92, 0.336, 192.0, 0.0, 0.0, 0.0, 0.0, 0.0, 0.0, 0.0, 0.0, 0.0, 1.7393885980749326E9, 0.0, 2025-02-12 16:29:58.074
133.0, -6939.523749294728, -6386.183963559147, -7107.497108876361, 0.0, -48962.412650872786, -28795.171236416252, -93445.64747162432, -63581.19113221063, 0.088, 0.92, 0.336, 192.0, 0.0, 0.0, 0.0, 0.0, 0.0, 0.0, 0.0, 0.0, 0.0, 1.7393885980749629E9, 0.0, 2025-02-12 16:29:58.074
134.0, -7049.114352359099, -6460.592920850864, -7079.602131796138, 0.0, -48959.41751711578, -28805.31892839896, -93435.23155870814, -63584.29802468992, 0.088, 0.92, 0.336, 192.0, 0.0, 0.0, 0.0, 0.0, 0.0, 0.0, 0.0, 0.0, 0.0, 1.739388598074988E9, 0.0, 2025-02-12 16:29:58.074
135.0, -6933.198205613877, -6360.412402202178, -7111.922754278512, 0.0, -49017.19677653274, -28802.010870219576, -93446.29567221353, -63588.43309741415, 0.088, 0.92, 0.336, 192.0, 0.0, 0.0, 0.0, 0.0, 0.0, 0.0, 0.0, 0.0, 0.0, 1.7393885980750153E9, 0.0, 2025-02-12 16:29:58.075
136.0, -6808.8330994645485, -6271.318348803324, -7144.310431994251, 0.0, -49031.23367205068, -28797.004079461585, -93459.93023633126, -63588.701318347616, 0.088, 0.92, 0.336, 192.0, 0.0, 0.0, 0.0, 0.0, 0.0, 0.0, 0.0, 0.0, 0.0, 1.7393885980750408E9, 0.0, 2025-02-12 16:29:58.075
137.0, -6910.980571625301, -6361.060602791382, -7117.890670048078, 0.0, -48980.53991562604, -28805.631852821334, -93452.35299496091, -63588.142524736235, 0.088, 0.92, 0.336, 192.0, 0.0, 0.0, 0.0, 0.0, 0.0, 0.0, 0.0, 0.0, 0.0, 1.7393885980750663E9, 0.0, 2025-02-12 16:29:58.075
138.0, -7046.834474424658, -6457.664842327219, -7079.825649240691, 0.0, -48960.22217991617, -28814.706661070188, -93436.52795988655, -63587.717841591584, 0.094, 0.908, 0.342, 192.0, 2.0, 240.0, 28.0, 96.0, 10.0, 176.0, 0.0, 0.0, 0.0, 1.739388598075106E9, 0.0, 2025-02-12 16:29:58.075
139.0, -6964.244778662298, -6378.74083265553, -7103.183222196487, 0.0, -49013.39697997535, -28814.080812225442, -93449.84959958191, -63592.25524571601, 0.094, 0.908, 0.342, 192.0, 0.0, 0.0, 0.0, 0.0, 0.0, 0.0, 0.0, 0.0, 0.0, 1.7393885980751317E9, 0.0, 2025-02-12 16:29:58.075
140.0, -6814.197518133822, -6265.059860355837, -7141.024725559321, 0.0, -49040.442590766266, -28807.196474933207, -93469.42972772477, -63592.56817013839, 0.094, 0.908, 0.342, 192.0, 0.0, 0.0, 0.0, 0.0, 0.0, 0.0, 0.0, 0.0, 0.0, 1.7393885980751555E9, 0.0, 2025-02-12 16:29:58.075
141.0, -6875.664815385916, -6322.839119772807, -7121.310486949741, 0.0, -48992.02871227607, -28810.88451276833, -93458.11974503037, -63589.170704981174, 0.094, 0.908, 0.342, 192.0, 0.0, 0.0, 0.0, 0.0, 0.0, 0.0, 0.0, 0.0, 0.0, 1.7393885980751789E9, 0.0, 2025-02-12 16:29:58.075
142.0, -7032.395247506529, -6439.694039785152, -7079.624483540593, 0.0, -48960.62451131636, -28821.970978018166, -93436.75147733111, -63589.0589462589, 0.094, 0.908, 0.342, 192.0, 0.0, 0.0, 0.0, 0.0, 0.0, 0.0, 0.0, 0.0, 0.0, 1.7393885980752015E9, 0.0, 2025-02-12 16:29:58.075
143.0, -6989.278732452242, -6389.559076971898, -7091.873239502102, 0.0, -49005.953849071724, -28822.440364651724, -93443.07702101195, -63592.56817013839, 0.094, 0.908, 0.342, 192.0, 0.0, 0.0, 0.0, 0.0, 0.0, 0.0, 0.0, 0.0, 0.0, 1.7393885980752249E9, 0.0, 2025-02-12 16:29:58.075
144.0, -6823.786416505149, -6259.695441686564, -7132.352248710662, 0.0, -49042.99068963417, -28813.432611636235, -93461.5619136765, -63592.67992886066, 0.094, 0.908, 0.342, 192.0, 0.0, 0.0, 0.0, 0.0, 0.0, 0.0, 0.0, 0.0, 0.0, 1.7393885980752883E9, 0.0, 2025-02-12 16:29:58.075
145.0, -6845.534663860162, -6287.813936211341, -7125.0432282737775, 0.0, -49006.62440140539, -28816.383041904337, -93457.53859967455, -63591.271768959974, 0.094, 0.908, 0.342, 192.0, 0.0, 0.0, 0.0, 0.0, 0.0, 0.0, 0.0, 0.0, 0.0, 1.7393885980753129E9, 0.0, 2025-02-12 16:29:58.075
146.0, -7012.703360641403, -6417.208184863113, -7082.619617297604, 0.0, -48967.39708988632, -28829.637626366333, -93438.02552676506, -63592.81403932739, 0.094, 0.908, 0.342, 192.0, 0.0, 0.0, 0.0, 0.0, 0.0, 0.0, 0.0, 0.0, 0.0, 1.7393885980753365E9, 0.0, 2025-02-12 16:29:58.075
147.0, -7013.2845059972415, -6402.366626544789, -7085.547695821249, 0.0, -49001.88583158086, -28834.018568279575, -93443.5017041566, -63597.77612659647, 0.094, 0.908, 0.342, 192.0, 0.0, 0.0, 0.0, 0.0, 0.0, 0.0, 0.0, 0.0, 0.0, 1.73938859807536E9, 0.0, 2025-02-12 16:29:58.075
148.0, -6850.317937173598, -6255.850941640251, -7131.681696377003, 0.0, -49050.81380019353, -28826.486030398137, -93472.38015799287, -63601.30770222041, 0.088, 0.896, 0.342, 192.0, 2.0, 192.0, 28.0, 0.0, 10.0, 176.0, 0.0, 0.0, 0.0, 1.7393885980753918E9, 0.0, 2025-02-12 16:29:58.075
149.0, -6829.106131685511, -6233.5886041627655, -7133.760408611347, 0.0, -49025.17634930329, -28820.853390795397, -93475.37529174988, -63597.59731264083, 0.088, 0.896, 0.342, 192.0, 0.0, 0.0, 0.0, 0.0, 0.0, 0.0, 0.0, 0.0, 0.0, 1.7393885980754163E9, 0.0, 2025-02-12 16:29:58.075
150.0, -6990.19515397491, -6363.631053403742, -7088.274608644797, 0.0, -48975.3096074235, -28828.56474263248, -93449.7601926041, -63595.11626900629, 0.088, 0.896, 0.342, 192.0, 0.0, 0.0, 0.0, 0.0, 0.0, 0.0, 0.0, 0.0, 0.0, 1.7393885980754392E9, 0.0, 2025-02-12 16:29:58.075
151.0, -7032.261137039797, -6392.800079917918, -7079.3786143515845, 0.0, -48997.16961350079, -28834.733824102143, -93446.63094838035, -63599.96659755309, 0.088, 0.896, 0.342, 192.0, 0.0, 0.0, 0.0, 0.0, 0.0, 0.0, 0.0, 0.0, 0.0, 1.7393885980754626E9, 0.0, 2025-02-12 16:29:58.075
152.0, -6873.809620596126, -6271.407755781145, -7120.841100316179, 0.0, -49052.601939749955, -28828.721204843667, -93472.22369578168, -63603.27465573248, 0.088, 0.896, 0.342, 192.0, 0.0, 0.0, 0.0, 0.0, 0.0, 0.0, 0.0, 0.0, 0.0, 1.739388598075486E9, 0.0, 2025-02-12 16:29:58.075
153.0, -6809.056616909101, -6233.387438462668, -7133.134559766599, 0.0, -49038.76620993212, -28824.832001308445, -93473.56480044899, -63599.743080108536, 0.088, 0.896, 0.342, 192.0, 0.0, 0.0, 0.0, 0.0, 0.0, 0.0, 0.0, 0.0, 0.0, 1.73938859807551E9, 0.0, 2025-02-12 16:29:58.075
154.0, -6957.405144858974, -6354.377431199245, -7092.342626135663, 0.0, -48982.39511041583, -28834.219733979673, -93443.61346287889, -63597.440850429644, 0.088, 0.896, 0.342, 192.0, 0.0, 0.0, 0.0, 0.0, 0.0, 0.0, 0.0, 0.0, 0.0, 1.7393885980755525E9, 0.0, 2025-02-12 16:29:58.075
155.0, -7037.647907453526, -6407.328713813868, -7071.77902123678, 0.0, -48989.30179945252, -28840.187649749238, -93437.57849187595, -63599.810135341904, 0.088, 0.896, 0.342, 192.0, 0.0, 0.0, 0.0, 0.0, 0.0, 0.0, 0.0, 0.0, 0.0, 1.7393885980755775E9, 0.0, 2025-02-12 16:29:58.075
156.0, -6896.675455173905, -6291.658436257653, -7107.4300536429955, 0.0, -49046.74578270266, -28833.07979501245, -93463.6629776553, -63602.13471676526, 0.088, 0.896, 0.342, 192.0, 0.0, 0.0, 0.0, 0.0, 0.0, 0.0, 0.0, 0.0, 0.0, 1.7393885980756035E9, 0.0, 2025-02-12 16:29:58.075
157.0, -6797.634875492439, -6226.771322103897, -7132.195786499476, 0.0, -49049.383288548386, -28829.816440321978, -93472.17899229277, -63602.38058595426, 0.088, 0.896, 0.342, 192.0, 0.0, 0.0, 0.0, 0.0, 0.0, 0.0, 0.0, 0.0, 0.0, 1.7393885980756288E9, 0.0, 2025-02-12 16:29:58.075
158.0, -6922.044685130678, -6334.126750722737, -7096.432995370984, 0.0, -48991.760491342604, -28836.8572398254, -93447.59207339193, -63598.98312079706, 0.134, 0.9440000000000001, 0.34400000000000003, 192.0, 4.0, 48.0, 29.0, 128.0, 10.0, 192.0, 0.0, 0.0, 0.0, 1.739388598075656E9, 0.0, 2025-02-12 16:29:58.075
159.0, -7035.5244917302725, -6417.096426140836, -7066.213436867409, 0.0, -48983.15506972731, -28844.345074217927, -93440.39481167732, -63599.69837661963, 0.134, 0.9440000000000001, 0.34400000000000003, 192.0, 0.0, 0.0, 0.0, 0.0, 0.0, 0.0, 0.0, 0.0, 0.0, 1.7393885980756965E9, 0.0, 2025-02-12 16:29:58.075
160.0, -6924.7045427208595, -6323.844948273296, -7097.371768638107, 0.0, -49041.38136403339, -28841.349940460914, -93462.76890787708, -63604.66046388871, 0.134, 0.9440000000000001, 0.34400000000000003, 192.0, 0.0, 0.0, 0.0, 0.0, 0.0, 0.0, 0.0, 0.0, 0.0, 1.7393885980757217E9, 0.0, 2025-02-12 16:29:58.075
161.0, -6795.310294069087, -6230.794636105852, -7130.631164387604, 0.0, -49057.966358419224, -28836.14198400283, -93470.61437018089, -63605.889809833745, 0.134, 0.9440000000000001, 0.34400000000000003, 192.0, 0.0, 0.0, 0.0, 0.0, 0.0, 0.0, 0.0, 0.0, 0.0, 1.7393885980757513E9, 0.0, 2025-02-12 16:29:58.075
162.0, -6883.912609089924, -6308.981038210516, -7098.846983772157, 0.0, -49000.432968191264, -28836.74548110312, -93448.59790189241, -63598.22316148558, 0.134, 0.9440000000000001, 0.34400000000000003, 192.0, 0.0, 0.0, 0.0, 0.0, 0.0, 0.0, 0.0, 0.0, 0.0, 1.739388598075776E9, 0.0, 2025-02-12 16:29:58.075
163.0, -7022.180500290454, -6410.502661526521, -7058.926768174979, 0.0, -48975.287255679046, -28842.623989894866, -93434.06926799647, -63595.1609724952, 0.134, 0.9440000000000001, 0.34400000000000003, 192.0, 0.0, 0.0, 0.0, 0.0, 0.0, 0.0, 0.0, 0.0, 0.0, 1.739388598075813E9, 0.0, 2025-02-12 16:29:58.075
164.0, -6949.85025523308, -6343.11215199377, -7084.0724806871995, 0.0, -49031.23367205068, -28844.56859166248, -93451.28011122705, -63603.05113828792, 0.134, 0.9440000000000001, 0.34400000000000003, 192.0, 0.0, 0.0, 0.0, 0.0, 0.0, 0.0, 0.0, 0.0, 0.0, 1.7393885980758388E9, 0.0, 2025-02-12 16:29:58.075
165.0, -6797.903096425903, -6225.631383136676, -7123.433902672995, 0.0, -49061.542637532075, -28839.04771078202, -93464.28882650005, -63605.50983017801, 0.134, 0.9440000000000001, 0.34400000000000003, 192.0, 0.0, 0.0, 0.0, 0.0, 0.0, 0.0, 0.0, 0.0, 0.0, 1.7393885980758743E9, 0.0, 2025-02-12 16:29:58.075
166.0, -6851.636690096461, -6272.592398237276, -7104.591382097171, 0.0, -49014.04518056455, -28840.99231254963, -93452.9117885723, -63600.927722564666, 0.134, 0.9440000000000001, 0.34400000000000003, 192.0, 0.0, 0.0, 0.0, 0.0, 0.0, 0.0, 0.0, 0.0, 0.0, 1.7393885980759E9, 0.0, 2025-02-12 16:29:58.075
167.0, -7011.541069929728, -6386.943922870627, -7063.128896132576, 0.0, -48980.3611016704, -28851.18470802125, -93439.05370701, -63600.14541150873, 0.134, 0.9440000000000001, 0.34400000000000003, 192.0, 0.0, 0.0, 0.0, 0.0, 0.0, 0.0, 0.0, 0.0, 0.0, 1.7393885980759242E9, 0.0, 2025-02-12 16:29:58.075
168.0, -6979.376909658541, -6339.267651947457, -7076.942274205956, 0.0, -49026.740971415165, -28854.381007478358, -93449.42491643726, -63606.56036216741, 0.096, 0.928, 0.326, 192.0, 3.0, 0.0, 29.0, 0.0, 10.0, 48.0, 0.0, 0.0, 0.0, 1.7393885980759492E9, 0.0, 2025-02-12 16:29:58.075
169.0, -6815.985657690247, -6201.290333424847, -7120.975210782911, 0.0, -49070.39392833638, -28850.38004522086, -93469.34032074694, -63612.14829828123, 0.096, 0.928, 0.326, 192.0, 0.0, 0.0, 0.0, 0.0, 0.0, 0.0, 0.0, 0.0, 0.0, 1.7393885980759888E9, 0.0, 2025-02-12 16:29:58.075
170.0, -6826.915660728891, -6212.5779643747765, -7112.0121612563335, 0.0, -49034.25115755214, -28852.6599231553, -93464.91467534479, -63610.89660059174, 0.096, 0.928, 0.326, 192.0, 0.0, 0.0, 0.0, 0.0, 0.0, 0.0, 0.0, 0.0, 0.0, 1.7393885980760128E9, 0.0, 2025-02-12 16:29:58.076
171.0, -6996.0513110222, -6343.045096760404, -7070.236750869364, 0.0, -48992.900430309826, -28863.232298282663, -93445.64747162432, -63609.42138545769, 0.096, 0.928, 0.326, 192.0, 0.0, 0.0, 0.0, 0.0, 0.0, 0.0, 0.0, 0.0, 0.0, 1.7393885980760367E9, 0.0, 2025-02-12 16:29:58.076
172.0, -7009.372950717563, -6340.429942659133, -7075.869390472101, 0.0, -49027.500930726645, -28866.026266339573, -93446.67565186926, -63612.193001770145, 0.096, 0.928, 0.326, 192.0, 0.0, 0.0, 0.0, 0.0, 0.0, 0.0, 0.0, 0.0, 0.0, 1.7393885980760615E9, 0.0, 2025-02-12 16:29:58.076
173.0, -6840.2373004242545, -6201.491499124944, -7116.795434569769, 0.0, -49075.870105727925, -28859.588963936447, -93466.99338757913, -63616.39512972774, 0.096, 0.928, 0.326, 192.0, 0.0, 0.0, 0.0, 0.0, 0.0, 0.0, 0.0, 0.0, 0.0, 1.7393885980760863E9, 0.0, 2025-02-12 16:29:58.076
174.0, -6804.988599418235, -6179.072699436271, -7115.7672543248245, 0.0, -49050.769096704615, -28860.594792436936, -93468.42389922428, -63616.97627508358, 0.096, 0.928, 0.326, 192.0, 0.0, 0.0, 0.0, 0.0, 0.0, 0.0, 0.0, 0.0, 0.0, 1.7393885980761104E9, 0.0, 2025-02-12 16:29:58.076
175.0, -6967.888113008513, -6305.203593397569, -7072.695442759448, 0.0, -49000.589430402455, -28868.596716951935, -93446.49683791363, -63612.4165192147, 0.096, 0.928, 0.326, 192.0, 0.0, 0.0, 0.0, 0.0, 0.0, 0.0, 0.0, 0.0, 0.0, 1.739388598076146E9, 0.0, 2025-02-12 16:29:58.076
176.0, -7023.186328790943, -6337.166587968659, -7066.995747923344, 0.0, -49019.96839284521, -28869.647248941335, -93441.78061983355, -63610.53897268045, 0.096, 0.928, 0.326, 192.0, 0.0, 0.0, 0.0, 0.0, 0.0, 0.0, 0.0, 0.0, 0.0, 1.7393885980761704E9, 0.0, 2025-02-12 16:29:58.076
177.0, -6862.164361734911, -6206.8782695386735, -7104.345512908163, 0.0, -49070.32687310301, -28860.527737203567, -93459.75142237562, -63612.193001770145, 0.096, 0.928, 0.326, 192.0, 0.0, 0.0, 0.0, 0.0, 0.0, 0.0, 0.0, 0.0, 0.0, 1.7393885980761957E9, 0.0, 2025-02-12 16:29:58.076
178.0, -6785.922561397858, -6156.02805090285, -7114.73907407988, 0.0, -49060.201532864754, -28862.114711059894, -93467.46277421269, -63616.46218496111, 0.088, 0.932, 0.332, 192.0, 2.0, 192.0, 29.0, 32.0, 10.0, 96.0, 0.0, 0.0, 0.0, 1.739388598076219E9, 0.0, 2025-02-12 16:29:58.076
179.0, -6935.321621337131, -6277.800354695363, -7077.009329439322, 0.0, -49009.35131422893, -28873.24587979864, -93449.6037303929, -63615.52341169398, 0.088, 0.932, 0.332, 192.0, 0.0, 0.0, 0.0, 0.0, 0.0, 0.0, 0.0, 0.0, 0.0, 1.739388598076253E9, 0.0, 2025-02-12 16:29:58.076
180.0, -7031.121198072577, -6345.012050272471, -7062.2348263543645, 0.0, -49015.36393348741, -28876.688048444757, -93439.2548727101, -63612.8635541038, 0.088, 0.932, 0.332, 192.0, 0.0, 0.0, 0.0, 0.0, 0.0, 0.0, 0.0, 0.0, 0.0, 1.739388598076276E9, 0.0, 2025-02-12 16:29:58.076
181.0, -6895.557867951139, -6234.326211729791, -7099.651646572548, 0.0, -49070.72920450321, -28871.547147220033, -93456.80099210751, -63617.155089039225, 0.088, 0.932, 0.332, 192.0, 0.0, 0.0, 0.0, 0.0, 0.0, 0.0, 0.0, 0.0, 0.0, 1.7393885980762985E9, 0.0, 2025-02-12 16:29:58.076
182.0, -6779.775831672649, -6151.177722356048, -7116.951896780956, 0.0, -49073.45611732675, -28871.413036753303, -93470.34614924743, -63622.608914686316, 0.088, 0.932, 0.332, 192.0, 0.0, 0.0, 0.0, 0.0, 0.0, 0.0, 0.0, 0.0, 0.0, 1.7393885980763216E9, 0.0, 2025-02-12 16:29:58.076
183.0, -6899.1117953195335, -6250.195950293059, -7080.786774252269, 0.0, -49020.638945178864, -28879.549071735037, -93454.58816940644, -63620.12787105178, 0.088, 0.932, 0.332, 192.0, 0.0, 0.0, 0.0, 0.0, 0.0, 0.0, 0.0, 0.0, 0.0, 1.7393885980763447E9, 0.0, 2025-02-12 16:29:58.076
184.0, -7029.467168982884, -6346.129637495236, -7058.435029796962, 0.0, -49012.63702066386, -28883.371220036894, -93437.64554710932, -63614.83050761587, 0.088, 0.932, 0.332, 192.0, 0.0, 0.0, 0.0, 0.0, 0.0, 0.0, 0.0, 0.0, 0.0, 1.7393885980763683E9, 0.0, 2025-02-12 16:29:58.076
185.0, -6926.1127026215445, -6258.622557952709, -7090.755652279336, 0.0, -49065.40948932285, -28878.14091183435, -93450.67661412676, -63617.33390299486, 0.088, 0.932, 0.332, 192.0, 0.0, 0.0, 0.0, 0.0, 0.0, 0.0, 0.0, 0.0, 0.0, 1.7393885980764E9, 0.0, 2025-02-12 16:29:58.076
186.0, -6781.541619484618, -6150.9989084004055, -7116.907193292045, 0.0, -49081.99448370868, -28877.135083333862, -93471.50843995911, -63624.575868198386, 0.088, 0.932, 0.332, 192.0, 0.0, 0.0, 0.0, 0.0, 0.0, 0.0, 0.0, 0.0, 0.0, 1.7393885980764256E9, 0.0, 2025-02-12 16:29:58.076
187.0, -6865.8300478255815, -6225.072589525294, -7088.207553411431, 0.0, -49033.60295696294, -28885.986374138163, -93462.52303868807, -63624.95584785412, 0.088, 0.932, 0.332, 192.0, 0.0, 0.0, 0.0, 0.0, 0.0, 0.0, 0.0, 0.0, 0.0, 1.7393885980764513E9, 0.0, 2025-02-12 16:29:58.076
188.0, -7018.693628155426, -6341.055791503882, -7056.468076284895, 0.0, -49010.53595668507, -28889.942632906754, -93439.67955585475, -63617.4680134616, 0.076, 0.924, 0.338, 192.0, 2.0, 96.0, 28.0, 224.0, 10.0, 144.0, 0.0, 0.0, 0.0, 1.7393885980764756E9, 0.0, 2025-02-12 16:29:58.076
189.0, -6954.432362846418, -6283.276532086913, -7081.569085308205, 0.0, -49058.413393308336, -28885.09230435995, -93448.66495712579, -63618.07151056189, 0.076, 0.924, 0.338, 192.0, 0.0, 0.0, 0.0, 0.0, 0.0, 0.0, 0.0, 0.0, 0.0, 1.7393885980765002E9, 0.0, 2025-02-12 16:29:58.076
190.0, -6789.923523655359, -6157.2797485923475, -7113.26385894583, 0.0, -49087.15773667786, -28880.6666589578, -93470.83788762544, -63624.709978665116, 0.076, 0.924, 0.338, 192.0, 0.0, 0.0, 0.0, 0.0, 0.0, 0.0, 0.0, 0.0, 0.0, 1.7393885980765345E9, 0.0, 2025-02-12 16:29:58.076
191.0, -6831.117788686489, -6198.22814443447, -7090.867411001613, 0.0, -49044.08592511248, -28887.014554383106, -93462.67950089926, -63625.335827509865, 0.076, 0.924, 0.338, 192.0, 0.0, 0.0, 0.0, 0.0, 0.0, 0.0, 0.0, 0.0, 0.0, 1.7393885980765595E9, 0.0, 2025-02-12 16:29:58.076
192.0, -6998.867630823569, -6329.477587876033, -7055.082268128666, 0.0, -49009.48542469567, -28894.72590622019, -93437.42202966477, -63618.78676638446, 0.076, 0.924, 0.338, 192.0, 0.0, 0.0, 0.0, 0.0, 0.0, 0.0, 0.0, 0.0, 0.0, 1.7393885980765853E9, 0.0, 2025-02-12 16:29:58.076
193.0, -6977.409956146474, -6305.114186419748, -7071.130820647576, 0.0, -49048.60097749245, -28890.65788872932, -93441.73591634464, -63616.931571594665, 0.076, 0.924, 0.338, 192.0, 0.0, 0.0, 0.0, 0.0, 0.0, 0.0, 0.0, 0.0, 0.0, 1.7393885980766108E9, 0.0, 2025-02-12 16:29:58.076
194.0, -6808.1848988753445, -6172.858914477696, -7109.508765877339, 0.0, -49091.80689952456, -28886.031077627074, -93468.53565794656, -63625.671103676694, 0.076, 0.924, 0.338, 192.0, 0.0, 0.0, 0.0, 0.0, 0.0, 0.0, 0.0, 0.0, 0.0, 1.7393885980766356E9, 0.0, 2025-02-12 16:29:58.076
195.0, -6808.3637128309865, -6182.246647148925, -7099.226963427897, 0.0, -49061.45323055425, -28893.809484697522, -93469.34032074694, -63631.1696328127, 0.076, 0.924, 0.338, 192.0, 0.0, 0.0, 0.0, 0.0, 0.0, 0.0, 0.0, 0.0, 0.0, 1.7393885980766847E9, 0.0, 2025-02-12 16:29:58.076
196.0, -6975.755927056781, -6316.357113880767, -7058.7703059637915, 0.0, -49014.51456719811, -28902.303147590537, -93443.03231752304, -63623.659446675716, 0.076, 0.924, 0.338, 192.0, 0.0, 0.0, 0.0, 0.0, 0.0, 0.0, 0.0, 0.0, 0.0, 1.73938859807671E9, 0.0, 2025-02-12 16:29:58.076
197.0, -6996.274828466753, -6325.230756429524, -7063.1735996214875, 0.0, -49039.883797154886, -28897.743391721655, -93438.58432037644, -63617.4680134616, 0.076, 0.924, 0.338, 192.0, 0.0, 0.0, 0.0, 0.0, 0.0, 0.0, 0.0, 0.0, 0.0, 1.7393885980767334E9, 0.0, 2025-02-12 16:29:58.076
198.0, -6832.481245098263, -6194.160126943604, -7104.6137338416265, 0.0, -49093.30446640307, -28891.998993396643, -93465.20524802271, -63626.36400775481, 0.074, 0.93, 0.34800000000000003, 192.0, 2.0, 80.0, 29.0, 16.0, 10.0, 224.0, 0.0, 0.0, 0.0, 1.7393885980767562E9, 0.0, 2025-02-12 16:29:58.076
199.0, -6787.688349209828, -6167.047460919316, -7102.7361873073805, 0.0, -49073.97020744922, -28896.42463879879, -93471.50843995911, -63632.77895841348, 0.074, 0.93, 0.34800000000000003, 192.0, 0.0, 0.0, 0.0, 0.0, 0.0, 0.0, 0.0, 0.0, 0.0, 1.7393885980767896E9, 0.0, 2025-02-12 16:29:58.076
200.0, -6941.915385951446, -6293.133651391703, -7058.457381541417, 0.0, -49016.95090734374, -28903.800714469042, -93444.3510704459, -63623.435929231164, 0.074, 0.93, 0.34800000000000003, 192.0, 0.0, 0.0, 0.0, 0.0, 0.0, 0.0, 0.0, 0.0, 0.0, 1.7393885980768135E9, 0.0, 2025-02-12 16:29:58.076
201.0, -7005.4166919489735, -6337.457160646577, -7053.987032650356, 0.0, -49029.78080866108, -28902.616072012912, -93433.37636391836, -63616.08220530536, 0.074, 0.93, 0.34800000000000003, 192.0, 0.0, 0.0, 0.0, 0.0, 0.0, 0.0, 0.0, 0.0, 0.0, 1.7393885980768452E9, 0.0, 2025-02-12 16:29:58.076
202.0, -6857.4928471437515, -6216.400112676634, -7095.605980826138, 0.0, -49088.72235878973, -28895.731734720677, -93457.22567525216, -63623.95001935364, 0.074, 0.93, 0.34800000000000003, 192.0, 0.0, 0.0, 0.0, 0.0, 0.0, 0.0, 0.0, 0.0, 0.0, 1.7393885980768716E9, 0.0, 2025-02-12 16:29:58.076
203.0, -6775.327834526042, -6158.643205004121, -7106.2007076979535, 0.0, -49086.151908177366, -28900.447952800747, -93472.78248939307, -63634.902374136735, 0.074, 0.93, 0.34800000000000003, 192.0, 0.0, 0.0, 0.0, 0.0, 0.0, 0.0, 0.0, 0.0, 0.0, 1.7393885980768983E9, 0.0, 2025-02-12 16:29:58.076
204.0, -6910.466481502829, -6272.190066837081, -7064.648814755537, 0.0, -49027.34446851545, -28910.14860989435, -93449.49197167064, -63628.37566475578, 0.074, 0.93, 0.34800000000000003, 192.0, 0.0, 0.0, 0.0, 0.0, 0.0, 0.0, 0.0, 0.0, 0.0, 1.7393885980769255E9, 0.0, 2025-02-12 16:29:58.076
205.0, -7008.121253028065, -6344.632070616731, -7047.415619780496, 0.0, -49022.2706225241, -28908.941615693762, -93428.83895979392, -63616.238667516554, 0.074, 0.93, 0.34800000000000003, 192.0, 0.0, 0.0, 0.0, 0.0, 0.0, 0.0, 0.0, 0.0, 0.0, 1.739388598076952E9, 0.0, 2025-02-12 16:29:58.076
206.0, -6884.046719556656, -6240.3388309882685, -7085.4806405878835, 0.0, -49081.34628311948, -28900.51500803411, -93448.77671584806, -63621.200754785634, 0.074, 0.93, 0.34800000000000003, 192.0, 0.0, 0.0, 0.0, 0.0, 0.0, 0.0, 0.0, 0.0, 0.0, 1.7393885980769873E9, 0.0, 2025-02-12 16:29:58.076
207.0, -6767.080040822035, -6152.6976409790095, -7104.680789074992, 0.0, -49092.99154198069, -28901.16320862332, -93469.67559691377, -63632.600144457836, 0.074, 0.93, 0.34800000000000003, 192.0, 0.0, 0.0, 0.0, 0.0, 0.0, 0.0, 0.0, 0.0, 0.0, 1.739388598077013E9, 0.0, 2025-02-12 16:29:58.077
208.0, -6873.2284752402875, -6244.898586857151, -7067.085154901166, 0.0, -49034.89935814135, -28911.06503141702, -93449.6037303929, -63628.30860952242, 0.068, 0.932, 0.34, 192.0, 2.0, 32.0, 29.0, 32.0, 10.0, 160.0, 0.0, 0.0, 0.0, 1.7393885980770364E9, 0.0, 2025-02-12 16:29:58.077
209.0, -7000.901639569001, -6343.670945605153, -7040.754799932814, 0.0, -49015.14041604286, -28913.031984929086, -93423.92157601376, -63615.27754250498, 0.068, 0.932, 0.34, 192.0, 0.0, 0.0, 0.0, 0.0, 0.0, 0.0, 0.0, 0.0, 0.0, 1.7393885980770612E9, 0.0, 2025-02-12 16:29:58.077
210.0, -6907.851327401559, -6262.28824404338, -7071.935483447967, 0.0, -49069.76807949163, -28903.37603132439, -93438.38315467634, -63616.104557049825, 0.068, 0.932, 0.34, 192.0, 0.0, 0.0, 0.0, 0.0, 0.0, 0.0, 0.0, 0.0, 0.0, 1.7393885980770907E9, 0.0, 2025-02-12 16:29:58.077
211.0, -6767.191799544311, -6153.681117735043, -7101.7974140402575, 0.0, -49098.13244320541, -28902.794885968553, -93465.65228291182, -63630.141452567754, 0.068, 0.932, 0.34, 192.0, 0.0, 0.0, 0.0, 0.0, 0.0, 0.0, 0.0, 0.0, 0.0, 1.739388598077114E9, 0.0, 2025-02-12 16:29:58.077
212.0, -6838.940899245847, -6219.931688300573, -7072.181352636976, 0.0, -49046.49991351365, -28913.411964584826, -93452.19653274972, -63629.98499035657, 0.068, 0.932, 0.34, 192.0, 0.0, 0.0, 0.0, 0.0, 0.0, 0.0, 0.0, 0.0, 0.0, 1.7393885980771372E9, 0.0, 2025-02-12 16:29:58.077
213.0, -6987.3341306846305, -6337.524215879944, -7037.558500475705, 0.0, -49012.055875308026, -28917.77055475361, -93423.29572716901, -63616.12690879428, 0.068, 0.932, 0.34, 192.0, 0.0, 0.0, 0.0, 0.0, 0.0, 0.0, 0.0, 0.0, 0.0, 1.7393885980771601E9, 0.0, 2025-02-12 16:29:58.077
214.0, -6933.198205613877, -6286.6516454996645, -7061.676032742982, 0.0, -49060.24623635367, -28909.7239267497, -93432.72816332916, -63614.78580412696, 0.068, 0.932, 0.34, 192.0, 0.0, 0.0, 0.0, 0.0, 0.0, 0.0, 0.0, 0.0, 0.0, 1.7393885980771835E9, 0.0, 2025-02-12 16:29:58.077
215.0, -6775.886628137426, -6162.241835861425, -7097.863507016124, 0.0, -49100.99346649569, -28906.371165081404, -93461.7630793766, -63628.330961266875, 0.068, 0.932, 0.34, 192.0, 0.0, 0.0, 0.0, 0.0, 0.0, 0.0, 0.0, 0.0, 0.0, 1.7393885980772061E9, 0.0, 2025-02-12 16:29:58.077
216.0, -6811.336494843543, -6200.284504924358, -7080.853829485635, 0.0, -49062.436707310284, -28919.335176865483, -93459.63966365335, -63635.01413285901, 0.068, 0.932, 0.34, 192.0, 0.0, 0.0, 0.0, 0.0, 0.0, 0.0, 0.0, 0.0, 0.0, 1.739388598077235E9, 0.0, 2025-02-12 16:29:58.077
217.0, -6972.112592710566, -6329.768160553952, -7041.760628433303, 0.0, -49018.18025328878, -28927.00182521365, -93431.05178249501, -63622.9665425976, 0.068, 0.932, 0.34, 192.0, 0.0, 0.0, 0.0, 0.0, 0.0, 0.0, 0.0, 0.0, 0.0, 1.739388598077258E9, 0.0, 2025-02-12 16:29:58.077
218.0, -6959.975595471335, -6312.266744645446, -7056.512779773806, 0.0, -49056.13351537389, -28921.05626118854, -93432.5046458846, -63619.099690806834, 0.058, 0.922, 0.35000000000000003, 192.0, 1.0, 208.0, 28.0, 208.0, 10.0, 240.0, 0.0, 0.0, 0.0, 1.7393885980772808E9, 0.0, 2025-02-12 16:29:58.077
219.0, -6795.422052791364, -6180.458507592501, -7095.963608737423, 0.0, -49105.19559445329, -28914.68601401878, -93459.68436714225, -63630.49908047904, 0.058, 0.922, 0.35000000000000003, 192.0, 0.0, 0.0, 0.0, 0.0, 0.0, 0.0, 0.0, 0.0, 0.0, 1.7393885980773053E9, 0.0, 2025-02-12 16:29:58.077
220.0, -6783.128593340945, -6179.229161647459, -7083.692501031459, 0.0, -49073.65728302685, -28919.849266987952, -93460.57843692046, -63634.72356018109, 0.058, 0.922, 0.35000000000000003, 192.0, 0.0, 0.0, 0.0, 0.0, 0.0, 0.0, 0.0, 0.0, 0.0, 1.7393885980773282E9, 0.0, 2025-02-12 16:29:58.077
221.0, -6946.273976120231, -6311.551488822876, -7042.6323464670595, 0.0, -49023.723485913695, -28929.5275723371, -93434.98568951913, -63625.961676354615, 0.058, 0.922, 0.35000000000000003, 192.0, 0.0, 0.0, 0.0, 0.0, 0.0, 0.0, 0.0, 0.0, 0.0, 1.7393885980773516E9, 0.0, 2025-02-12 16:29:58.077
222.0, -6976.38177590153, -6328.315297164357, -7046.812122680202, 0.0, -49048.13159085889, -28926.308921135536, -93428.79425630502, -63619.74789139604, 0.058, 0.922, 0.35000000000000003, 192.0, 0.0, 0.0, 0.0, 0.0, 0.0, 0.0, 0.0, 0.0, 0.0, 1.7393885980773807E9, 0.0, 2025-02-12 16:29:58.077
223.0, -6816.566803046085, -6200.08333922426, -7088.922809234001, 0.0, -49103.42980664132, -28920.095136176962, -93455.48223918465, -63629.515603723004, 0.058, 0.922, 0.35000000000000003, 192.0, 0.0, 0.0, 0.0, 0.0, 0.0, 0.0, 0.0, 0.0, 0.0, 1.7393885980774038E9, 0.0, 2025-02-12 16:29:58.077
224.0, -6766.498895466197, -6169.46144932049, -7091.06857670171, 0.0, -49088.744710534185, -28927.158287424838, -93466.14402128983, -63639.68564745017, 0.058, 0.922, 0.35000000000000003, 192.0, 0.0, 0.0, 0.0, 0.0, 0.0, 0.0, 0.0, 0.0, 0.0, 1.739388598077427E9, 0.0, 2025-02-12 16:29:58.077
225.0, -6918.580164740106, -6294.385349081201, -7048.488503514351, 0.0, -49032.93240462928, -28936.63542707389, -93440.26070121059, -63631.8178334019, 0.058, 0.922, 0.35000000000000003, 192.0, 0.0, 0.0, 0.0, 0.0, 0.0, 0.0, 0.0, 0.0, 0.0, 1.7393885980774503E9, 0.0, 2025-02-12 16:29:58.077
226.0, -6986.90944753998, -6341.793399070907, -7039.72661968787, 0.0, -49040.442590766266, -28933.21561017223, -93425.53090161455, -63621.04429257444, 0.058, 0.922, 0.35000000000000003, 192.0, 0.0, 0.0, 0.0, 0.0, 0.0, 0.0, 0.0, 0.0, 0.0, 1.7393885980774798E9, 0.0, 2025-02-12 16:29:58.077
227.0, -6841.6454603249385, -6223.306801713325, -7080.227980640886, 0.0, -49097.35013214948, -28925.59366531297, -93449.64843388181, -63627.906278122224, 0.058, 0.922, 0.35000000000000003, 192.0, 0.0, 0.0, 0.0, 0.0, 0.0, 0.0, 0.0, 0.0, 0.0, 1.7393885980775163E9, 0.0, 2025-02-12 16:29:58.077
228.0, -6753.490180193207, -6161.772449227864, -7093.504916847339, 0.0, -49097.10426296047, -28930.95808398224, -93466.63575966786, -63640.31149629492, 0.03, 0.886, 0.362, 192.0, 0.0, 240.0, 27.0, 176.0, 11.0, 80.0, 0.0, 0.0, 0.0, 1.7393885980775404E9, 0.0, 2025-02-12 16:29:58.077
229.0, -6884.806678868137, -6271.318348803324, -7052.534169260761, 0.0, -49040.42023902181, -28939.78702304209, -93441.73591634464, -63634.3212287809, 0.03, 0.886, 0.362, 192.0, 0.0, 0.0, 0.0, 0.0, 0.0, 0.0, 0.0, 0.0, 0.0, 1.7393885980775669E9, 0.0, 2025-02-12 16:29:58.077
230.0, -6990.3292644416415, -6348.92360555215, -7034.339849274141, 0.0, -49032.7759424181, -28939.33998815298, -93420.2558899231, -63623.27946701997, 0.03, 0.886, 0.362, 192.0, 0.0, 0.0, 0.0, 0.0, 0.0, 0.0, 0.0, 0.0, 0.0, 1.7393885980775912E9, 0.0, 2025-02-12 16:29:58.077
231.0, -6869.2945682161535, -6248.0278310808935, -7070.996710180844, 0.0, -49088.05180645607, -28931.673339804813, -93442.78644833404, -63627.32513276639, 0.03, 0.886, 0.362, 192.0, 0.0, 0.0, 0.0, 0.0, 0.0, 0.0, 0.0, 0.0, 0.0, 1.7393885980776277E9, 0.0, 2025-02-12 16:29:58.077
232.0, -6744.683592877816, -6156.005699158394, -7091.090928446166, 0.0, -49096.12078620443, -28932.96974098322, -93469.42972772477, -63638.70217069414, 0.03, 0.886, 0.362, 192.0, 0.0, 0.0, 0.0, 0.0, 0.0, 0.0, 0.0, 0.0, 0.0, 1.7393885980776594E9, 0.0, 2025-02-12 16:29:58.077
233.0, -6846.808713294115, -6243.445723467556, -7055.574006506683, 0.0, -49039.3250035435, -28941.932790509796, -93463.48416369966, -63637.003438115535, 0.03, 0.886, 0.362, 192.0, 0.0, 0.0, 0.0, 0.0, 0.0, 0.0, 0.0, 0.0, 0.0, 1.7393885980776844E9, 0.0, 2025-02-12 16:29:58.077
234.0, -6979.913351525468, -6343.313317693868, -7027.0755323261665, 0.0, -49016.07918930998, -28941.19518294277, -93451.72714611616, -63623.83826063136, 0.03, 0.886, 0.362, 192.0, 0.0, 0.0, 0.0, 0.0, 0.0, 0.0, 0.0, 0.0, 0.0, 1.7393885980777092E9, 0.0, 2025-02-12 16:29:58.077
235.0, -6890.215801026321, -6265.6410057116755, -7055.819875695691, 0.0, -49064.00132942216, -28932.030967716095, -93476.53758246155, -63622.87713561978, 0.03, 0.886, 0.362, 192.0, 0.0, 0.0, 0.0, 0.0, 0.0, 0.0, 0.0, 0.0, 0.0, 1.7393885980777338E9, 0.0, 2025-02-12 16:29:58.077
236.0, -6739.654450375373, -6151.512998522878, -7083.692501031459, 0.0, -49086.80010876657, -28931.069842704517, -93509.79697821104, -63633.650676447236, 0.03, 0.886, 0.362, 192.0, 0.0, 0.0, 0.0, 0.0, 0.0, 0.0, 0.0, 0.0, 0.0, 1.7393885980777583E9, 0.0, 2025-02-12 16:29:58.077
237.0, -6808.877802953459, -6214.187289975559, -7058.211512352409, 0.0, -49041.64958496685, -28942.737453310187, -93506.80184445404, -63637.428121260185, 0.03, 0.886, 0.362, 192.0, 0.0, 0.0, 0.0, 0.0, 0.0, 0.0, 0.0, 0.0, 0.0, 1.7393885980777905E9, 0.0, 2025-02-12 16:29:58.077
238.0, -6965.563531585161, -6333.545605366899, -7023.767474146781, 0.0, -49009.55247992903, -28944.950276011263, -93479.59977145193, -63625.00055134304, 0.044, 0.868, 0.33, 192.0, 1.0, 96.0, 27.0, 32.0, 10.0, 80.0, 0.0, 0.0, 0.0, 1.7393885980778153E9, 0.0, 2025-02-12 16:29:58.077
239.0, -6917.395522283974, -6286.897514688673, -7045.023983123778, 0.0, -49051.95373916075, -28936.25544741815, -93482.95253312023, -63620.91018210771, 0.044, 0.868, 0.33, 192.0, 0.0, 0.0, 0.0, 0.0, 0.0, 0.0, 0.0, 0.0, 0.0, 1.739388598077842E9, 0.0, 2025-02-12 16:29:58.077
240.0, -6755.546540683096, -6160.7442689829195, -7082.418451597507, 0.0, -49091.38221637991, -28935.49548810667, -93508.38881831037, -63633.69537993615, 0.044, 0.868, 0.33, 192.0, 0.0, 0.0, 0.0, 0.0, 0.0, 0.0, 0.0, 0.0, 0.0, 1.739388598077866E9, 0.0, 2025-02-12 16:29:58.077
241.0, -6784.089718352523, -6191.410862375601, -7066.369899078596, 0.0, -49056.82641945201, -28946.470194634225, -93502.66677172981, -63640.579717228386, 0.044, 0.868, 0.33, 192.0, 0.0, 0.0, 0.0, 0.0, 0.0, 0.0, 0.0, 0.0, 0.0, 1.7393885985541122E9, 0.0, 2025-02-12 16:29:58.554
242.0, -6952.33129886762, -6322.772064539441, -7028.707209671404, 0.0, -49016.28035501008, -28952.795738315075, -93472.87189637088, -63631.482557235075, 0.044, 0.868, 0.33, 192.0, 0.0, 0.0, 0.0, 0.0, 0.0, 0.0, 0.0, 0.0, 0.0, 1.7393885985542042E9, 0.0, 2025-02-12 16:29:58.554
243.0, -6945.6034237865715, -6308.802224254874, -7039.972488876879, 0.0, -49049.13741935938, -28945.039682989085, -93473.60950393791, -63624.32999900937, 0.044, 0.868, 0.33, 192.0, 0.0, 0.0, 0.0, 0.0, 0.0, 0.0, 0.0, 0.0, 0.0, 1.7393885985542316E9, 0.0, 2025-02-12 16:29:58.554
244.0, -6778.658244449884, -6178.893885480629, -7080.6079602966265, 0.0, -49097.66305657185, -28942.62569458791, -93502.95734440773, -63635.63998170376, 0.044, 0.868, 0.33, 192.0, 0.0, 0.0, 0.0, 0.0, 0.0, 0.0, 0.0, 0.0, 0.0, 1.739388598554257E9, 0.0, 2025-02-12 16:29:58.554
245.0, -6759.0557645625795, -6174.423536589567, -7070.683785758471, 0.0, -49070.215114380735, -28949.62179060242, -93505.19251885326, -63642.36785678481, 0.044, 0.868, 0.33, 192.0, 0.0, 0.0, 0.0, 0.0, 0.0, 0.0, 0.0, 0.0, 0.0, 1.7393885985542817E9, 0.0, 2025-02-12 16:29:58.554
246.0, -6918.8930891624805, -6303.661323030153, -7025.130930558555, 0.0, -49015.63215442088, -28954.047436004574, -93481.23144879716, -63630.700246179134, 0.044, 0.868, 0.33, 192.0, 0.0, 0.0, 0.0, 0.0, 0.0, 0.0, 0.0, 0.0, 0.0, 1.7393885985543067E9, 0.0, 2025-02-12 16:29:58.554
247.0, -6954.834694246614, -6326.929489008127, -7026.293221270231, 0.0, -49036.41927676431, -28949.465328391234, -93481.812594153, -63622.251286775034, 0.044, 0.868, 0.33, 192.0, 0.0, 0.0, 0.0, 0.0, 0.0, 0.0, 0.0, 0.0, 0.0, 1.7393885985543318E9, 0.0, 2025-02-12 16:29:58.554
248.0, -6793.969189401769, -6200.08333922426, -7067.912169446012, 0.0, -49090.9351814908, -28946.716063823234, -93504.63372524187, -63631.68372293517, 0.068, 0.896, 0.31, 192.0, 2.0, 32.0, 28.0, 0.0, 9.0, 176.0, 0.0, 0.0, 0.0, 1.739388598554374E9, 0.0, 2025-02-12 16:29:58.554
249.0, -6733.887700305903, -6159.6266817601545, -7070.326157847186, 0.0, -49077.56883830653, -28955.45559590526, -93507.76296946562, -63642.256098062535, 0.068, 0.896, 0.31, 192.0, 0.0, 0.0, 0.0, 0.0, 0.0, 0.0, 0.0, 0.0, 0.0, 1.7393885985544016E9, 0.0, 2025-02-12 16:29:58.554
250.0, -6885.879562601992, -6283.567104764832, -7028.930727115957, 0.0, -49024.25992778062, -28965.044494276586, -93485.92531513279, -63636.39994101524, 0.068, 0.896, 0.31, 192.0, 0.0, 0.0, 0.0, 0.0, 0.0, 0.0, 0.0, 0.0, 0.0, 1.7393885985544302E9, 0.0, 2025-02-12 16:29:58.554
251.0, -6959.483857093318, -6337.59127111331, -7015.765549631781, 0.0, -49027.925613871295, -28958.20486047326, -93470.16733529179, -63622.474804219586, 0.068, 0.896, 0.31, 192.0, 0.0, 0.0, 0.0, 0.0, 0.0, 0.0, 0.0, 0.0, 0.0, 1.739388598554457E9, 0.0, 2025-02-12 16:29:58.554
252.0, -6811.91764019938, -6217.517699899399, -7051.5506925047275, 0.0, -49080.072233685525, -28950.962895269742, -93485.29946628804, -63625.22406878759, 0.068, 0.896, 0.31, 192.0, 0.0, 0.0, 0.0, 0.0, 0.0, 0.0, 0.0, 0.0, 0.0, 1.7393885985544865E9, 0.0, 2025-02-12 16:29:58.554
253.0, -6717.503871620163, -6146.640318231621, -7068.001576423833, 0.0, -49085.01196921015, -28963.524575653624, -93506.19834735374, -63640.93734513967, 0.068, 0.896, 0.31, 192.0, 0.0, 0.0, 0.0, 0.0, 0.0, 0.0, 0.0, 0.0, 0.0, 1.7393885985545268E9, 0.0, 2025-02-12 16:29:58.554
254.0, -6853.313070930609, -6249.659508426132, -7034.004573107311, 0.0, -49034.832302907984, -28979.975459572728, -93495.64832397085, -63641.7196561956, 0.068, 0.896, 0.31, 192.0, 0.0, 0.0, 0.0, 0.0, 0.0, 0.0, 0.0, 0.0, 0.0, 1.7393885985545523E9, 0.0, 2025-02-12 16:29:58.554
255.0, -6967.150505441488, -6321.766236038952, -7014.24563100882, 0.0, -49026.316288270515, -28978.276726994125, -93477.18578305075, -63628.71094092262, 0.068, 0.896, 0.31, 192.0, 0.0, 0.0, 0.0, 0.0, 0.0, 0.0, 0.0, 0.0, 0.0, 1.7393885985545795E9, 0.0, 2025-02-12 16:29:58.554
0.0, -6850.9214342738915, -6219.7305226004755, -7049.561387248205, 0.0, -49081.05571044156, -28971.235927490703, -93494.8660129149, -63631.482557235075, 0.068, 0.896, 0.31, 192.0, 0.0, 0.0, 0.0, 0.0, 0.0, 0.0, 0.0, 0.0, 0.0, 1.739388598554607E9, 0.0, 2025-02-12 16:29:58.554
1.0, -6720.878985032915, -6118.834748129219, -7072.896608459546, 0.0, -49096.992504238195, -28975.952145570773, -93523.36448709542, -63646.01119113102, 0.068, 0.896, 0.31, 192.0, 0.0, 0.0, 0.0, 0.0, 0.0, 0.0, 0.0, 0.0, 0.0, 1.739388598554643E9, 0.0, 2025-02-12 16:29:58.554
2.0, -6814.868070467481, -6197.669350823087, -7036.3515062751185, 0.0, -49041.51547450012, -28984.043477063595, -93514.55789978003, -63643.64190621876, 0.054, 0.912, 0.31, 192.0, 1.0, 176.0, 28.0, 128.0, 9.0, 176.0, 0.0, 0.0, 0.0, 1.7393885985546665E9, 0.0, 2025-02-12 16:29:58.554
3.0, -6954.789990757703, -6305.047131186382, -7007.5848111611385, 0.0, -49019.744875400655, -28983.708200896766, -93491.13327159086, -63631.10257757933, 0.054, 0.912, 0.31, 192.0, 0.0, 0.0, 0.0, 0.0, 0.0, 0.0, 0.0, 0.0, 0.0, 1.7393885985547044E9, 0.0, 2025-02-12 16:29:58.554
4.0, -6872.5802746510835, -6230.28054598338, -7035.815064408192, 0.0, -49068.270512613126, -28975.438055448303, -93495.4695100152, -63630.096749078846, 0.054, 0.912, 0.31, 192.0, 0.0, 0.0, 0.0, 0.0, 0.0, 0.0, 0.0, 0.0, 0.0, 1.739388598554728E9, 0.0, 2025-02-12 16:29:58.554
5.0, -6715.961601252748, -6106.518936934345, -7064.022965910789, 0.0, -49092.27628615812, -28975.25924149266, -93519.20706262674, -63641.09380735086, 0.054, 0.912, 0.31, 192.0, 0.0, 0.0, 0.0, 0.0, 0.0, 0.0, 0.0, 0.0, 0.0, 1.7393885985547516E9, 0.0, 2025-02-12 16:29:58.554
6.0, -6772.444459491308, -6157.704431736998, -7036.016230108289, 0.0, -49045.47173326871, -28983.864663107954, -93518.89413820436, -63642.50196725154, 0.054, 0.912, 0.31, 192.0, 0.0, 0.0, 0.0, 0.0, 0.0, 0.0, 0.0, 0.0, 0.0, 1.7393885985547757E9, 0.0, 2025-02-12 16:29:58.554
7.0, -6930.136016623499, -6279.499087273966, -6999.6052383905935, 0.0, -49011.60884041892, -28985.02695381963, -93494.06135011451, -63629.873231634294, 0.054, 0.912, 0.31, 192.0, 0.0, 0.0, 0.0, 0.0, 0.0, 0.0, 0.0, 0.0, 0.0, 1.7393885985548103E9, 0.0, 2025-02-12 16:29:58.554
8.0, -6891.914533604924, -6240.450589710545, -7022.091093312632, 0.0, -49054.79241070657, -28981.02599156213, -93497.54822224953, -63628.0180368445, 0.054, 0.912, 0.31, 192.0, 0.0, 0.0, 0.0, 0.0, 0.0, 0.0, 0.0, 0.0, 0.0, 1.739388598554835E9, 0.0, 2025-02-12 16:29:58.554
9.0, -6726.735142080205, -6111.212803269959, -7059.39615480854, 0.0, -49093.773853036626, -28982.903538096376, -93523.94563245126, -63640.40090327274, 0.054, 0.912, 0.31, 192.0, 0.0, 0.0, 0.0, 0.0, 0.0, 0.0, 0.0, 0.0, 0.0, 1.73938859855486E9, 0.0, 2025-02-12 16:29:58.554
10.0, -6744.437723688809, -6135.844425659708, -7042.520587744783, 0.0, -49059.82155320902, -28992.850064378985, -93527.18663539727, -63646.63703997577, 0.054, 0.912, 0.31, 192.0, 0.0, 0.0, 0.0, 0.0, 0.0, 0.0, 0.0, 0.0, 0.0, 1.739388598554885E9, 0.0, 2025-02-12 16:29:58.554
11.0, -6911.114682092033, -6269.597264480265, -7001.415729691474, 0.0, -49015.5203956986, -28996.4933987252, -93500.85628042892, -63635.327057281385, 0.054, 0.912, 0.31, 192.0, 0.0, 0.0, 0.0, 0.0, 0.0, 0.0, 0.0, 0.0, 0.0, 1.7393885985549092E9, 0.0, 2025-02-12 16:29:58.554
12.0, -6913.998057126768, -6266.4009650231565, -7012.122215285566, 0.0, -49048.3774600479, -28989.899634110887, -93497.30235306053, -63628.84505138935, 0.022, 0.9580000000000001, 0.356, 192.0, 0.0, 176.0, 29.0, 240.0, 11.0, 32.0, 0.0, 0.0, 0.0, 1.739388598554933E9, 0.0, 2025-02-12 16:29:58.554
13.0, -6741.911976565359, -6134.659783203577, -7049.337869803652, 0.0, -49092.25393441367, -28986.792741631598, -93517.26246085913, -63637.02578985999, 0.022, 0.9580000000000001, 0.356, 192.0, 0.0, 0.0, 0.0, 0.0, 0.0, 0.0, 0.0, 0.0, 0.0, 1.7393885985549664E9, 0.0, 2025-02-12 16:29:58.554
14.0, -6712.988819240191, -6124.512091220867, -7040.732448188359, 0.0, -49065.05186141156, -28995.375811502436, -93520.83873997196, -63644.2230515746, 0.022, 0.9580000000000001, 0.356, 192.0, 0.0, 0.0, 0.0, 0.0, 0.0, 0.0, 0.0, 0.0, 0.0, 1.7393885985549908E9, 0.0, 2025-02-12 16:29:58.554
15.0, -6878.503486931741, -6259.673089942109, -6999.940514557424, 0.0, -49016.883852110375, -29003.198922061794, -93499.89515541735, -63637.294010793456, 0.022, 0.9580000000000001, 0.356, 192.0, 0.0, 0.0, 0.0, 0.0, 0.0, 0.0, 0.0, 0.0, 0.0, 1.739388598555015E9, 0.0, 2025-02-12 16:29:58.555
16.0, -6925.4645020323405, -6288.86446820074, -7000.678122124448, 0.0, -49035.748724430654, -28998.594462704, -93491.51325124661, -63628.80034790044, 0.022, 0.9580000000000001, 0.356, 192.0, 0.0, 0.0, 0.0, 0.0, 0.0, 0.0, 0.0, 0.0, 0.0, 1.7393885985550385E9, 0.0, 2025-02-12 16:29:58.555
17.0, -6765.135439054423, -6159.9172544380735, -7041.58181447766, 0.0, -49086.30837038856, -28994.88407312442, -93515.18374862478, -63636.35523752633, 0.022, 0.9580000000000001, 0.356, 192.0, 0.0, 0.0, 0.0, 0.0, 0.0, 0.0, 0.0, 0.0, 0.0, 1.7393885985550697E9, 0.0, 2025-02-12 16:29:58.555
18.0, -6695.375644609409, -6112.933887593018, -7044.576948234671, 0.0, -49072.51734405963, -29000.874340638442, -93530.91937672131, -63645.56415624192, 0.022, 0.9580000000000001, 0.356, 192.0, 0.0, 0.0, 0.0, 0.0, 0.0, 0.0, 0.0, 0.0, 0.0, 1.7393885985550928E9, 0.0, 2025-02-12 16:29:58.555
19.0, -6843.59006209255, -6233.230976251481, -7001.169860502465, 0.0, -49016.05683756553, -29005.50115174069, -93513.52971953509, -63637.58458347137, 0.022, 0.9580000000000001, 0.356, 192.0, 0.0, 0.0, 0.0, 0.0, 0.0, 0.0, 0.0, 0.0, 0.0, 1.739388598555116E9, 0.0, 2025-02-12 16:29:58.555
20.0, -6931.588880013094, -6295.949971193072, -6991.133927242033, 0.0, -49019.65546842283, -29000.82963714953, -93501.12450136238, -63626.9675048551, 0.022, 0.9580000000000001, 0.356, 192.0, 0.0, 0.0, 0.0, 0.0, 0.0, 0.0, 0.0, 0.0, 0.0, 1.7393885985551393E9, 0.0, 2025-02-12 16:29:58.555
21.0, -6789.655302721894, -6180.458507592501, -7028.081360826655, 0.0, -49070.19276263628, -28993.319451012547, -93520.14583589385, -63629.96263861211, 0.022, 0.9580000000000001, 0.356, 192.0, 0.0, 0.0, 0.0, 0.0, 0.0, 0.0, 0.0, 0.0, 0.0, 1.7393885985551631E9, 0.0, 2025-02-12 16:29:58.555
22.0, -6681.94224619177, -6103.344989221691, -7040.955965632912, 0.0, -49069.83513472499, -28998.862683637464, -93539.72596403671, -63640.49031025056, 0.05, 0.966, 0.356, 192.0, 1.0, 144.0, 30.0, 48.0, 11.0, 32.0, 0.0, 0.0, 0.0, 1.739388598555188E9, 0.0, 2025-02-12 16:29:58.555
23.0, -6807.648457008417, -6206.900621283129, -7002.62272389206, 0.0, -49015.833320120975, -29007.26693955266, -93523.14096965086, -63637.0704933489, 0.05, 0.966, 0.356, 192.0, 0.0, 0.0, 0.0, 0.0, 0.0, 0.0, 0.0, 0.0, 0.0, 1.739388598555226E9, 0.0, 2025-02-12 16:29:58.555
24.0, -6929.778388712214, -6295.234715370502, -6982.617912604561, 0.0, -49007.02673280558, -29003.93652962882, -93499.71634146171, -63625.02290308749, 0.05, 0.966, 0.356, 192.0, 0.0, 0.0, 0.0, 0.0, 0.0, 0.0, 0.0, 0.0, 0.0, 1.739388598555251E9, 0.0, 2025-02-12 16:29:58.555
25.0, -6819.293715869631, -6201.491499124944, -7017.57604093266, 0.0, -49059.46392529773, -28997.812151648064, -93512.81446371252, -63626.945153110646, 0.05, 0.966, 0.356, 192.0, 0.0, 0.0, 0.0, 0.0, 0.0, 0.0, 0.0, 0.0, 0.0, 1.7393885985552847E9, 0.0, 2025-02-12 16:29:58.555
26.0, -6681.651673513851, -6098.137032763605, -7040.687744699449, 0.0, -49075.177201649814, -29002.774238917144, -93537.28962389108, -63638.99274337206, 0.05, 0.966, 0.356, 192.0, 0.0, 0.0, 0.0, 0.0, 0.0, 0.0, 0.0, 0.0, 0.0, 1.739388598555309E9, 0.0, 2025-02-12 16:29:58.555
27.0, -6773.807915903082, -6176.949283713017, -7007.71892162787, 0.0, -49025.31045977002, -29011.49141925471, -93523.38683883987, -63638.45630150513, 0.05, 0.966, 0.356, 192.0, 0.0, 0.0, 0.0, 0.0, 0.0, 0.0, 0.0, 0.0, 0.0, 1.739388598555336E9, 0.0, 2025-02-12 16:29:58.555
28.0, -6926.202109599365, -6293.088947902793, -6982.863781793569, 0.0, -49006.95967757222, -29013.614834977965, -93498.91167866132, -63630.1191008233, 0.05, 0.966, 0.356, 192.0, 0.0, 0.0, 0.0, 0.0, 0.0, 0.0, 0.0, 0.0, 0.0, 1.7393885985553608E9, 0.0, 2025-02-12 16:29:58.555
29.0, -6851.8602075410145, -6228.827682593785, -7010.714055384881, 0.0, -49053.87598918391, -29007.02107036365, -93510.28871658907, -63628.97916185608, 0.05, 0.966, 0.356, 192.0, 0.0, 0.0, 0.0, 0.0, 0.0, 0.0, 0.0, 0.0, 0.0, 1.739388598555396E9, 0.0, 2025-02-12 16:29:58.555
30.0, -6690.391205595876, -6106.988323567906, -7039.860730154602, 0.0, -49080.16164066335, -29009.010375620175, -93537.51314133563, -63639.48448175007, 0.05, 0.966, 0.356, 192.0, 0.0, 0.0, 0.0, 0.0, 0.0, 0.0, 0.0, 0.0, 0.0, 1.7393885985554197E9, 0.0, 2025-02-12 16:29:58.555
31.0, -6740.57087189804, -6153.792876457319, -7012.681008896949, 0.0, -49034.51937848561, -29016.051175123594, -93525.7784754966, -63639.90916489472, 0.05, 0.966, 0.356, 192.0, 0.0, 0.0, 0.0, 0.0, 0.0, 0.0, 0.0, 0.0, 0.0, 1.7393885985554433E9, 0.0, 2025-02-12 16:29:58.555
32.0, -6907.761920423737, -6282.494221030977, -6979.153392213988, 0.0, -49002.31051472551, -29017.235817579727, -93498.39758853884, -63629.35914151182, 0.062, 0.9500000000000001, 0.342, 192.0, 1.0, 240.0, 29.0, 176.0, 10.0, 176.0, 0.0, 0.0, 0.0, 1.739388598555467E9, 0.0, 2025-02-12 16:29:58.555
33.0, -6877.631768897983, -6252.252310782947, -7000.3651977020745, 0.0, -49042.34248904497, -29011.178494832337, -93505.21487059772, -63625.961676354615, 0.062, 0.9500000000000001, 0.342, 192.0, 0.0, 0.0, 0.0, 0.0, 0.0, 0.0, 0.0, 0.0, 0.0, 1.739388598555598E9, 0.0, 2025-02-12 16:29:58.555
34.0, -6702.215278412733, -6116.130187050127, -7033.781055662758, 0.0, -49082.441518597785, -29012.676061710845, -93535.03209770109, -63639.529185238986, 0.062, 0.9500000000000001, 0.342, 192.0, 0.0, 0.0, 0.0, 0.0, 0.0, 0.0, 0.0, 0.0, 0.0, 1.7393885985556371E9, 0.0, 2025-02-12 16:29:58.555
35.0, -6707.244420915177, -6126.099065077194, -7014.647962409015, 0.0, -49051.484352527186, -29024.053099638597, -93535.4791325902, -63648.201662087646, 0.062, 0.9500000000000001, 0.342, 192.0, 0.0, 0.0, 0.0, 0.0, 0.0, 0.0, 0.0, 0.0, 0.0, 1.739388598555662E9, 0.0, 2025-02-12 16:29:58.555
36.0, -6888.539420192173, -6269.8654854137285, -6982.550857371195, 0.0, -49007.56317467251, -29027.830544451543, -93504.47726303068, -63635.08118809238, 0.062, 0.9500000000000001, 0.342, 192.0, 0.0, 0.0, 0.0, 0.0, 0.0, 0.0, 0.0, 0.0, 0.0, 1.7393885985556855E9, 0.0, 2025-02-12 16:29:58.555
37.0, -6906.376112267508, -6279.141459362681, -6996.297180211209, 0.0, -49030.004326105634, -29016.677023968343, -93495.44715827075, -63622.16187979721, 0.062, 0.9500000000000001, 0.342, 192.0, 0.0, 0.0, 0.0, 0.0, 0.0, 0.0, 0.0, 0.0, 0.0, 1.7393885985557096E9, 0.0, 2025-02-12 16:29:58.555
38.0, -6727.629211858418, -6137.699620449498, -7030.405942250007, 0.0, -49078.44055634029, -29015.112401856473, -93526.15845515234, -63635.55057472594, 0.062, 0.9500000000000001, 0.342, 192.0, 0.0, 0.0, 0.0, 0.0, 0.0, 0.0, 0.0, 0.0, 0.0, 1.7393885985557334E9, 0.0, 2025-02-12 16:29:58.555
39.0, -6685.540877049074, -6109.759939880364, -7020.079436311655, 0.0, -49063.06255615503, -29028.232875851736, -93541.51410359313, -63650.41448478872, 0.062, 0.9500000000000001, 0.342, 192.0, 0.0, 0.0, 0.0, 0.0, 0.0, 0.0, 0.0, 0.0, 0.0, 1.7393885985557814E9, 0.0, 2025-02-12 16:29:58.555
40.0, -6859.303338444632, -6249.19012179257, -6985.031901005734, 0.0, -49013.70990439772, -29035.027806166152, -93514.4237893133, -63640.04327536146, 0.062, 0.9500000000000001, 0.342, 192.0, 0.0, 0.0, 0.0, 0.0, 0.0, 0.0, 0.0, 0.0, 0.0, 1.7393885985558069E9, 0.0, 2025-02-12 16:29:58.555
41.0, -6924.771597954225, -6297.20166888257, -6991.67036910896, 0.0, -49024.19287254725, -29026.06475663957, -93495.76008269312, -63624.911144365215, 0.062, 0.9500000000000001, 0.342, 192.0, 0.0, 0.0, 0.0, 0.0, 0.0, 0.0, 0.0, 0.0, 0.0, 1.7393885985558324E9, 0.0, 2025-02-12 16:29:58.555
