%OpenBCI Raw EXG Data
%Number of channels = 8
%Sample Rate = 250 Hz
%Board = OpenBCI_GUI$BoardCytonSerial
Sample Index, EXG Channel 0, EXG Channel 1, EXG Channel 2, EXG Channel 3, EXG Channel 4, EXG Channel 5, EXG Channel 6, EXG Channel 7, Accel Channel 0, Accel Channel 1, Accel Channel 2, Not Used, Digital Channel 0 (D11), Digital Channel 1 (D12), Digital Channel 2 (D13), Digital Channel 3 (D17), Not Used, Digital Channel 4 (D18), Analog Channel 0, Analog Channel 1, Analog Channel 2, Timestamp, Marker Channel, Timestamp (Formatted)
0.0, -6190.8520687642185, -5950.168484469472, -6079.875657543619, -6004.639685707055, -45619.016363503506, -54025.1498252332, -85310.50655967076, -60826.96447693879, 0.03, 0.47800000000000004, 0.182, 192.0, 0.0, 240.0, 14.0, 240.0, 5.0, 176.0, 0.0, 0.0, 0.0, 1.7393885437477987E9, 0.0, 2025-02-12 16:29:03.747
1.0, -6054.059392697739, -5865.947111361875, -6094.896029817585, -6030.902985442041, -45619.84337804835, -54070.72503217757, -85341.15080131899, -60871.042117004654, 0.03, 0.47800000000000004, 0.182, 192.0, 0.0, 0.0, 0.0, 0.0, 0.0, 0.0, 0.0, 0.0, 0.0, 1.739388543747867E9, 0.0, 2025-02-12 16:29:03.747
2.0, -5893.640922742, -5727.947441094809, -6120.131149307626, -6051.421886852013, -45623.71022983912, -54090.79689869844, -85403.71333404939, -60908.74950990076, 0.03, 0.47800000000000004, 0.182, 192.0, 0.0, 0.0, 0.0, 0.0, 0.0, 0.0, 0.0, 0.0, 0.0, 1.7393885437478917E9, 0.0, 2025-02-12 16:29:03.747
3.0, -6013.043941622251, -5798.5118983402135, -6110.20697476947, -6029.092494141161, -45624.380782172775, -54051.524883690465, -85371.72798773384, -60872.42792516088, 0.03, 0.47800000000000004, 0.182, 192.0, 0.0, 0.0, 0.0, 0.0, 0.0, 0.0, 0.0, 0.0, 0.0, 1.7393885437479055E9, 0.0, 2025-02-12 16:29:03.747
4.0, -6190.7403100419415, -5948.715621079877, -6084.569523879233, -6006.450177007935, -45620.89391003775, -54029.66487761318, -85294.83798680759, -60831.971267696776, 0.03, 0.47800000000000004, 0.182, 192.0, 0.0, 0.0, 0.0, 0.0, 0.0, 0.0, 0.0, 0.0, 0.0, 1.7393885437479184E9, 0.0, 2025-02-12 16:29:03.747
5.0, -6095.25365772887, -5899.40767281147, -6091.789137338297, -6025.739732472865, -45619.86572979281, -54068.13222982076, -85306.46089392435, -60864.5154076237, 0.03, 0.47800000000000004, 0.182, 192.0, 0.0, 0.0, 0.0, 0.0, 0.0, 0.0, 0.0, 0.0, 0.0, 1.7393885437479312E9, 0.0, 2025-02-12 16:29:03.747
6.0, -5908.728350249333, -5747.013479115186, -6120.511128963367, -6052.539474074778, -45624.82781706188, -54098.910581935714, -85375.7513017358, -60912.03521633569, 0.03, 0.47800000000000004, 0.182, 192.0, 0.0, 0.0, 0.0, 0.0, 0.0, 0.0, 0.0, 0.0, 0.0, 1.7393885437479436E9, 0.0, 2025-02-12 16:29:03.747
7.0, -5983.316121496692, -5780.09406090904, -6118.6559341735765, -6037.787322734275, -45627.51002639652, -54067.64049144274, -85363.59195275212, -60888.07414627959, 0.048, 0.714, 0.276, 192.0, 1.0, 128.0, 22.0, 80.0, 8.0, 160.0, 0.0, 0.0, 0.0, 1.739388543747956E9, 0.0, 2025-02-12 16:29:03.747
8.0, -6183.185420416048, -5941.272490176259, -6092.549096649778, -6011.434616021468, -45625.140741484254, -54037.44328468362, -85284.66794308042, -60841.113131178994, 0.048, 0.714, 0.276, 192.0, 0.0, 0.0, 0.0, 0.0, 0.0, 0.0, 0.0, 0.0, 0.0, 1.7393885437479696E9, 0.0, 2025-02-12 16:29:03.747
9.0, -6136.090294848716, -5931.46007436038, -6092.392634438591, -6023.593965005156, -45623.24084320555, -54067.61813969829, -85277.627143577, -60861.14029421095, 0.048, 0.714, 0.276, 192.0, 0.0, 0.0, 0.0, 0.0, 0.0, 0.0, 0.0, 0.0, 0.0, 1.739388543747982E9, 0.0, 2025-02-12 16:29:03.747
10.0, -5932.041219716218, -5771.734508482756, -6119.661762674065, -6052.003032207851, -45626.3700874293, -54104.453814560635, -85346.71638568836, -60912.54930645815, 0.048, 0.714, 0.276, 192.0, 0.0, 0.0, 0.0, 0.0, 0.0, 0.0, 0.0, 0.0, 0.0, 1.7393885437479944E9, 0.0, 2025-02-12 16:29:03.747
11.0, -5952.761286826288, -5761.676223477867, -6122.008695841872, -6041.542415802767, -45627.13004674078, -54079.03988111495, -85350.60558922357, -60898.49005919577, 0.048, 0.714, 0.276, 192.0, 0.0, 0.0, 0.0, 0.0, 0.0, 0.0, 0.0, 0.0, 0.0, 1.7393885437480068E9, 0.0, 2025-02-12 16:29:03.748
12.0, -6161.347766083213, -5922.653487044989, -6096.080672273716, -6012.239278821859, -45624.4701891506, -54041.57835740785, -85271.99450397426, -60846.94693648183, 0.048, 0.714, 0.276, 192.0, 0.0, 0.0, 0.0, 0.0, 0.0, 0.0, 0.0, 0.0, 0.0, 1.7393885437480192E9, 0.0, 2025-02-12 16:29:03.748
13.0, -6169.103821409205, -5955.667013605477, -6091.431509427012, -6019.347133558647, -45623.79963681694, -54064.824171641376, -85248.14519264046, -60856.24526217524, 0.048, 0.714, 0.276, 192.0, 0.0, 0.0, 0.0, 0.0, 0.0, 0.0, 0.0, 0.0, 0.0, 1.7393885437480316E9, 0.0, 2025-02-12 16:29:03.748
14.0, -5964.1606764984945, -5801.998770475241, -6118.834748129219, -6051.041907196272, -45628.091171752356, -54108.67829426269, -85315.0886672841, -60911.4764227243, 0.048, 0.714, 0.276, 192.0, 0.0, 0.0, 0.0, 0.0, 0.0, 0.0, 0.0, 0.0, 0.0, 1.739388543748044E9, 0.0, 2025-02-12 16:29:03.748
15.0, -5934.611670328578, -5754.0766303630635, -6130.480006990434, -6050.885444985086, -45632.96385204361, -54095.84839294534, -85340.63671119651, -60913.51043146973, 0.048, 0.714, 0.276, 192.0, 0.0, 0.0, 0.0, 0.0, 0.0, 0.0, 0.0, 0.0, 0.0, 1.7393885437480564E9, 0.0, 2025-02-12 16:29:03.748
16.0, -6138.504283249889, -5905.196774625394, -6106.7424543788975, -6020.911755670519, -45631.376878187286, -54054.251796514014, -85268.8205562616, -60861.49792212224, 0.048, 0.714, 0.276, 192.0, 0.0, 0.0, 0.0, 0.0, 0.0, 0.0, 0.0, 0.0, 0.0, 1.7393885437482371E9, 0.0, 2025-02-12 16:29:03.748
17.0, -6196.976446744972, -5976.074156293173, -6094.314884461747, -6019.034209136273, -45628.20293047463, -54065.49472397503, -85226.0169656297, -60855.84293077504, 0.056, 0.8280000000000001, 0.314, 192.0, 1.0, 192.0, 25.0, 224.0, 9.0, 208.0, 0.0, 0.0, 0.0, 1.7393885437482505E9, 0.0, 2025-02-12 16:29:03.748
18.0, -6003.320932784192, -5837.292174970171, -6118.834748129219, -6050.594872307167, -45631.55569214293, -54112.25457337553, -85284.82440529161, -60910.38118724599, 0.056, 0.8280000000000001, 0.314, 192.0, 0.0, 0.0, 0.0, 0.0, 0.0, 0.0, 0.0, 0.0, 0.0, 1.739388543748264E9, 0.0, 2025-02-12 16:29:03.748
19.0, -5922.385266111525, -5751.752048939711, -6135.978536126439, -6057.635671810588, -45636.204854989635, -54109.974695441095, -85326.71157440086, -60925.17804207541, 0.056, 0.8280000000000001, 0.314, 192.0, 0.0, 0.0, 0.0, 0.0, 0.0, 0.0, 0.0, 0.0, 0.0, 1.7393885437482767E9, 0.0, 2025-02-12 16:29:03.748
20.0, -6109.871698602641, -5884.0967278595845, -6117.2477742728925, -6029.986563919373, -45636.80835208992, -54067.77460190948, -85267.45709984984, -60876.67475660739, 0.056, 0.8280000000000001, 0.314, 192.0, 0.0, 0.0, 0.0, 0.0, 0.0, 0.0, 0.0, 0.0, 0.0, 1.739388543748289E9, 0.0, 2025-02-12 16:29:03.748
21.0, -6214.254345208925, -5986.691234909444, -6096.885335074107, -6018.140139358061, -45631.019250276004, -54065.27120653048, -85208.1579218099, -60855.53000635267, 0.056, 0.8280000000000001, 0.314, 192.0, 0.0, 0.0, 0.0, 0.0, 0.0, 0.0, 0.0, 0.0, 0.0, 1.7393885437483015E9, 0.0, 2025-02-12 16:29:03.748
22.0, -6039.106075657139, -5866.908236373453, -6111.704541647976, -6042.414133836524, -45628.00176477453, -54107.02426517299, -85249.68746300787, -60900.65817840793, 0.056, 0.8280000000000001, 0.314, 192.0, 0.0, 0.0, 0.0, 0.0, 0.0, 0.0, 0.0, 0.0, 0.0, 1.7393885437483172E9, 0.0, 2025-02-12 16:29:03.748
23.0, -5912.0364084287185, -5749.51687449418, -6132.961050624973, -6055.959290976441, -45631.712154354114, -54115.31676236591, -85304.27042296773, -60927.21205082084, 0.056, 0.8280000000000001, 0.314, 192.0, 0.0, 0.0, 0.0, 0.0, 0.0, 0.0, 0.0, 0.0, 0.0, 1.7393885437483299E9, 0.0, 2025-02-12 16:29:03.748
24.0, -6068.453916126957, -5852.424305966414, -6117.7171609064535, -6029.874805197097, -45631.82391307639, -54072.82609615637, -85257.77879450069, -60883.201465988335, 0.056, 0.8280000000000001, 0.314, 192.0, 0.0, 0.0, 0.0, 0.0, 0.0, 0.0, 0.0, 0.0, 0.0, 1.7393885437483425E9, 0.0, 2025-02-12 16:29:03.748
25.0, -6217.5624033883105, -5985.730109897865, -6096.192430995993, -6014.139177100561, -45629.18640723067, -54062.164314051195, -85189.56127042309, -60853.38423888496, 0.056, 0.8280000000000001, 0.314, 192.0, 0.0, 0.0, 0.0, 0.0, 0.0, 0.0, 0.0, 0.0, 0.0, 1.739388543748355E9, 0.0, 2025-02-12 16:29:03.748
26.0, -6082.267294200336, -5902.447510057391, -6110.139919536105, -6039.262537868326, -45629.74520084205, -54106.063140161416, -85219.24438705973, -60895.74079462777, 0.056, 0.8280000000000001, 0.314, 192.0, 0.0, 0.0, 0.0, 0.0, 0.0, 0.0, 0.0, 0.0, 0.0, 1.7393885437483673E9, 0.0, 2025-02-12 16:29:03.748
27.0, -5919.859518988075, -5762.972624656275, -6136.5596814822775, -6060.764916034332, -45634.81904683341, -54126.91731773822, -85284.10914946905, -60934.74458870228, 0.06, 0.884, 0.326, 192.0, 1.0, 224.0, 27.0, 160.0, 10.0, 48.0, 0.0, 0.0, 0.0, 1.7393885437483792E9, 0.0, 2025-02-12 16:29:03.748
28.0, -6035.462741310924, -5829.737285344278, -6126.121416821649, -6037.966136689918, -45634.41671543321, -54087.15356435223, -85252.43672757587, -60898.08772779557, 0.06, 0.884, 0.326, 192.0, 0.0, 0.0, 0.0, 0.0, 0.0, 0.0, 0.0, 0.0, 0.0, 1.7393885437483923E9, 0.0, 2025-02-12 16:29:03.748
29.0, -6213.092054497249, -5978.935179583452, -6098.226439741426, -6012.932182899975, -45628.269985708, -54062.67840417366, -85171.92574404785, -60854.94886099683, 0.06, 0.884, 0.326, 192.0, 0.0, 0.0, 0.0, 0.0, 0.0, 0.0, 0.0, 0.0, 0.0, 1.7393885437484045E9, 0.0, 2025-02-12 16:29:03.748
30.0, -6122.120454564149, -5933.650545317, -6106.407178212068, -6033.138159887571, -45628.56055838592, -54101.88336394828, -85183.23572674223, -60887.962387557316, 0.06, 0.884, 0.326, 192.0, 0.0, 0.0, 0.0, 0.0, 0.0, 0.0, 0.0, 0.0, 0.0, 1.739388543748417E9, 0.0, 2025-02-12 16:29:03.748
31.0, -5931.974164482852, -5778.685901008356, -6133.698658191998, -6058.596796822167, -45632.51681715451, -54131.45472186265, -85252.03439617567, -60934.25285032426, 0.06, 0.884, 0.326, 192.0, 0.0, 0.0, 0.0, 0.0, 0.0, 0.0, 0.0, 0.0, 0.0, 1.739388543748468E9, 0.0, 2025-02-12 16:29:03.748
32.0, -6003.008008361818, -5808.81605253411, -6132.469312246956, -6044.470494326412, -45635.579006144886, -54100.76577672551, -85240.94793092585, -60911.319960513116, 0.06, 0.884, 0.326, 192.0, 0.0, 0.0, 0.0, 0.0, 0.0, 0.0, 0.0, 0.0, 0.0, 1.7393885437484808E9, 0.0, 2025-02-12 16:29:03.748
33.0, -6204.285467181858, -5970.396813201525, -6106.273067745336, -6018.073084124695, -45632.58387238788, -54070.36740426629, -85160.07931948654, -60864.13542796796, 0.06, 0.884, 0.326, 192.0, 0.0, 0.0, 0.0, 0.0, 0.0, 0.0, 0.0, 0.0, 0.0, 1.7393885437484932E9, 0.0, 2025-02-12 16:29:03.748
34.0, -6163.091202150727, -5965.390022443536, -6107.5024136903785, -6031.707648242432, -45631.98037528758, -54102.08452964837, -85152.65854032738, -60885.21312298931, 0.06, 0.884, 0.326, 192.0, 0.0, 0.0, 0.0, 0.0, 0.0, 0.0, 0.0, 0.0, 0.0, 1.7393885437485054E9, 0.0, 2025-02-12 16:29:03.748
35.0, -5958.8186095736755, -5805.955029243831, -6135.68796344852, -6061.167247434527, -45636.16015150072, -54139.81427428893, -85223.42416327288, -60937.7844259482, 0.06, 0.884, 0.326, 192.0, 0.0, 0.0, 0.0, 0.0, 0.0, 0.0, 0.0, 0.0, 0.0, 1.7393885437485175E9, 0.0, 2025-02-12 16:29:03.748
36.0, -5977.102336538117, -5794.376825615982, -6140.515940250867, -6053.142971175072, -45639.334099213374, -54116.814329244415, -85231.69430872134, -60926.60855372054, 0.06, 0.884, 0.326, 192.0, 0.0, 0.0, 0.0, 0.0, 0.0, 0.0, 0.0, 0.0, 0.0, 1.73938854374853E9, 0.0, 2025-02-12 16:29:03.748
37.0, -6190.293275152836, -5959.645624118522, -6119.035913829317, -6028.176072618494, -45641.1222387698, -54083.6666922172, -85157.84414504102, -60879.58048338658, 0.066, 0.906, 0.334, 192.0, 2.0, 16.0, 28.0, 80.0, 10.0, 112.0, 0.0, 0.0, 0.0, 1.7393885437485423E9, 0.0, 2025-02-12 16:29:03.748
38.0, -6201.5138508694, -5995.319008269193, -6113.291515504303, -6034.166340132516, -45639.624671891295, -54105.75021573904, -85132.4972668287, -60887.403593945935, 0.066, 0.906, 0.334, 192.0, 0.0, 0.0, 0.0, 0.0, 0.0, 0.0, 0.0, 0.0, 0.0, 1.7393885437485554E9, 0.0, 2025-02-12 16:29:03.748
39.0, -5993.910848368508, -5839.214424993328, -6137.9678413829615, -6063.514180602334, -45641.233997492076, -54146.89977728126, -85197.83141587155, -60940.176062604914, 0.066, 0.906, 0.334, 192.0, 0.0, 0.0, 0.0, 0.0, 0.0, 0.0, 0.0, 0.0, 0.0, 1.7393885437485676E9, 0.0, 2025-02-12 16:29:03.748
40.0, -5959.064478762684, -5786.866639478999, -6149.054306632795, -6062.955386990951, -45644.854980093834, -54133.66754456372, -85225.34641329604, -60942.277126583715, 0.066, 0.906, 0.334, 192.0, 0.0, 0.0, 0.0, 0.0, 0.0, 0.0, 0.0, 0.0, 0.0, 1.7393885437485795E9, 0.0, 2025-02-12 16:29:03.748
41.0, -6164.40995507359, -5939.12672270855, -6127.820149400252, -6035.507444799834, -45645.704346383136, -54094.35082606683, -85157.77708980764, -60892.70095738184, 0.066, 0.906, 0.334, 192.0, 0.0, 0.0, 0.0, 0.0, 0.0, 0.0, 0.0, 0.0, 0.0, 1.739388543748592E9, 0.0, 2025-02-12 16:29:03.748
42.0, -6224.4914441694555, -6010.4734910098905, -6112.8444806151965, -6031.148854631049, -45640.742259114064, -54102.57626802639, -85113.1406561304, -60884.184942744374, 0.066, 0.906, 0.334, 192.0, 0.0, 0.0, 0.0, 0.0, 0.0, 0.0, 0.0, 0.0, 0.0, 1.739388543748604E9, 0.0, 2025-02-12 16:29:03.748
43.0, -6027.550223773745, -5868.696375929878, -6132.692829691509, -6058.3732793776135, -45639.71407886912, -54144.82106504692, -85168.93061029084, -60934.185795090896, 0.066, 0.906, 0.334, 192.0, 0.0, 0.0, 0.0, 0.0, 0.0, 0.0, 0.0, 0.0, 0.0, 1.7393885437486176E9, 0.0, 2025-02-12 16:29:03.748
44.0, -5943.105333221595, -5780.742261498244, -6150.685983978032, -6066.576369592711, -45644.89968358275, -54143.83758829089, -85214.88579689096, -60950.68138249891, 0.066, 0.906, 0.334, 192.0, 0.0, 0.0, 0.0, 0.0, 0.0, 0.0, 0.0, 0.0, 0.0, 1.7393885437486298E9, 0.0, 2025-02-12 16:29:03.748
45.0, -6126.8143208997635, -5909.421254327447, -6130.368248268158, -6037.541453545267, -45643.69268938216, -54100.117576136305, -85156.36892990697, -60901.14991678595, 0.066, 0.906, 0.334, 192.0, 0.0, 0.0, 0.0, 0.0, 0.0, 0.0, 0.0, 0.0, 0.0, 1.739388543748642E9, 0.0, 2025-02-12 16:29:03.748
46.0, -6235.667316397109, -6015.23441257887, -6110.609306169666, -6026.253822595337, -45639.132933513276, -54097.7706429685, -85098.47791176771, -60880.22868397578, 0.066, 0.906, 0.334, 192.0, 0.0, 0.0, 0.0, 0.0, 0.0, 0.0, 0.0, 0.0, 0.0, 1.739388543748654E9, 0.0, 2025-02-12 16:29:03.748
47.0, -6065.905817259052, -5900.435853056414, -6128.535405222822, -6053.947633975463, -45640.22816899159, -54142.65294583475, -85145.01424372366, -60928.41904502142, 0.07, 0.922, 0.328, 192.0, 2.0, 48.0, 28.0, 208.0, 10.0, 64.0, 0.0, 0.0, 0.0, 1.739388543748674E9, 0.0, 2025-02-12 16:29:03.748
48.0, -5934.589318584123, -5779.579970786568, -6149.657803733087, -6067.895122515574, -45644.31853822691, -54151.213663961134, -85204.00049734121, -60955.64346976799, 0.07, 0.922, 0.328, 192.0, 0.0, 0.0, 0.0, 0.0, 0.0, 0.0, 0.0, 0.0, 0.0, 1.7393885437486873E9, 0.0, 2025-02-12 16:29:03.748
49.0, -6088.6598931145545, -5880.49809700228, -6135.330335537235, -6042.995279192362, -45645.10084928285, -54109.684122763174, -85162.4486043988, -60913.10810006954, 0.07, 0.922, 0.328, 192.0, 0.0, 0.0, 0.0, 0.0, 0.0, 0.0, 0.0, 0.0, 0.0, 1.7393885437486992E9, 0.0, 2025-02-12 16:29:03.748
50.0, -6238.081304798282, -6013.222755577893, -6111.101044547683, -6024.935069672474, -45640.518741669504, -54095.96015166762, -85094.49930125468, -60880.42984967588, 0.07, 0.922, 0.328, 192.0, 0.0, 0.0, 0.0, 0.0, 0.0, 0.0, 0.0, 0.0, 0.0, 1.739388543748711E9, 0.0, 2025-02-12 16:29:03.748
51.0, -6102.450919443479, -5929.157844681483, -6122.008695841872, -6047.331517616692, -45639.53526491347, -54136.528567854, -85125.56822604754, -60919.59010596158, 0.07, 0.922, 0.328, 192.0, 0.0, 0.0, 0.0, 0.0, 0.0, 0.0, 0.0, 0.0, 0.0, 1.7393885437487235E9, 0.0, 2025-02-12 16:29:03.748
52.0, -5937.003306985296, -5787.470136579292, -6149.054306632795, -6069.839724283186, -45646.03962254997, -54158.075649508915, -85198.18904378284, -60959.82324598113, 0.07, 0.922, 0.328, 192.0, 0.0, 0.0, 0.0, 0.0, 0.0, 0.0, 0.0, 0.0, 0.0, 1.7393885437487357E9, 0.0, 2025-02-12 16:29:03.748
53.0, -6051.310128129737, -5853.519541444724, -6141.678230962543, -6050.572520562711, -45649.057108051435, -54121.32938162439, -85177.1113487615, -60927.07794035411, 0.07, 0.922, 0.328, 192.0, 0.0, 0.0, 0.0, 0.0, 0.0, 0.0, 0.0, 0.0, 0.0, 1.7393885437487476E9, 0.0, 2025-02-12 16:29:03.748
54.0, -6230.548766916843, -6003.209174061915, -6113.470329459945, -6025.605622006134, -45643.469171937606, -54096.00485515653, -85102.76944670314, -60883.492038666256, 0.07, 0.922, 0.328, 192.0, 0.0, 0.0, 0.0, 0.0, 0.0, 0.0, 0.0, 0.0, 0.0, 1.7393885437487595E9, 0.0, 2025-02-12 16:29:03.748
55.0, -6138.5489867388, -5956.091696750128, -6117.4265882285345, -6042.10120941415, -45640.965776558616, -54130.6277073178, -85116.98515617671, -60912.14697505796, 0.07, 0.922, 0.328, 192.0, 0.0, 0.0, 0.0, 0.0, 0.0, 0.0, 0.0, 0.0, 0.0, 1.7393885437487721E9, 0.0, 2025-02-12 16:29:03.748
56.0, -5944.200568699905, -5797.52842158418, -6143.354611796691, -6066.933997503996, -45644.60911090483, -54158.79090533149, -85193.38341872494, -60957.85629246906, 0.07, 0.922, 0.328, 192.0, 0.0, 0.0, 0.0, 0.0, 0.0, 0.0, 0.0, 0.0, 0.0, 1.7393885437487843E9, 0.0, 2025-02-12 16:29:03.748
57.0, -6009.355903787125, -5822.495320140758, -6141.275899562347, -6052.450067096957, -45647.447782450654, -54127.0737799494, -85191.14824427942, -60934.655181724454, 0.074, 0.928, 0.338, 192.0, 2.0, 80.0, 29.0, 0.0, 10.0, 144.0, 0.0, 0.0, 0.0, 1.7393885437487965E9, 0.0, 2025-02-12 16:29:03.748
58.0, -6210.119272484693, -5983.025548818773, -6114.140881793604, -6025.426808050491, -45644.60911090483, -54095.13313712277, -85117.85687421047, -60886.509524167726, 0.074, 0.928, 0.338, 192.0, 0.0, 0.0, 0.0, 0.0, 0.0, 0.0, 0.0, 0.0, 0.0, 1.7393885437488093E9, 0.0, 2025-02-12 16:29:03.748
59.0, -6169.327338853757, -5977.392909216036, -6112.062169559261, -6036.245052366859, -45642.08336378138, -54122.983410714085, -85114.79468522008, -60903.966236587316, 0.074, 0.928, 0.338, 192.0, 0.0, 0.0, 0.0, 0.0, 0.0, 0.0, 0.0, 0.0, 0.0, 1.7393885437488341E9, 0.0, 2025-02-12 16:29:03.748
60.0, -5961.120839252572, -5814.269878181205, -6137.699620449498, -6063.938863746985, -45644.6761661382, -54158.03094602001, -85191.75174137972, -60954.30236510067, 0.074, 0.928, 0.338, 192.0, 0.0, 0.0, 0.0, 0.0, 0.0, 0.0, 0.0, 0.0, 0.0, 1.7393885437488468E9, 0.0, 2025-02-12 16:29:03.748
61.0, -5973.213133002893, -5797.036683206164, -6141.7229344514535, -6055.802828765253, -45647.89481733976, -54134.04752421946, -85209.29786077712, -60943.10414112856, 0.074, 0.928, 0.338, 192.0, 0.0, 0.0, 0.0, 0.0, 0.0, 0.0, 0.0, 0.0, 0.0, 1.7393885437488592E9, 0.0, 2025-02-12 16:29:03.748
62.0, -6178.625664547166, -5954.08003974915, -6113.291515504303, -6024.398627805546, -45643.84915159335, -54093.59086675535, -85137.66051979786, -60889.23643699127, 0.074, 0.928, 0.338, 192.0, 0.0, 0.0, 0.0, 0.0, 0.0, 0.0, 0.0, 0.0, 0.0, 1.739388543748891E9, 0.0, 2025-02-12 16:29:03.748
63.0, -6191.187344931048, -5989.887534366552, -6105.021370055839, -6028.600755763145, -45641.27870098099, -54112.58984954237, -85117.34278408799, -60894.24322774926, 0.074, 0.928, 0.338, 192.0, 0.0, 0.0, 0.0, 0.0, 0.0, 0.0, 0.0, 0.0, 0.0, 1.7393885437489035E9, 0.0, 2025-02-12 16:29:03.748
64.0, -5982.42205171848, -5832.710067356833, -6128.982440111929, -6057.814485766231, -45643.200951004146, -54152.64417560628, -85190.47769194577, -60946.412199307946, 0.074, 0.928, 0.338, 192.0, 0.0, 0.0, 0.0, 0.0, 0.0, 0.0, 0.0, 0.0, 0.0, 1.739388543748917E9, 0.0, 2025-02-12 16:29:03.748
65.0, -5941.764228554276, -5775.377842828971, -6139.823036172752, -6057.590968321678, -45647.26896849501, -54138.80844578844, -85227.73804995276, -60948.60267026457, 0.074, 0.928, 0.338, 192.0, 0.0, 0.0, 0.0, 0.0, 0.0, 0.0, 0.0, 0.0, 0.0, 1.7393885437489295E9, 0.0, 2025-02-12 16:29:03.748
66.0, -6143.019335629861, -5923.078170189639, -6116.130187050127, -6028.041962151762, -45646.352546972346, -54096.407186556724, -85167.00836026769, -60896.67956789489, 0.074, 0.928, 0.338, 192.0, 0.0, 0.0, 0.0, 0.0, 0.0, 0.0, 0.0, 0.0, 0.0, 1.7393885437489417E9, 0.0, 2025-02-12 16:29:03.748
67.0, -6204.196060204036, -5994.179069301971, -6098.5840676527105, -6021.828177193186, -45640.33992771387, -54101.61514301481, -85128.20573189328, -60885.302529967135, 0.07, 0.932, 0.34, 192.0, 2.0, 48.0, 29.0, 32.0, 10.0, 160.0, 0.0, 0.0, 0.0, 1.7393885437489536E9, 0.0, 2025-02-12 16:29:03.748
68.0, -6007.008970619318, -5851.798457121666, -6117.761864395365, -6048.918491473019, -45639.93759631367, -54142.72000106812, -85192.19877626882, -60934.54342300218, 0.07, 0.932, 0.34, 192.0, 0.0, 0.0, 0.0, 0.0, 0.0, 0.0, 0.0, 0.0, 0.0, 1.7393885437489665E9, 0.0, 2025-02-12 16:29:03.748
69.0, -5916.484405575324, -5758.390517042937, -6134.995059370406, -6056.853360754652, -45644.74322137156, -54140.3283644114, -85247.36288158451, -60950.4355133099, 0.07, 0.932, 0.34, 192.0, 0.0, 0.0, 0.0, 0.0, 0.0, 0.0, 0.0, 0.0, 0.0, 1.7393885437489836E9, 0.0, 2025-02-12 16:29:03.748
70.0, -6096.505355418367, -5883.3367685481035, -6113.805605626775, -6027.326706329192, -45643.2233027486, -54095.0660818894, -85197.94317459383, -60900.00997781873, 0.07, 0.932, 0.34, 192.0, 0.0, 0.0, 0.0, 0.0, 0.0, 0.0, 0.0, 0.0, 0.0, 1.739388543748996E9, 0.0, 2025-02-12 16:29:03.748
71.0, -6207.124138727682, -5989.842830877642, -6092.68320711651, -6015.368523045603, -45638.730602113086, -54090.86395393181, -85147.29412165811, -60877.52412289669, 0.07, 0.932, 0.34, 192.0, 0.0, 0.0, 0.0, 0.0, 0.0, 0.0, 0.0, 0.0, 0.0, 1.739388543749008E9, 0.0, 2025-02-12 16:29:03.749
72.0, -6037.854377967641, -5875.06662309964, -6109.514070691356, -6042.391782092069, -45639.57996840239, -54133.93576549718, -85200.62538392848, -60924.28397229719, 0.07, 0.932, 0.34, 192.0, 0.0, 0.0, 0.0, 0.0, 0.0, 0.0, 0.0, 0.0, 0.0, 1.7393885437490208E9, 0.0, 2025-02-12 16:29:03.749
73.0, -5902.447510057391, -5750.634461716946, -6130.815283157263, -6056.7863055212865, -45643.71504112662, -54142.02709699, -85267.9711899723, -60951.664859254946, 0.07, 0.932, 0.34, 192.0, 0.0, 0.0, 0.0, 0.0, 0.0, 0.0, 0.0, 0.0, 0.0, 1.739388543749033E9, 0.0, 2025-02-12 16:29:03.749
74.0, -6051.5783490632, -5846.456390196847, -6115.191413783004, -6030.81357846422, -45643.4244684487, -54098.575305768885, -85233.59420700005, -60907.78838488917, 0.07, 0.932, 0.34, 192.0, 0.0, 0.0, 0.0, 0.0, 0.0, 0.0, 0.0, 0.0, 0.0, 1.7393885437490454E9, 0.0, 2025-02-12 16:29:03.749
75.0, -6201.46914738049, -5978.644606905533, -6088.905762303563, -6011.054636365729, -45637.389497445765, -54082.39264278325, -85170.2046597248, -60872.67379434989, 0.07, 0.932, 0.34, 192.0, 0.0, 0.0, 0.0, 0.0, 0.0, 0.0, 0.0, 0.0, 0.0, 1.7393885437490578E9, 0.0, 2025-02-12 16:29:03.749
76.0, -6066.352852148158, -5894.445585542391, -6097.354721707669, -6031.52883428679, -45634.26025322202, -54120.10003567935, -85203.86638687449, -60908.97302734531, 0.07, 0.932, 0.34, 192.0, 0.0, 0.0, 0.0, 0.0, 0.0, 0.0, 0.0, 0.0, 0.0, 1.73938854374907E9, 0.0, 2025-02-12 16:29:03.749
77.0, -5896.837222199109, -5749.114543093985, -6123.461559231468, -6053.634709553088, -45639.73643061357, -54140.37306790031, -85281.11401571202, -60948.3344493311, 0.07, 0.936, 0.34400000000000003, 192.0, 2.0, 48.0, 29.0, 64.0, 10.0, 192.0, 0.0, 0.0, 0.0, 1.7393885437490828E9, 0.0, 2025-02-12 16:29:03.749
78.0, -6005.958438629918, -5810.090101968062, -6115.124358549638, -6033.495787798856, -45641.435163192175, -54101.99512267055, -85264.48431783728, -60914.38214950349, 0.07, 0.936, 0.34400000000000003, 192.0, 0.0, 0.0, 0.0, 0.0, 0.0, 0.0, 0.0, 0.0, 0.0, 1.7393885437491024E9, 0.0, 2025-02-12 16:29:03.749
79.0, -6185.644112306132, -5959.667975862977, -6085.5530006352665, -6007.388950275058, -45634.729639855585, -54074.882456646264, -85192.7575698802, -60869.164570470406, 0.07, 0.936, 0.34400000000000003, 192.0, 0.0, 0.0, 0.0, 0.0, 0.0, 0.0, 0.0, 0.0, 0.0, 1.7393885437491212E9, 0.0, 2025-02-12 16:29:03.749
80.0, -6095.92421006253, -5914.070417174151, -6087.654064614066, -6022.498729526846, -45630.818084575905, -54107.40424482874, -85207.15209330941, -60895.40551846094, 0.07, 0.936, 0.34400000000000003, 192.0, 0.0, 0.0, 0.0, 0.0, 0.0, 0.0, 0.0, 0.0, 0.0, 1.739388543749133E9, 0.0, 2025-02-12 16:29:03.749
81.0, -5898.982989666819, -5753.160208840395, -6113.000942826384, -6046.728020516399, -45633.209721232626, -54134.53926259748, -85284.86910878052, -60940.10900737155, 0.07, 0.936, 0.34400000000000003, 192.0, 0.0, 0.0, 0.0, 0.0, 0.0, 0.0, 0.0, 0.0, 0.0, 1.7393885437491455E9, 0.0, 2025-02-12 16:29:03.749
82.0, -5960.025603774262, -5774.416717817392, -6111.279858503325, -6032.66877325401, -45635.69076486716, -54102.79978547094, -85285.87493728101, -60917.310228027134, 0.07, 0.936, 0.34400000000000003, 192.0, 0.0, 0.0, 0.0, 0.0, 0.0, 0.0, 0.0, 0.0, 0.0, 1.739388543749158E9, 0.0, 2025-02-12 16:29:03.749
83.0, -6160.811324216285, -5934.3434493951145, -6082.91549478954, -6004.3714647735915, -45631.46628516511, -54069.24981704353, -85212.94119512335, -60867.4658378918, 0.07, 0.936, 0.34400000000000003, 192.0, 0.0, 0.0, 0.0, 0.0, 0.0, 0.0, 0.0, 0.0, 0.0, 1.73938854374917E9, 0.0, 2025-02-12 16:29:03.749
84.0, -6123.506262720378, -5931.3483156381035, -6079.763898821342, -6014.206232333927, -45627.8676543078, -54095.82604120088, -85208.26968053219, -60883.24616947725, 0.07, 0.936, 0.34400000000000003, 192.0, 0.0, 0.0, 0.0, 0.0, 0.0, 0.0, 0.0, 0.0, 0.0, 1.7393885437491822E9, 0.0, 2025-02-12 16:29:03.749
85.0, -5917.713751520366, -5770.818086960088, -6108.262373001859, -6044.783418748787, -45632.58387238788, -54133.600489330354, -85287.30544892616, -60936.10804511405, 0.07, 0.936, 0.34400000000000003, 192.0, 0.0, 0.0, 0.0, 0.0, 0.0, 0.0, 0.0, 0.0, 0.0, 1.7393885437491944E9, 0.0, 2025-02-12 16:29:03.749
86.0, -5925.760379524277, -5750.030964616652, -6112.576259681733, -6036.781494233786, -45634.68493636667, -54109.59471578535, -85305.05273402366, -60925.11098684204, 0.07, 0.936, 0.34400000000000003, 192.0, 0.0, 0.0, 0.0, 0.0, 0.0, 0.0, 0.0, 0.0, 0.0, 1.739388543749208E9, 0.0, 2025-02-12 16:29:03.749
87.0, -6132.134036080127, -5907.566059537657, -6084.457765156957, -6005.7796246742755, -45630.61691887581, -54069.24981704353, -85233.23657908876, -60871.22093096029, 0.064, 0.932, 0.342, 192.0, 2.0, 0.0, 29.0, 32.0, 10.0, 176.0, 0.0, 0.0, 0.0, 1.73938854374922E9, 0.0, 2025-02-12 16:29:03.749
88.0, -6148.719030465964, -5946.74866756781, -6075.539419119289, -6009.221793320393, -45627.17475022969, -54087.265323074505, -85209.63313694396, -60874.73015483977, 0.064, 0.932, 0.342, 192.0, 0.0, 0.0, 0.0, 0.0, 0.0, 0.0, 0.0, 0.0, 0.0, 1.7393885437492325E9, 0.0, 2025-02-12 16:29:03.749
89.0, -5943.84294078862, -5793.616866304501, -6102.450919443479, -6041.117732658116, -45630.99689853155, -54130.33713463988, -85282.2316029348, -60929.33546654409, 0.064, 0.932, 0.342, 192.0, 0.0, 0.0, 0.0, 0.0, 0.0, 0.0, 0.0, 0.0, 0.0, 1.7393885437492447E9, 0.0, 2025-02-12 16:29:03.749
90.0, -5897.530126277224, -5731.568423696569, -6111.68218990352, -6038.971965190407, -45631.80156133194, -54115.003837943535, -85314.8427980951, -60929.96131538884, 0.064, 0.932, 0.342, 192.0, 0.0, 0.0, 0.0, 0.0, 0.0, 0.0, 0.0, 0.0, 0.0, 1.739388543749257E9, 0.0, 2025-02-12 16:29:03.749
91.0, -6097.913515319052, -5878.218219067839, -6087.5423058917895, -6008.886517153564, -45629.633442119775, -54072.20024731162, -85250.55918104162, -60877.43471591887, 0.064, 0.932, 0.342, 192.0, 0.0, 0.0, 0.0, 0.0, 0.0, 0.0, 0.0, 0.0, 0.0, 1.7393885437492692E9, 0.0, 2025-02-12 16:29:03.749
92.0, -6168.74619349792, -5958.081002006651, -6074.600645852166, -6006.874860152586, -45627.77824732998, -54081.92325614968, -85210.8177794001, -60869.7680675707, 0.064, 0.932, 0.342, 192.0, 0.0, 0.0, 0.0, 0.0, 0.0, 0.0, 0.0, 0.0, 0.0, 1.7393885437492812E9, 0.0, 2025-02-12 16:29:03.749
93.0, -5975.51536268179, -5819.7237038283, -6095.231305984415, -6035.328630844192, -45627.93470954117, -54124.81625375942, -85269.75932952874, -60920.01478910623, 0.064, 0.932, 0.342, 192.0, 0.0, 0.0, 0.0, 0.0, 0.0, 0.0, 0.0, 0.0, 0.0, 1.7393885437492995E9, 0.0, 2025-02-12 16:29:03.749
94.0, -5882.934437147908, -5725.153473037895, -6113.515032948856, -6044.045811181762, -45632.22624447659, -54124.011590959024, -85320.38603072001, -60937.13622535899, 0.064, 0.932, 0.342, 192.0, 0.0, 0.0, 0.0, 0.0, 0.0, 0.0, 0.0, 0.0, 0.0, 1.7393885437493117E9, 0.0, 2025-02-12 16:29:03.749
95.0, -6064.162381191538, -5851.351422232559, -6095.030140284317, -6016.731979457376, -45632.159189243226, -54081.520924749486, -85267.94883822785, -60889.39289920246, 0.064, 0.932, 0.342, 192.0, 0.0, 0.0, 0.0, 0.0, 0.0, 0.0, 0.0, 0.0, 0.0, 1.739388543749324E9, 0.0, 2025-02-12 16:29:03.749
96.0, -6180.5255628258665, -5962.7525165978095, -6075.025328996817, -6005.578458974178, -45628.091171752356, -54078.39168052575, -85210.99659335573, -60867.37643091398, 0.064, 0.932, 0.342, 192.0, 0.0, 0.0, 0.0, 0.0, 0.0, 0.0, 0.0, 0.0, 0.0, 1.739388543749336E9, 0.0, 2025-02-12 16:29:03.749
97.0, -6018.09543586915, -5854.905349600953, -6095.074843773227, -6035.5745000332, -45631.17571248719, -54125.1738816707, -85259.58928580157, -60916.86319313803, 0.062, 0.934, 0.34, 192.0, 1.0, 240.0, 29.0, 48.0, 10.0, 160.0, 0.0, 0.0, 0.0, 1.7393885437493484E9, 0.0, 2025-02-12 16:29:03.749
98.0, -5881.5709807361345, -5730.674353918356, -6117.940678351007, -6051.287776385281, -45635.51195091152, -54135.41098063123, -85321.90594934297, -60945.96516441884, 0.062, 0.934, 0.34, 192.0, 0.0, 0.0, 0.0, 0.0, 0.0, 0.0, 0.0, 0.0, 0.0, 1.7393885437493613E9, 0.0, 2025-02-12 16:29:03.749
99.0, -6026.142063873061, -5822.204747462839, -6100.372207209135, -6022.789302204765, -45631.95802354313, -54090.08164287587, -85279.43763487789, -60899.96527432982, 0.062, 0.934, 0.34, 192.0, 0.0, 0.0, 0.0, 0.0, 0.0, 0.0, 0.0, 0.0, 0.0, 1.7393885437493737E9, 0.0, 2025-02-12 16:29:03.749
100.0, -6181.240818648436, -5958.6397956180335, -6075.3382534191915, -6003.656208951022, -45626.548901384944, -54075.016567112994, -85210.0131165997, -60865.40947740191, 0.062, 0.934, 0.34, 192.0, 0.0, 0.0, 0.0, 0.0, 0.0, 0.0, 0.0, 0.0, 0.0, 1.739388543749386E9, 0.0, 2025-02-12 16:29:03.749
101.0, -6053.545302575267, -5881.794498180688, -6086.91645704704, -6026.879671440086, -45626.10186649583, -54116.34494261086, -85238.84686694705, -60904.457974965335, 0.062, 0.934, 0.34, 192.0, 0.0, 0.0, 0.0, 0.0, 0.0, 0.0, 0.0, 0.0, 0.0, 1.7393885437493985E9, 0.0, 2025-02-12 16:29:03.749
102.0, -5881.794498180688, -5735.502330720703, -6112.755073637375, -6048.382049606091, -45629.94636654215, -54136.90854750974, -85308.83017883661, -60943.6852864844, 0.062, 0.934, 0.34, 192.0, 0.0, 0.0, 0.0, 0.0, 0.0, 0.0, 0.0, 0.0, 0.0, 1.7393885437494109E9, 0.0, 2025-02-12 16:29:03.749
103.0, -5987.85352562112, -5794.108604682518, -6104.619038655644, -6028.041962151762, -45630.34869794235, -54098.97763716908, -85286.61254484803, -60910.269428523716, 0.062, 0.934, 0.34, 192.0, 0.0, 0.0, 0.0, 0.0, 0.0, 0.0, 0.0, 0.0, 0.0, 1.7393885437494228E9, 0.0, 2025-02-12 16:29:03.749
104.0, -6171.026071432361, -5946.212225700882, -6075.360605163647, -6001.868069394597, -45623.46436065011, -54072.289654289445, -85208.69436367684, -60864.895387279445, 0.062, 0.934, 0.34, 192.0, 0.0, 0.0, 0.0, 0.0, 0.0, 0.0, 0.0, 0.0, 0.0, 1.7393885437494352E9, 0.0, 2025-02-12 16:29:03.749
105.0, -6088.749300092376, -5907.566059537657, -6080.0321197548055, -6019.213023091916, -45621.94444202715, -54107.76187274002, -85218.52913123717, -60893.32680622659, 0.062, 0.934, 0.34, 192.0, 0.0, 0.0, 0.0, 0.0, 0.0, 0.0, 0.0, 0.0, 0.0, 1.739388543749447E9, 0.0, 2025-02-12 16:29:03.749
106.0, -5896.747815221288, -5752.4896565067365, -6111.279858503325, -6049.142008917572, -45629.36522118631, -54141.31184116744, -85296.06733275263, -60944.10996962905, 0.062, 0.934, 0.34, 192.0, 0.0, 0.0, 0.0, 0.0, 0.0, 0.0, 0.0, 0.0, 0.0, 1.7393885437494595E9, 0.0, 2025-02-12 16:29:03.749
107.0, -5955.041164760729, -5772.069784649585, -6110.92223059204, -6035.999183177851, -45631.77920958748, -54111.159337897225, -85293.29571644017, -60922.96521937433, 0.064, 0.934, 0.34400000000000003, 192.0, 2.0, 0.0, 29.0, 48.0, 10.0, 192.0, 0.0, 0.0, 0.0, 1.7393885437494729E9, 0.0, 2025-02-12 16:29:03.749
108.0, -6158.844370704219, -5934.41050462848, -6083.541343634289, -6008.350075286637, -45627.93470954117, -54078.74930843703, -85215.62340445798, -60873.94784378384, 0.064, 0.934, 0.34400000000000003, 192.0, 0.0, 0.0, 0.0, 0.0, 0.0, 0.0, 0.0, 0.0, 0.0, 1.7393885437494855E9, 0.0, 2025-02-12 16:29:03.749
109.0, -6125.562623210267, -5934.879891262042, -6079.272160443325, -6016.799034690743, -45623.2184914611, -54104.40911107172, -85203.19583454083, -60888.07414627959, 0.064, 0.934, 0.34400000000000003, 192.0, 0.0, 0.0, 0.0, 0.0, 0.0, 0.0, 0.0, 0.0, 0.0, 1.739388543749504E9, 0.0, 2025-02-12 16:29:03.749
110.0, -5918.674876531944, -5774.059089906107, -6107.211841012459, -6046.392744349569, -45626.95123278513, -54141.82593128991, -85275.88370750949, -60940.22076609383, 0.064, 0.934, 0.34400000000000003, 192.0, 0.0, 0.0, 0.0, 0.0, 0.0, 0.0, 0.0, 0.0, 0.0, 1.7393885437495165E9, 0.0, 2025-02-12 16:29:03.749
111.0, -5924.463978345869, -5752.288490806639, -6113.626791671132, -6039.8213314797085, -45629.92401479769, -54120.07768393489, -85290.92643152791, -60931.39182703398, 0.064, 0.934, 0.34400000000000003, 192.0, 0.0, 0.0, 0.0, 0.0, 0.0, 0.0, 0.0, 0.0, 0.0, 1.7393885437495284E9, 0.0, 2025-02-12 16:29:03.749
112.0, -6133.609251214177, -5912.394036340003, -6087.676416358521, -6010.495842754346, -45626.973584529595, -54082.012663127505, -85215.39988701342, -60879.58048338658, 0.064, 0.934, 0.34400000000000003, 192.0, 0.0, 0.0, 0.0, 0.0, 0.0, 0.0, 0.0, 0.0, 0.0, 1.7393885437495403E9, 0.0, 2025-02-12 16:29:03.749
113.0, -6154.5528357688, -5955.018813016273, -6077.595779609177, -6012.462796266413, -45622.41382866071, -54099.31291333591, -85183.88392733145, -60881.70389910983, 0.064, 0.934, 0.34400000000000003, 192.0, 0.0, 0.0, 0.0, 0.0, 0.0, 0.0, 0.0, 0.0, 0.0, 1.7393885437495525E9, 0.0, 2025-02-12 16:29:03.749
114.0, -5952.2471967038155, -5804.837442021066, -6106.071902045239, -6045.610433293633, -45627.93470954117, -54144.3293266689, -85252.48143106478, -60937.940888159384, 0.064, 0.934, 0.34400000000000003, 192.0, 0.0, 0.0, 0.0, 0.0, 0.0, 0.0, 0.0, 0.0, 0.0, 1.739388543749565E9, 0.0, 2025-02-12 16:29:03.749
115.0, -5906.4037688259805, -5744.241862802728, -6119.8852801186185, -6047.6891455279765, -45632.561520643416, -54133.82400677491, -85285.383198903, -60943.41706555094, 0.064, 0.934, 0.34400000000000003, 192.0, 0.0, 0.0, 0.0, 0.0, 0.0, 0.0, 0.0, 0.0, 0.0, 1.7393885437495768E9, 0.0, 2025-02-12 16:29:03.749
116.0, -6106.206012511971, -5890.3775680515255, -6095.790099595797, -6017.134310857572, -45629.476979908584, -54091.13217486527, -85215.69045969135, -60890.756355614234, 0.064, 0.934, 0.34400000000000003, 192.0, 0.0, 0.0, 0.0, 0.0, 0.0, 0.0, 0.0, 0.0, 0.0, 1.7393885437495892E9, 0.0, 2025-02-12 16:29:03.749
117.0, -6178.782126758352, -5971.179124257461, -6079.316863932236, -6011.211098576916, -45624.20196821713, -54097.63653250176, -85166.2036974673, -60879.2675589642, 0.07, 0.9380000000000001, 0.342, 192.0, 2.0, 48.0, 29.0, 80.0, 10.0, 176.0, 0.0, 0.0, 0.0, 1.7393885437496011E9, 0.0, 2025-02-12 16:29:03.749
118.0, -5988.747595399332, -5836.1969394918615, -6101.288628731803, -6040.6483460245545, -45625.90070079574, -54142.11650396782, -85221.21134057181, -60930.76597818923, 0.07, 0.9380000000000001, 0.342, 192.0, 0.0, 0.0, 0.0, 0.0, 0.0, 0.0, 0.0, 0.0, 0.0, 1.739388543749614E9, 0.0, 2025-02-12 16:29:03.749
119.0, -5894.1326611200175, -5740.822045901066, -6121.7628266528645, -6051.108962429638, -45631.55569214293, -54143.50231212405, -85270.13930918448, -60950.2343476098, 0.07, 0.9380000000000001, 0.342, 192.0, 0.0, 0.0, 0.0, 0.0, 0.0, 0.0, 0.0, 0.0, 0.0, 1.7393885437496262E9, 0.0, 2025-02-12 16:29:03.749
120.0, -6073.39365165158, -5865.343614261582, -6103.076768288228, -6023.348095816147, -45630.43810492016, -54101.033997658975, -85213.58939571255, -60902.44631796436, 0.07, 0.9380000000000001, 0.342, 192.0, 0.0, 0.0, 0.0, 0.0, 0.0, 0.0, 0.0, 0.0, 0.0, 1.739388544228044E9, 0.0, 2025-02-12 16:29:04.228
121.0, -6193.713092054498, -5980.008063317307, -6082.356701178158, -6011.18874683246, -45625.69953509564, -54097.524773779485, -85150.93745600432, -60879.513428153216, 0.07, 0.9380000000000001, 0.342, 192.0, 0.0, 0.0, 0.0, 0.0, 0.0, 0.0, 0.0, 0.0, 0.0, 1.7393885442281032E9, 0.0, 2025-02-12 16:29:04.228
122.0, -6031.998220920351, -5872.742041676288, -6100.036931042306, -6038.726096001398, -45626.59360487385, -54142.340021412376, -85192.60110766902, -60926.49679499827, 0.07, 0.9380000000000001, 0.342, 192.0, 0.0, 0.0, 0.0, 0.0, 0.0, 0.0, 0.0, 0.0, 0.0, 1.739388544228182E9, 0.0, 2025-02-12 16:29:04.228
123.0, -5893.149184363983, -5746.99112737073, -6124.176815054037, -6055.244035153871, -45631.443933420655, -54153.739411084585, -85253.10727990953, -60957.029277924215, 0.07, 0.9380000000000001, 0.342, 192.0, 0.0, 0.0, 0.0, 0.0, 0.0, 0.0, 0.0, 0.0, 0.0, 1.7393885442281942E9, 0.0, 2025-02-12 16:29:04.228
124.0, -6037.921433201008, -5839.326183715604, -6109.491718946901, -6029.405418563535, -45629.94636654215, -54111.42755883069, -85210.88483463346, -60914.35979775904, 0.07, 0.9380000000000001, 0.342, 192.0, 0.0, 0.0, 0.0, 0.0, 0.0, 0.0, 0.0, 0.0, 0.0, 1.7393885442282877E9, 0.0, 2025-02-12 16:29:04.228
125.0, -6197.267019422891, -5979.359862728103, -6084.837744812697, -6010.6523049655325, -45624.89487229525, -54097.100090634834, -85137.90638898688, -60880.25103572024, 0.07, 0.9380000000000001, 0.342, 192.0, 0.0, 0.0, 0.0, 0.0, 0.0, 0.0, 0.0, 0.0, 0.0, 1.7393885442283015E9, 0.0, 2025-02-12 16:29:04.228
126.0, -6074.243017940881, -5906.828451970631, -6097.354721707669, -6034.76983723281, -45625.69953509564, -54139.702515566656, -85163.7450055772, -60920.14889957296, 0.07, 0.9380000000000001, 0.342, 192.0, 0.0, 0.0, 0.0, 0.0, 0.0, 0.0, 0.0, 0.0, 0.0, 1.739388544228314E9, 0.0, 2025-02-12 16:29:04.228
127.0, -5901.553440279179, -5760.312767066093, -6125.204995298982, -6057.814485766231, -45630.97454678709, -54162.21072223315, -85233.59420700005, -60961.566682048644, 0.066, 0.9400000000000001, 0.34600000000000003, 192.0, 2.0, 16.0, 29.0, 96.0, 10.0, 208.0, 0.0, 0.0, 0.0, 1.7393885442283263E9, 0.0, 2025-02-12 16:29:04.228
128.0, -6006.830156663676, -5818.874337538999, -6119.840576629708, -6039.977793690896, -45633.120314254804, -54127.09613169386, -85212.0694770896, -60931.0789026116, 0.066, 0.9400000000000001, 0.34600000000000003, 192.0, 0.0, 0.0, 0.0, 0.0, 0.0, 0.0, 0.0, 0.0, 0.0, 1.7393885442283397E9, 0.0, 2025-02-12 16:29:04.228
129.0, -6195.098900210727, -5975.649473148522, -6092.8843728166075, -6015.837909679164, -45627.8676543078, -54102.844488959854, -85132.47491508424, -60887.872980579494, 0.066, 0.9400000000000001, 0.34600000000000003, 192.0, 0.0, 0.0, 0.0, 0.0, 0.0, 0.0, 0.0, 0.0, 0.0, 1.7393885442283516E9, 0.0, 2025-02-12 16:29:04.228
130.0, -6116.35370449468, -5939.79727504221, -6096.706521118465, -6032.109979642628, -45625.565424628905, -54137.55674809894, -85137.61581630896, -60915.29857102616, 0.066, 0.9400000000000001, 0.34600000000000003, 192.0, 0.0, 0.0, 0.0, 0.0, 0.0, 0.0, 0.0, 0.0, 0.0, 1.7393885442283635E9, 0.0, 2025-02-12 16:29:04.228
131.0, -5918.943097465408, -5779.915246953398, -6124.713256920964, -6058.48503809989, -45629.43227641968, -54167.8880653248, -85209.83430264406, -60963.01954543824, 0.066, 0.9400000000000001, 0.34600000000000003, 192.0, 0.0, 0.0, 0.0, 0.0, 0.0, 0.0, 0.0, 0.0, 0.0, 1.7393885442283752E9, 0.0, 2025-02-12 16:29:04.228
132.0, -5971.51440042429, -5794.689750038356, -6122.746303408898, -6043.487017570379, -45629.43227641968, -54136.327402153904, -85203.7099246633, -60940.57839400511, 0.066, 0.9400000000000001, 0.34600000000000003, 192.0, 0.0, 0.0, 0.0, 0.0, 0.0, 0.0, 0.0, 0.0, 0.0, 1.7393885442283869E9, 0.0, 2025-02-12 16:29:04.228
133.0, -6177.485725579944, -5958.773906084765, -6095.857154829163, -6016.217889334905, -45625.47601765109, -54104.65498026073, -85123.06483066855, -60891.89629458145, 0.066, 0.9400000000000001, 0.34600000000000003, 192.0, 0.0, 0.0, 0.0, 0.0, 0.0, 0.0, 0.0, 0.0, 0.0, 1.7393885442283983E9, 0.0, 2025-02-12 16:29:04.228
134.0, -6151.781219456341, -5965.926464310463, -6094.292532717292, -6027.259651095826, -45623.64317460575, -54133.1758061857, -85109.69848748427, -60908.5259924562, 0.066, 0.9400000000000001, 0.34600000000000003, 192.0, 0.0, 0.0, 0.0, 0.0, 0.0, 0.0, 0.0, 0.0, 0.0, 1.7393885442284102E9, 0.0, 2025-02-12 16:29:04.228
135.0, -5944.737010566832, -5805.329180399082, -6122.723951664442, -6057.322747388214, -45627.800599074435, -54171.37493745982, -85181.31347671908, -60961.52197855974, 0.066, 0.9400000000000001, 0.34600000000000003, 192.0, 0.0, 0.0, 0.0, 0.0, 0.0, 0.0, 0.0, 0.0, 0.0, 1.7393885442284217E9, 0.0, 2025-02-12 16:29:04.228
136.0, -5946.927481523452, -5780.652854520423, -6130.077675590239, -6051.712459529932, -45631.2204159761, -54150.654870349754, -85197.07145656008, -60954.235309867305, 0.066, 0.9400000000000001, 0.34600000000000003, 192.0, 0.0, 0.0, 0.0, 0.0, 0.0, 0.0, 0.0, 0.0, 0.0, 1.7393885442284467E9, 0.0, 2025-02-12 16:29:04.228
137.0, -6154.888111935629, -5939.2161296863715, -6103.166175266048, -6021.068217881706, -45626.99593627405, -54111.51696580851, -85119.62266202243, -60901.55224818615, 0.066, 0.9440000000000001, 0.34800000000000003, 192.0, 2.0, 16.0, 29.0, 128.0, 10.0, 224.0, 0.0, 0.0, 0.0, 1.739388544228459E9, 0.0, 2025-02-12 16:29:04.228
138.0, -6180.637321548143, -5985.797165131231, -6093.219648983437, -6023.19163360496, -45622.97262227209, -54129.197195672656, -85086.60913546194, -60903.541553442665, 0.066, 0.9440000000000001, 0.34800000000000003, 192.0, 0.0, 0.0, 0.0, 0.0, 0.0, 0.0, 0.0, 0.0, 0.0, 1.7393885442284713E9, 0.0, 2025-02-12 16:29:04.228
139.0, -5976.588246415645, -5834.274689468705, -6119.25943127387, -6054.171151420016, -45626.10186649583, -54171.93373107121, -85152.21150543827, -60957.54336804669, 0.066, 0.9440000000000001, 0.34800000000000003, 192.0, 0.0, 0.0, 0.0, 0.0, 0.0, 0.0, 0.0, 0.0, 0.0, 1.7393885442284827E9, 0.0, 2025-02-12 16:29:04.228
140.0, -5927.548519080701, -5771.488639293747, -6134.7938936703085, -6057.680375299499, -45631.80156133194, -54162.881274566804, -85188.01900005568, -60965.05355418367, 0.066, 0.9440000000000001, 0.34800000000000003, 192.0, 0.0, 0.0, 0.0, 0.0, 0.0, 0.0, 0.0, 0.0, 0.0, 1.7393885442285028E9, 0.0, 2025-02-12 16:29:04.228
141.0, -6128.066018589261, -5918.116082920562, -6113.135053293116, -6029.360715074625, -45631.086305509365, -54122.40226535824, -85121.83548472352, -60915.11975707052, 0.066, 0.9440000000000001, 0.34800000000000003, 192.0, 0.0, 0.0, 0.0, 0.0, 0.0, 0.0, 0.0, 0.0, 0.0, 1.7393885442285144E9, 0.0, 2025-02-12 16:29:04.228
142.0, -6206.498289882933, -6003.767967673299, -6098.137032763605, -6025.225642350393, -45627.77824732998, -54130.605355573345, -85073.3769027444, -60905.10617555454, 0.066, 0.9440000000000001, 0.34800000000000003, 192.0, 0.0, 0.0, 0.0, 0.0, 0.0, 0.0, 0.0, 0.0, 0.0, 1.7393885442285264E9, 0.0, 2025-02-12 16:29:04.228
143.0, -6017.626049235589, -5869.813963152643, -6119.706466162976, -6054.282910142292, -45629.05229676393, -54174.52653342802, -85128.20573189328, -60956.09050465709, 0.066, 0.9440000000000001, 0.34800000000000003, 192.0, 0.0, 0.0, 0.0, 0.0, 0.0, 0.0, 0.0, 0.0, 0.0, 1.739388544228538E9, 0.0, 2025-02-12 16:29:04.228
144.0, -5915.232707885827, -5767.532380525158, -6137.006716371384, -6061.547227090267, -45631.17571248719, -54172.55957991596, -85176.64196212792, -60972.85431299858, 0.066, 0.9440000000000001, 0.34800000000000003, 192.0, 0.0, 0.0, 0.0, 0.0, 0.0, 0.0, 0.0, 0.0, 0.0, 1.7393885442285497E9, 0.0, 2025-02-12 16:29:04.228
145.0, -6089.710425103954, -5887.427137783425, -6116.197242283492, -6031.640593009066, -45627.71119209662, -54127.69962879415, -85120.24851086718, -60923.23344030779, 0.066, 0.9440000000000001, 0.34800000000000003, 192.0, 0.0, 0.0, 0.0, 0.0, 0.0, 0.0, 0.0, 0.0, 0.0, 1.739388544228561E9, 0.0, 2025-02-12 16:29:04.228
146.0, -6212.488557396956, -6003.499746739834, -6094.337236206203, -6018.363656802614, -45622.03384900497, -54122.89400373626, -85057.01542580313, -60898.802983618145, 0.066, 0.9440000000000001, 0.34800000000000003, 192.0, 0.0, 0.0, 0.0, 0.0, 0.0, 0.0, 0.0, 0.0, 0.0, 1.7393885442285728E9, 0.0, 2025-02-12 16:29:04.228
147.0, -6054.797000264764, -5899.877059445031, -6113.559736437766, -6047.5773868057, -45625.07368625089, -54169.16211475875, -85101.45069378027, -60947.2839173417, 0.064, 0.9400000000000001, 0.34600000000000003, 192.0, 2.0, 0.0, 29.0, 96.0, 10.0, 208.0, 0.0, 0.0, 0.0, 1.7393885442285843E9, 0.0, 2025-02-12 16:29:04.228
148.0, -5912.684609017922, -5771.645101504934, -6138.481931505434, -6064.855285269652, -45630.54986364244, -54181.25440850907, -85165.86842130047, -60978.978690979326, 0.064, 0.9400000000000001, 0.34600000000000003, 192.0, 0.0, 0.0, 0.0, 0.0, 0.0, 0.0, 0.0, 0.0, 0.0, 1.7393885442285962E9, 0.0, 2025-02-12 16:29:04.228
149.0, -6054.215854908926, -5860.806210137154, -6124.065056331761, -6039.3519448461475, -45628.89583455275, -54138.920204510716, -85126.61875803694, -60936.84565268108, 0.064, 0.9400000000000001, 0.34600000000000003, 192.0, 0.0, 0.0, 0.0, 0.0, 0.0, 0.0, 0.0, 0.0, 0.0, 1.7393885442286077E9, 0.0, 2025-02-12 16:29:04.228
150.0, -6216.355409187724, -6002.717435683899, -6099.29932347528, -6020.598831248144, -45624.02315426149, -54124.39157061477, -85054.55673391304, -60902.513373197726, 0.064, 0.9400000000000001, 0.34600000000000003, 192.0, 0.0, 0.0, 0.0, 0.0, 0.0, 0.0, 0.0, 0.0, 0.0, 1.739388544228619E9, 0.0, 2025-02-12 16:29:04.228
151.0, -6095.454823428968, -5931.728295293844, -6110.452843958479, -6043.554072803745, -45623.956099028124, -54165.42937343471, -85080.26124003663, -60940.84661493858, 0.064, 0.9400000000000001, 0.34600000000000003, 192.0, 0.0, 0.0, 0.0, 0.0, 0.0, 0.0, 0.0, 0.0, 0.0, 1.73938854422864E9, 0.0, 2025-02-12 16:29:04.228
152.0, -5919.323077121148, -5782.508049310213, -6138.079600105239, -6066.554017848256, -45629.02994501948, -54187.46819346764, -85152.63618858292, -60982.21969392535, 0.064, 0.9400000000000001, 0.34600000000000003, 192.0, 0.0, 0.0, 0.0, 0.0, 0.0, 0.0, 0.0, 0.0, 0.0, 1.7393885442286525E9, 0.0, 2025-02-12 16:29:04.228
153.0, -6016.731979457376, -5833.58178539059, -6129.317716278758, -6045.275157126804, -45627.599433374344, -54148.75497207105, -85130.99969995019, -60948.87089119803, 0.064, 0.9400000000000001, 0.34600000000000003, 192.0, 0.0, 0.0, 0.0, 0.0, 0.0, 0.0, 0.0, 0.0, 0.0, 1.739388544228664E9, 0.0, 2025-02-12 16:29:04.228
154.0, -6206.565345116299, -5991.005121589318, -6102.16034676556, -6020.911755670519, -45622.72675308309, -54124.21275665912, -85053.39444320137, -60905.53085869919, 0.064, 0.9400000000000001, 0.34600000000000003, 192.0, 0.0, 0.0, 0.0, 0.0, 0.0, 0.0, 0.0, 0.0, 0.0, 1.7393885442286756E9, 0.0, 2025-02-12 16:29:04.228
155.0, -6132.245794802403, -5958.885664807041, -6106.250716000881, -6037.787322734275, -45621.18448271567, -54159.23794022059, -85059.76469037113, -60932.66587646793, 0.064, 0.9400000000000001, 0.34600000000000003, 192.0, 0.0, 0.0, 0.0, 0.0, 0.0, 0.0, 0.0, 0.0, 0.0, 1.7393885442286935E9, 0.0, 2025-02-12 16:29:04.228
156.0, -5932.018867971763, -5796.81316576161, -6133.184568069526, -6063.380070135602, -45623.754933328026, -54188.36226324586, -85133.27957788463, -60979.40337412398, 0.064, 0.9400000000000001, 0.34600000000000003, 192.0, 0.0, 0.0, 0.0, 0.0, 0.0, 0.0, 0.0, 0.0, 0.0, 1.7393885442287056E9, 0.0, 2025-02-12 16:29:04.228
157.0, -5980.924484839975, -5808.346665900549, -6132.469312246956, -6049.656099040044, -45624.64900310624, -54157.650966364265, -85132.40785985088, -60958.705658758365, 0.062, 0.932, 0.34400000000000003, 192.0, 1.0, 240.0, 29.0, 32.0, 10.0, 192.0, 0.0, 0.0, 0.0, 1.7393885442287176E9, 0.0, 2025-02-12 16:29:04.228
158.0, -6184.481821594456, -5969.435688189947, -6103.009713054862, -6019.660057981022, -45618.591680358855, -54122.71518978062, -85052.70153912324, -60907.475460466805, 0.062, 0.932, 0.34400000000000003, 192.0, 0.0, 0.0, 0.0, 0.0, 0.0, 0.0, 0.0, 0.0, 0.0, 1.7393885442287316E9, 0.0, 2025-02-12 16:29:04.228
159.0, -6159.581978271244, -5976.565894671189, -6097.868811830141, -6027.4384650514685, -45613.87546227878, -54147.54797787047, -85037.45764940472, -60920.28301003969, 0.062, 0.932, 0.34400000000000003, 192.0, 0.0, 0.0, 0.0, 0.0, 0.0, 0.0, 0.0, 0.0, 0.0, 1.7393885442287436E9, 0.0, 2025-02-12 16:29:04.228
160.0, -5951.375478670058, -5815.231003192783, -6125.428512743534, -6057.076878199206, -45617.02705824698, -54185.14361204429, -85110.27963284012, -60972.56374032066, 0.062, 0.932, 0.34400000000000003, 192.0, 0.0, 0.0, 0.0, 0.0, 0.0, 0.0, 0.0, 0.0, 0.0, 1.7393885442287557E9, 0.0, 2025-02-12 16:29:04.228
161.0, -5947.84390304612, -5785.816107489599, -6131.999925613395, -6050.86309324063, -45618.994011759045, -54163.70828911165, -85128.76452550465, -60964.89709197249, 0.062, 0.932, 0.34400000000000003, 192.0, 0.0, 0.0, 0.0, 0.0, 0.0, 0.0, 0.0, 0.0, 0.0, 1.739388544228768E9, 0.0, 2025-02-12 16:29:04.228
162.0, -6156.497437536412, -5944.535844866735, -6106.362474723158, -6021.425845792991, -45615.75300881303, -54125.352695626345, -85055.0261205466, -60913.421024491916, 0.062, 0.932, 0.34400000000000003, 192.0, 0.0, 0.0, 0.0, 0.0, 0.0, 0.0, 0.0, 0.0, 0.0, 1.73938854422878E9, 0.0, 2025-02-12 16:29:04.228
163.0, -6187.029920462361, -5994.737862913355, -6096.974742051929, -6024.175110360994, -45612.53435761146, -54142.94351851267, -85023.37605039788, -60915.499736726255, 0.062, 0.932, 0.34400000000000003, 192.0, 0.0, 0.0, 0.0, 0.0, 0.0, 0.0, 0.0, 0.0, 0.0, 1.7393885442287924E9, 0.0, 2025-02-12 16:29:04.228
164.0, -5982.5338104407565, -5842.880111083998, -6121.852233630685, -6054.126447931105, -45614.47895937908, -54184.65187366628, -85089.15723432985, -60968.22750189633, 0.062, 0.932, 0.34400000000000003, 192.0, 0.0, 0.0, 0.0, 0.0, 0.0, 0.0, 0.0, 0.0, 0.0, 1.7393885442288046E9, 0.0, 2025-02-12 16:29:04.228
165.0, -5930.633059815534, -5778.060052163608, -6138.794855927808, -6059.53557008929, -45620.93861352666, -54177.72283288513, -85128.71982201574, -60977.95051073439, 0.062, 0.932, 0.34400000000000003, 192.0, 0.0, 0.0, 0.0, 0.0, 0.0, 0.0, 0.0, 0.0, 0.0, 1.7393885442288165E9, 0.0, 2025-02-12 16:29:04.228
166.0, -6128.222480800448, -5921.6029550555895, -6115.571393438744, -6029.628936008088, -45617.83172104737, -54135.18746318668, -85062.0222165611, -60926.49679499827, 0.062, 0.932, 0.34400000000000003, 192.0, 0.0, 0.0, 0.0, 0.0, 0.0, 0.0, 0.0, 0.0, 0.0, 1.739388544228829E9, 0.0, 2025-02-12 16:29:04.228
167.0, -6210.700417840531, -6010.317028798703, -6101.042759542795, -6025.627973750588, -45614.74718031254, -54142.988222001586, -85013.58598632646, -60916.21499254883, 0.062, 0.932, 0.34, 192.0, 1.0, 240.0, 29.0, 32.0, 10.0, 160.0, 0.0, 0.0, 0.0, 1.7393885442288408E9, 0.0, 2025-02-12 16:29:04.228
168.0, -6025.5609185172225, -5880.319283046638, -6124.445035987501, -6056.629843310099, -45617.87642453628, -54189.032815579514, -85069.89003060939, -60968.89805422998, 0.062, 0.932, 0.34, 192.0, 0.0, 0.0, 0.0, 0.0, 0.0, 0.0, 0.0, 0.0, 0.0, 1.7393885442288544E9, 0.0, 2025-02-12 16:29:04.228
169.0, -5920.55242306619, -5776.406023073915, -6142.728762951942, -6065.235264925393, -45620.62568910429, -54188.94340860169, -85119.48855155571, -60987.33824340561, 0.062, 0.932, 0.34, 192.0, 0.0, 0.0, 0.0, 0.0, 0.0, 0.0, 0.0, 0.0, 0.0, 1.739388544228866E9, 0.0, 2025-02-12 16:29:04.228
170.0, -6092.571448394233, -5893.685626230911, -6121.40519874158, -6034.836892466175, -45616.31180242441, -54143.54701561297, -85062.3798444724, -60937.33739105909, 0.062, 0.932, 0.34, 192.0, 0.0, 0.0, 0.0, 0.0, 0.0, 0.0, 0.0, 0.0, 0.0, 1.7393885442288773E9, 0.0, 2025-02-12 16:29:04.228
171.0, -6218.925859800084, -6012.194575332949, -6099.835765342208, -6021.381142304081, -45610.63445933276, -54138.13789345478, -84997.40332334081, -60912.43754773588, 0.062, 0.932, 0.34, 192.0, 0.0, 0.0, 0.0, 0.0, 0.0, 0.0, 0.0, 0.0, 0.0, 1.7393885442288957E9, 0.0, 2025-02-12 16:29:04.228
172.0, -6062.508352101845, -5909.734178749822, -6117.359532995169, -6048.806732750742, -45611.796750044436, -54182.81903062094, -85037.27883544909, -60958.77271399173, 0.062, 0.932, 0.34, 192.0, 0.0, 0.0, 0.0, 0.0, 0.0, 0.0, 0.0, 0.0, 0.0, 1.7393885442289073E9, 0.0, 2025-02-12 16:29:04.228
173.0, -5917.26671663126, -5779.624674275479, -6141.6111757291765, -6065.816410281231, -45616.31180242441, -54195.38071100482, -85099.0367053791, -60990.55689460718, 0.062, 0.932, 0.34, 192.0, 0.0, 0.0, 0.0, 0.0, 0.0, 0.0, 0.0, 0.0, 0.0, 1.7393885442289188E9, 0.0, 2025-02-12 16:29:04.228
174.0, -6059.803791022753, -5870.283349786205, -6131.061152346272, -6044.090514670672, -45618.14464546974, -54157.20393147516, -85061.66458864983, -60952.91655694444, 0.062, 0.932, 0.34, 192.0, 0.0, 0.0, 0.0, 0.0, 0.0, 0.0, 0.0, 0.0, 0.0, 1.7393885442289305E9, 0.0, 2025-02-12 16:29:04.228
175.0, -6224.603202891732, -6013.7591974448205, -6106.5412886788, -6024.935069672474, -45613.09315122285, -54141.937690012186, -84986.11569239089, -60917.86902163852, 0.062, 0.932, 0.34, 192.0, 0.0, 0.0, 0.0, 0.0, 0.0, 0.0, 0.0, 0.0, 0.0, 1.739388544228942E9, 0.0, 2025-02-12 16:29:04.228
176.0, -6107.144785779094, -5945.6534320895, -6117.2477742728925, -6047.15270366105, -45612.444950633646, -54182.57316143193, -85006.70164903422, -60955.19643487888, 0.062, 0.932, 0.34, 192.0, 0.0, 0.0, 0.0, 0.0, 0.0, 0.0, 0.0, 0.0, 0.0, 1.7393885442289543E9, 0.0, 2025-02-12 16:29:04.228
177.0, -5929.560176081679, -5796.187316916861, -6144.472199019457, -6070.040889983284, -45616.84824429134, -54205.77427217654, -85075.2320975342, -60996.949493521395, 0.064, 0.9380000000000001, 0.34600000000000003, 192.0, 2.0, 0.0, 29.0, 80.0, 10.0, 208.0, 0.0, 0.0, 0.0, 1.7393885442289662E9, 0.0, 2025-02-12 16:29:04.228
178.0, -6026.902023184541, -5848.177474519905, -6138.88426290563, -6052.003032207851, -45618.07759023638, -54170.90555082626, -85053.84147809047, -60967.311080373656, 0.064, 0.9380000000000001, 0.34600000000000003, 192.0, 0.0, 0.0, 0.0, 0.0, 0.0, 0.0, 0.0, 0.0, 0.0, 1.739388544228979E9, 0.0, 2025-02-12 16:29:04.228
179.0, -6218.702342355531, -6006.80780491922, -6111.950410836985, -6027.304354584737, -45612.75787505601, -54145.558672613945, -84971.87763117286, -60923.412254263436, 0.064, 0.9380000000000001, 0.34600000000000003, 192.0, 0.0, 0.0, 0.0, 0.0, 0.0, 0.0, 0.0, 0.0, 0.0, 1.7393885442289915E9, 0.0, 2025-02-12 16:29:04.228
180.0, -6148.562568254777, -5978.1305167830615, -6115.817262627753, -6043.554072803745, -45610.65681107722, -54180.20387651967, -84972.97286665117, -60949.87671969852, 0.064, 0.9380000000000001, 0.34600000000000003, 192.0, 0.0, 0.0, 0.0, 0.0, 0.0, 0.0, 0.0, 0.0, 0.0, 1.739388544229004E9, 0.0, 2025-02-12 16:29:04.229
181.0, -5951.353126925604, -5820.148386972951, -6145.790951942319, -6072.387823151091, -45615.97652625758, -54214.11147285837, -85045.59368438646, -61000.48106914533, 0.064, 0.9380000000000001, 0.34600000000000003, 192.0, 0.0, 0.0, 0.0, 0.0, 0.0, 0.0, 0.0, 0.0, 0.0, 1.7393885442290215E9, 0.0, 2025-02-12 16:29:04.229
182.0, -5999.52113622679, -5831.972459789808, -6147.7132019654755, -6061.346061390169, -45618.81519780341, -54187.17762078973, -85043.78319308558, -60983.27022591475, 0.064, 0.9380000000000001, 0.34600000000000003, 192.0, 0.0, 0.0, 0.0, 0.0, 0.0, 0.0, 0.0, 0.0, 0.0, 1.739388544229034E9, 0.0, 2025-02-12 16:29:04.229
183.0, -6205.6489235936315, -5994.670807679989, -6119.706466162976, -6032.579366276189, -45613.00374424503, -54153.15826572875, -84960.34413103393, -60933.045856123674, 0.064, 0.9380000000000001, 0.34600000000000003, 192.0, 0.0, 0.0, 0.0, 0.0, 0.0, 0.0, 0.0, 0.0, 0.0, 1.7393885442290456E9, 0.0, 2025-02-12 16:29:04.229
184.0, -6186.60523731771, -6006.740749685854, -6116.01842832785, -6041.318898358214, -45608.84631977634, -54178.99688231908, -84941.21103778017, -60946.412199307946, 0.064, 0.9380000000000001, 0.34600000000000003, 192.0, 0.0, 0.0, 0.0, 0.0, 0.0, 0.0, 0.0, 0.0, 0.0, 1.7393885442290573E9, 0.0, 2025-02-12 16:29:04.229
185.0, -5980.4774499508685, -5848.5798059201015, -6145.187454842026, -6072.611340595644, -45613.16020645621, -54219.40883629428, -85011.90960549231, -61000.90575228998, 0.064, 0.9380000000000001, 0.34600000000000003, 192.0, 0.0, 0.0, 0.0, 0.0, 0.0, 0.0, 0.0, 0.0, 0.0, 1.7393885442290752E9, 0.0, 2025-02-12 16:29:04.229
186.0, -5973.146077769527, -5816.616811349012, -6151.4682950339675, -6066.352852148158, -45614.031924489966, -54199.00169360658, -85026.84057078845, -60994.26728418676, 0.064, 0.9380000000000001, 0.34600000000000003, 192.0, 0.0, 0.0, 0.0, 0.0, 0.0, 0.0, 0.0, 0.0, 0.0, 1.7393885442290933E9, 0.0, 2025-02-12 16:29:04.229
187.0, -6181.397280859624, -5974.598941159123, -6125.339105765714, -6036.245052366859, -45609.33805815435, -54159.84143732089, -84948.58711345043, -60942.12066437253, 0.066, 0.9380000000000001, 0.34800000000000003, 192.0, 2.0, 16.0, 29.0, 80.0, 10.0, 224.0, 0.0, 0.0, 0.0, 1.7393885442291052E9, 0.0, 2025-02-12 16:29:04.229
188.0, -6217.316534199302, -6029.204252863437, -6117.046608572795, -6039.597814035155, -45606.23116567507, -54177.96870207414, -84913.51722640006, -60944.5346527737, 0.066, 0.9380000000000001, 0.34800000000000003, 192.0, 0.0, 0.0, 0.0, 0.0, 0.0, 0.0, 0.0, 0.0, 0.0, 1.7393885442291172E9, 0.0, 2025-02-12 16:29:04.229
189.0, -6015.927316656986, -5881.034538869208, -6143.913405408073, -6071.560808606245, -45609.53922385445, -54222.58278400693, -84978.1584713648, -60999.810516811674, 0.066, 0.9380000000000001, 0.34800000000000003, 192.0, 0.0, 0.0, 0.0, 0.0, 0.0, 0.0, 0.0, 0.0, 0.0, 1.7393885442291284E9, 0.0, 2025-02-12 16:29:04.229
190.0, -5957.186932228438, -5810.760654301722, -6157.615024759177, -6074.175962707515, -45612.33319191136, -54213.664437969266, -85013.317765393, -61007.61127562658, 0.066, 0.9380000000000001, 0.34800000000000003, 192.0, 0.0, 0.0, 0.0, 0.0, 0.0, 0.0, 0.0, 0.0, 0.0, 1.73938854422914E9, 0.0, 2025-02-12 16:29:04.229
191.0, -6155.022222402361, -5954.460019404891, -6135.9114808930735, -6045.588081549177, -45609.98625874356, -54172.55957991596, -84947.11189831638, -60957.85629246906, 0.066, 0.9380000000000001, 0.34800000000000003, 192.0, 0.0, 0.0, 0.0, 0.0, 0.0, 0.0, 0.0, 0.0, 0.0, 1.7393885442291515E9, 0.0, 2025-02-12 16:29:04.229
192.0, -6238.66245015412, -6043.24114838137, -6118.7676928958535, -6038.614337279122, -45603.70541855162, -54177.074632295924, -84894.5405953575, -60944.42289405142, 0.066, 0.9380000000000001, 0.34800000000000003, 192.0, 0.0, 0.0, 0.0, 0.0, 0.0, 0.0, 0.0, 0.0, 0.0, 1.739388544229163E9, 0.0, 2025-02-12 16:29:04.229
193.0, -6050.661927540533, -5910.382379339026, -6137.341992538213, -6065.302320158758, -45601.96198248411, -54219.028856638535, -84946.01666283807, -60992.79206905271, 0.066, 0.9380000000000001, 0.34800000000000003, 192.0, 0.0, 0.0, 0.0, 0.0, 0.0, 0.0, 0.0, 0.0, 0.0, 1.7393885442291744E9, 0.0, 2025-02-12 16:29:04.229
194.0, -5943.485312877335, -5805.53034609918, -6156.899768936607, -6075.673529586021, -45605.87353776378, -54221.15227236179, -84999.0126489416, -61013.82506058515, 0.066, 0.9380000000000001, 0.34800000000000003, 192.0, 0.0, 0.0, 0.0, 0.0, 0.0, 0.0, 0.0, 0.0, 0.0, 1.73938854422927E9, 0.0, 2025-02-12 16:29:04.229
195.0, -6118.030085328828, -5925.603917313089, -6141.007678628884, -6050.706631029443, -45606.1641104417, -54180.9861875756, -84949.68234892873, -60969.769772263746, 0.066, 0.9380000000000001, 0.34800000000000003, 192.0, 0.0, 0.0, 0.0, 0.0, 0.0, 0.0, 0.0, 0.0, 0.0, 1.739388544229282E9, 0.0, 2025-02-12 16:29:04.229
196.0, -6245.166807790614, -6043.822293737208, -6117.203070783981, -6035.105113399639, -45598.1621859267, -54172.67133863823, -84884.2364411636, -60942.29947832817, 0.066, 0.9380000000000001, 0.34800000000000003, 192.0, 0.0, 0.0, 0.0, 0.0, 0.0, 0.0, 0.0, 0.0, 0.0, 1.7393885442292936E9, 0.0, 2025-02-12 16:29:04.229
197.0, -6091.610323382655, -5943.865292533075, -6135.665611704066, -6063.737698046887, -45600.620877816786, -54218.179490349234, -84927.88939808481, -60989.72988006233, 0.07, 0.9380000000000001, 0.342, 192.0, 2.0, 48.0, 29.0, 80.0, 10.0, 176.0, 0.0, 0.0, 0.0, 1.7393885442293053E9, 0.0, 2025-02-12 16:29:04.229
198.0, -5945.474618133858, -5813.666381080911, -6162.510056794889, -6083.742509334387, -45607.84049127585, -54233.95982193468, -84997.38097159636, -61025.09033979063, 0.07, 0.9380000000000001, 0.342, 192.0, 0.0, 0.0, 0.0, 0.0, 0.0, 0.0, 0.0, 0.0, 0.0, 1.7393885442293172E9, 0.0, 2025-02-12 16:29:04.229
199.0, -6079.115698232138, -5896.12196637654, -6147.042649631817, -6057.367450877125, -45604.64419181874, -54190.73154815812, -84961.19349732323, -60982.97965323683, 0.07, 0.9380000000000001, 0.342, 192.0, 0.0, 0.0, 0.0, 0.0, 0.0, 0.0, 0.0, 0.0, 0.0, 1.739388544229329E9, 0.0, 2025-02-12 16:29:04.229
200.0, -6245.546787446355, -6040.313069857725, -6122.120454564149, -6038.167302390016, -45599.79386327194, -54174.16890551674, -84890.49492961109, -60947.39567606398, 0.07, 0.9380000000000001, 0.342, 192.0, 0.0, 0.0, 0.0, 0.0, 0.0, 0.0, 0.0, 0.0, 0.0, 1.739388544229341E9, 0.0, 2025-02-12 16:29:04.229
201.0, -6129.496530234401, -5972.855505091608, -6131.552890724289, -6059.379107878102, -45598.653924304715, -54213.083292613424, -84915.14890374528, -60983.247874170294, 0.07, 0.9380000000000001, 0.342, 192.0, 0.0, 0.0, 0.0, 0.0, 0.0, 0.0, 0.0, 0.0, 0.0, 1.73938854422936E9, 0.0, 2025-02-12 16:29:04.229
202.0, -5946.5475018677125, -5818.5837648610795, -6156.542141025322, -6080.568561621733, -45601.20202317262, -54233.95982193468, -84988.35086683642, -61023.25749674529, 0.07, 0.9380000000000001, 0.342, 192.0, 0.0, 0.0, 0.0, 0.0, 0.0, 0.0, 0.0, 0.0, 0.0, 1.739388544229372E9, 0.0, 2025-02-12 16:29:04.229
203.0, -6034.993354677362, -5861.923797359919, -6147.042649631817, -6058.90972124454, -45598.67627604918, -54194.75486216007, -84971.09532011692, -60990.243970184805, 0.07, 0.9380000000000001, 0.342, 192.0, 0.0, 0.0, 0.0, 0.0, 0.0, 0.0, 0.0, 0.0, 0.0, 1.7393885442293844E9, 0.0, 2025-02-12 16:29:04.229
204.0, -6222.166862746104, -6014.765025945309, -6114.811434127264, -6029.226604607893, -45589.02032244448, -54163.328309455916, -84891.27724066703, -60940.958373660855, 0.07, 0.9380000000000001, 0.342, 192.0, 0.0, 0.0, 0.0, 0.0, 0.0, 0.0, 0.0, 0.0, 0.0, 1.7393885442293966E9, 0.0, 2025-02-12 16:29:04.229
205.0, -6152.988213656929, -5986.378310487069, -6116.644277172599, -6043.799941992753, -45586.695741021125, -54195.35835926037, -84897.26750818104, -60965.142961161495, 0.07, 0.9380000000000001, 0.342, 192.0, 0.0, 0.0, 0.0, 0.0, 0.0, 0.0, 0.0, 0.0, 0.0, 1.7393885442294087E9, 0.0, 2025-02-12 16:29:04.229
206.0, -5953.744763582321, -5826.6303928649895, -6146.997946142906, -6073.259541184848, -45593.84829924683, -54228.9977346656, -84977.80084345351, -61016.17199375296, 0.07, 0.9380000000000001, 0.342, 192.0, 0.0, 0.0, 0.0, 0.0, 0.0, 0.0, 0.0, 0.0, 0.0, 1.739388544229421E9, 0.0, 2025-02-12 16:29:04.229
207.0, -5997.665941437, -5834.565262146623, -6150.194245600015, -6063.782401535797, -45598.54216558244, -54202.62267620834, -84985.82511971297, -61000.63753135652, 0.062, 0.9400000000000001, 0.34400000000000003, 192.0, 1.0, 240.0, 29.0, 96.0, 10.0, 192.0, 0.0, 0.0, 0.0, 1.7393885442294333E9, 0.0, 2025-02-12 16:29:04.229
208.0, -6201.335036913757, -5994.089662324151, -6119.997038840895, -6033.2499186098485, -45591.680180034666, -54165.85405657936, -84908.71160134216, -60948.379152820016, 0.062, 0.9400000000000001, 0.34400000000000003, 192.0, 0.0, 0.0, 0.0, 0.0, 0.0, 0.0, 0.0, 0.0, 0.0, 1.739388544229446E9, 0.0, 2025-02-12 16:29:04.229
209.0, -6185.085318694749, -6007.746578186343, -6115.526689949834, -6041.631822780589, -45589.154432911215, -54190.10569931337, -84896.14992095828, -60960.672612270435, 0.062, 0.9400000000000001, 0.34400000000000003, 192.0, 0.0, 0.0, 0.0, 0.0, 0.0, 0.0, 0.0, 0.0, 0.0, 1.739388544229458E9, 0.0, 2025-02-12 16:29:04.229
210.0, -5976.4317842044575, -5846.8810733414975, -6143.6004809856995, -6072.052546984261, -45594.63061030276, -54228.5506997765, -84973.37519805136, -61013.69095011842, 0.062, 0.9400000000000001, 0.34400000000000003, 192.0, 0.0, 0.0, 0.0, 0.0, 0.0, 0.0, 0.0, 0.0, 0.0, 1.7393885442294705E9, 0.0, 2025-02-12 16:29:04.229
211.0, -5966.574664899667, -5812.794663047155, -6153.144675868115, -6069.012709738339, -45599.81621501639, -54210.356379789875, -85000.17493965328, -61010.20407798339, 0.062, 0.9400000000000001, 0.34400000000000003, 192.0, 0.0, 0.0, 0.0, 0.0, 0.0, 0.0, 0.0, 0.0, 0.0, 1.739388544229483E9, 0.0, 2025-02-12 16:29:04.229
212.0, -6173.238894133437, -5968.765135856287, -6126.769617410853, -6038.837854723675, -45595.83760450335, -54170.27970198151, -84929.67753764124, -60957.811588980156, 0.062, 0.9400000000000001, 0.34400000000000003, 192.0, 0.0, 0.0, 0.0, 0.0, 0.0, 0.0, 0.0, 0.0, 0.0, 1.7393885442294948E9, 0.0, 2025-02-12 16:29:04.229
213.0, -6208.107615483716, -6021.135273115072, -6113.224460270937, -6037.4743983119015, -45589.914392222694, -54182.8413823654, -84895.97110700264, -60954.727048245324, 0.062, 0.9400000000000001, 0.34400000000000003, 192.0, 0.0, 0.0, 0.0, 0.0, 0.0, 0.0, 0.0, 0.0, 0.0, 1.739388544229507E9, 0.0, 2025-02-12 16:29:04.229
214.0, -6004.080892095672, -5869.92572187492, -6137.319640793758, -6066.956349248451, -45592.9095259797, -54224.05799914098, -84964.2556863136, -61006.76190933728, 0.062, 0.9400000000000001, 0.34400000000000003, 192.0, 0.0, 0.0, 0.0, 0.0, 0.0, 0.0, 0.0, 0.0, 0.0, 1.7393885442295191E9, 0.0, 2025-02-12 16:29:04.229
215.0, -5938.5679290971675, -5793.281590137672, -6149.993079899917, -6068.386860893591, -45595.859956247805, -54212.77036819105, -85005.85228274492, -61012.93099080694, 0.062, 0.9400000000000001, 0.34400000000000003, 192.0, 0.0, 0.0, 0.0, 0.0, 0.0, 0.0, 0.0, 0.0, 0.0, 1.7393885442295315E9, 0.0, 2025-02-12 16:29:04.229
216.0, -6132.849291902697, -5933.136455194528, -6127.395466255602, -6039.128427401594, -45594.00476145801, -54169.98912930359, -84946.46369772717, -60962.125475660025, 0.062, 0.9400000000000001, 0.34400000000000003, 192.0, 0.0, 0.0, 0.0, 0.0, 0.0, 0.0, 0.0, 0.0, 0.0, 1.7393885442295437E9, 0.0, 2025-02-12 16:29:04.229
217.0, -6221.585717390266, -6025.940898172963, -6111.190451525504, -6033.7193052434095, -45590.67435153417, -54175.30884448396, -84900.28499368251, -60949.429684809416, 0.066, 0.9420000000000001, 0.34, 192.0, 2.0, 16.0, 29.0, 112.0, 10.0, 160.0, 0.0, 0.0, 0.0, 1.7393885442295659E9, 0.0, 2025-02-12 16:29:04.229
218.0, -6037.452046567446, -5896.680759987922, -6131.843463402208, -6062.642462568577, -45592.79776725743, -54218.894746171805, -84957.61721821038, -60999.2964266892, 0.066, 0.9420000000000001, 0.34, 192.0, 0.0, 0.0, 0.0, 0.0, 0.0, 0.0, 0.0, 0.0, 0.0, 1.739388544229578E9, 0.0, 2025-02-12 16:29:04.229
219.0, -5923.704019034389, -5785.950217956331, -6150.104838622194, -6071.426698139513, -45595.994066714535, -54218.55947000498, -85013.80950377102, -61018.273057731756, 0.066, 0.9420000000000001, 0.34, 192.0, 0.0, 0.0, 0.0, 0.0, 0.0, 0.0, 0.0, 0.0, 0.0, 1.7393885442295897E9, 0.0, 2025-02-12 16:29:04.229
220.0, -6092.437337927501, -5899.83235595612, -6131.731704679931, -6043.710535014932, -45594.65296204722, -54174.95121657267, -84967.0049508816, -60971.33439437561, 0.066, 0.9420000000000001, 0.34, 192.0, 0.0, 0.0, 0.0, 0.0, 0.0, 0.0, 0.0, 0.0, 0.0, 1.7393885442296011E9, 0.0, 2025-02-12 16:29:04.229
221.0, -6224.42438893609, -6021.872880682097, -6108.843518357697, -6029.472473796902, -45589.26619163349, -54167.57514090242, -84905.82822630742, -60944.646411495974, 0.066, 0.9420000000000001, 0.34, 192.0, 0.0, 0.0, 0.0, 0.0, 0.0, 0.0, 0.0, 0.0, 0.0, 1.7393885442296126E9, 0.0, 2025-02-12 16:29:04.229
222.0, -6070.979663250407, -5921.6029550555895, -6123.953297609484, -6054.975814220406, -45589.9590957116, -54209.88699315632, -84947.82715413894, -60988.29936841719, 0.066, 0.9420000000000001, 0.34, 192.0, 0.0, 0.0, 0.0, 0.0, 0.0, 0.0, 0.0, 0.0, 0.0, 1.7393885442296245E9, 0.0, 2025-02-12 16:29:04.229
223.0, -5918.183138153928, -5785.503183067225, -6147.869664176663, -6071.940788261984, -45594.7647207695, -54222.09104562891, -85016.29054740556, -61020.21765949937, 0.066, 0.9420000000000001, 0.34, 192.0, 0.0, 0.0, 0.0, 0.0, 0.0, 0.0, 0.0, 0.0, 0.0, 1.739388544229636E9, 0.0, 2025-02-12 16:29:04.229
224.0, -6050.930148473996, -5867.154105562461, -6135.531501237333, -6048.4491048394575, -45594.675313791675, -54181.276760253524, -84985.44514005723, -60980.96799623585, 0.066, 0.9420000000000001, 0.34, 192.0, 0.0, 0.0, 0.0, 0.0, 0.0, 0.0, 0.0, 0.0, 0.0, 1.7393885442296476E9, 0.0, 2025-02-12 16:29:04.229
225.0, -6219.4399499225565, -6012.395741033047, -6109.514070691356, -6028.198424362949, -45589.64617128923, -54163.663585622744, -84914.63481362282, -60944.042914395686, 0.066, 0.9420000000000001, 0.34, 192.0, 0.0, 0.0, 0.0, 0.0, 0.0, 0.0, 0.0, 0.0, 0.0, 1.7393885442296588E9, 0.0, 2025-02-12 16:29:04.229
226.0, -6106.675399145532, -5947.776847812754, -6117.583050439722, -6048.359697861636, -45588.729749766564, -54201.50508898558, -84937.27713075605, -60978.17402817894, 0.066, 0.9420000000000001, 0.34, 192.0, 0.0, 0.0, 0.0, 0.0, 0.0, 0.0, 0.0, 0.0, 0.0, 1.73938854422967E9, 0.0, 2025-02-12 16:29:04.229
227.0, -5924.843958001609, -5795.248543649739, -6146.036821131328, -6072.834858040197, -45595.27881089196, -54225.801435208494, -85013.36246888191, -61021.424653699956, 0.068, 0.9400000000000001, 0.34, 192.0, 2.0, 32.0, 29.0, 96.0, 10.0, 160.0, 0.0, 0.0, 0.0, 1.7393885442296815E9, 0.0, 2025-02-12 16:29:04.229
228.0, -6011.926354399486, -5837.58274764809, -6139.197187328004, -6053.433543852991, -45595.18940391415, -54188.764594646054, -84998.52091056359, -60990.78041205173, 0.068, 0.9400000000000001, 0.34, 192.0, 0.0, 0.0, 0.0, 0.0, 0.0, 0.0, 0.0, 0.0, 0.0, 1.7393885442296937E9, 0.0, 2025-02-12 16:29:04.229
229.0, -6205.0007230044275, -5995.698987924932, -6110.654009658577, -6027.349058073647, -45589.26619163349, -54160.9813762881, -84921.18387474823, -60944.86992894053, 0.068, 0.9400000000000001, 0.34, 192.0, 0.0, 0.0, 0.0, 0.0, 0.0, 0.0, 0.0, 0.0, 0.0, 1.739388544229705E9, 0.0, 2025-02-12 16:29:04.229
230.0, -6143.220501329959, -5974.107202781106, -6114.587916682711, -6044.246976881859, -45589.48970907804, -54195.470117982644, -84926.21301725066, -60970.8426559976, 0.068, 0.9400000000000001, 0.34, 192.0, 0.0, 0.0, 0.0, 0.0, 0.0, 0.0, 0.0, 0.0, 0.0, 1.7393885442297163E9, 0.0, 2025-02-12 16:29:04.229
231.0, -5939.819626786665, -5810.939468257364, -6141.45471351799, -6070.376166150113, -45593.28950563545, -54226.18141486424, -85001.02430594258, -61018.42951994295, 0.068, 0.9400000000000001, 0.34, 192.0, 0.0, 0.0, 0.0, 0.0, 0.0, 0.0, 0.0, 0.0, 0.0, 1.739388544229728E9, 0.0, 2025-02-12 16:29:04.229
232.0, -5977.392909216036, -5813.621677592001, -6142.862873418674, -6058.753259033354, -45595.703494036614, -54197.88410638382, -85005.89698623384, -61000.90575228998, 0.068, 0.9400000000000001, 0.34, 192.0, 0.0, 0.0, 0.0, 0.0, 0.0, 0.0, 0.0, 0.0, 0.0, 1.739388544229746E9, 0.0, 2025-02-12 16:29:04.229
233.0, -6184.638283805643, -5976.409432460003, -6115.325524249736, -6030.321840086203, -45591.50136607902, -54163.462419922645, -84928.55995041848, -60950.882548199006, 0.068, 0.9400000000000001, 0.34, 192.0, 0.0, 0.0, 0.0, 0.0, 0.0, 0.0, 0.0, 0.0, 0.0, 1.7393885442297575E9, 0.0, 2025-02-12 16:29:04.229
234.0, -6171.294292365825, -5992.368578001092, -6108.150614279582, -6035.95447968894, -45586.40516834321, -54185.68005391122, -84908.73395308662, -60960.11381865905, 0.068, 0.9400000000000001, 0.34, 192.0, 0.0, 0.0, 0.0, 0.0, 0.0, 0.0, 0.0, 0.0, 0.0, 1.73938854422978E9, 0.0, 2025-02-12 16:29:04.229
235.0, -5962.663109619989, -5832.10657025654, -6135.464446003967, -6065.727003303409, -45590.5625928119, -54224.19210960771, -84981.08654988844, -61012.57336289566, 0.068, 0.9400000000000001, 0.34, 192.0, 0.0, 0.0, 0.0, 0.0, 0.0, 0.0, 0.0, 0.0, 0.0, 1.7393885442297919E9, 0.0, 2025-02-12 16:29:04.229
236.0, -5948.514455379779, -5794.846212249543, -6144.78512344183, -6062.396593379569, -45595.12234868078, -54206.243658810105, -85005.44995134472, -61009.198249482906, 0.068, 0.9400000000000001, 0.34, 192.0, 0.0, 0.0, 0.0, 0.0, 0.0, 0.0, 0.0, 0.0, 0.0, 1.7393885442298033E9, 0.0, 2025-02-12 16:29:04.229
237.0, -6153.368193312668, -5948.805028057698, -6116.711332405965, -6030.2547848528375, -45589.422653844675, -54164.24473097858, -84930.68336614173, -60954.861158712054, 0.06, 0.936, 0.34600000000000003, 192.0, 1.0, 224.0, 29.0, 64.0, 10.0, 208.0, 0.0, 0.0, 0.0, 1.7393885442298148E9, 0.0, 2025-02-12 16:29:04.229
238.0, -6195.70239731102, -6008.014799119806, -6105.736625878409, -6031.327668586692, -45586.24870613202, -54179.55567593047, -84895.14409245779, -60953.87768195602, 0.06, 0.936, 0.34600000000000003, 192.0, 0.0, 0.0, 0.0, 0.0, 0.0, 0.0, 0.0, 0.0, 0.0, 1.7393885442298272E9, 0.0, 2025-02-12 16:29:04.229
239.0, -5996.6824646809655, -5862.370832249026, -6132.871643647152, -6064.0059189803505, -45591.88134573476, -54224.66149624127, -84962.08756710144, -61009.108842505084, 0.06, 0.936, 0.34600000000000003, 192.0, 0.0, 0.0, 0.0, 0.0, 0.0, 0.0, 0.0, 0.0, 0.0, 1.7393885442298388E9, 0.0, 2025-02-12 16:29:04.229
240.0, -5929.895452248508, -5785.883162722965, -6147.64614673211, -6067.5821980932, -45596.10582543681, -54216.45840602618, -85002.38776235435, -61018.138947265026, 0.06, 0.936, 0.34600000000000003, 192.0, 0.0, 0.0, 0.0, 0.0, 0.0, 0.0, 0.0, 0.0, 0.0, 1.739388544708703E9, 0.0, 2025-02-12 16:29:04.708
241.0, -6123.863890631663, -5925.335696379626, -6125.428512743534, -6038.368468090113, -45594.183575413655, -54174.28066423901, -84939.33349124592, -60967.71341177385, 0.06, 0.936, 0.34600000000000003, 192.0, 0.0, 0.0, 0.0, 0.0, 0.0, 0.0, 0.0, 0.0, 0.0, 1.739388544708802E9, 0.0, 2025-02-12 16:29:04.708
242.0, -6212.80148181933, -6017.5142905133125, -6105.289590989303, -6028.533700529779, -45587.2098311436, -54175.398251461775, -84884.07997895242, -60950.30140284317, 0.06, 0.936, 0.34600000000000003, 192.0, 0.0, 0.0, 0.0, 0.0, 0.0, 0.0, 0.0, 0.0, 0.0, 1.7393885447088313E9, 0.0, 2025-02-12 16:29:04.708
243.0, -6031.350020331147, -5891.07047212964, -6125.942602866006, -6057.38980262158, -45589.53441256695, -54219.6994089722, -84936.78539237802, -61000.25755170078, 0.06, 0.936, 0.34600000000000003, 192.0, 0.0, 0.0, 0.0, 0.0, 0.0, 0.0, 0.0, 0.0, 0.0, 1.739388544708858E9, 0.0, 2025-02-12 16:29:04.708
244.0, -5918.093731176106, -5781.882200465465, -6147.199111843003, -6069.325634160714, -45595.07764519187, -54223.40979855178, -84992.44123607174, -61023.0563310452, 0.06, 0.936, 0.34600000000000003, 192.0, 0.0, 0.0, 0.0, 0.0, 0.0, 0.0, 0.0, 0.0, 0.0, 1.7393885447088733E9, 0.0, 2025-02-12 16:29:04.708
245.0, -6084.30130294577, -5893.864440186553, -6128.088370333716, -6040.715401257921, -45592.440139346145, -54179.332158485915, -84941.63572092482, -60975.64828105549, 0.06, 0.936, 0.34600000000000003, 192.0, 0.0, 0.0, 0.0, 0.0, 0.0, 0.0, 0.0, 0.0, 0.0, 1.7393885447088869E9, 0.0, 2025-02-12 16:29:04.708
246.0, -6220.579888889777, -6019.369485303103, -6106.295419489792, -6026.969078417907, -45588.21565964409, -54172.62663514932, -84877.06153119344, -60949.25087085377, 0.06, 0.936, 0.34600000000000003, 192.0, 0.0, 0.0, 0.0, 0.0, 0.0, 0.0, 0.0, 0.0, 0.0, 1.7393885447088995E9, 0.0, 2025-02-12 16:29:04.708
247.0, -6069.884427772096, -5921.804120755687, -6120.8240533857415, -6051.868921741119, -45588.729749766564, -54214.692618214205, -84914.27718571153, -60992.21092369687, 0.062, 0.934, 0.352, 192.0, 1.0, 240.0, 29.0, 48.0, 11.0, 0.0, 0.0, 0.0, 0.0, 1.7393885447089124E9, 0.0, 2025-02-12 16:29:04.708
248.0, -5914.964486952364, -5784.676168522378, -6145.030992630839, -6069.370337649624, -45593.64713354673, -54228.08131314294, -84980.93008767726, -61025.17974676845, 0.062, 0.934, 0.352, 192.0, 0.0, 0.0, 0.0, 0.0, 0.0, 0.0, 0.0, 0.0, 0.0, 1.739388544709014E9, 0.0, 2025-02-12 16:29:04.709
249.0, -6045.610433293633, -5864.628358439012, -6133.184568069526, -6046.191578649471, -45593.80359575792, -54187.93758010121, -84949.07885182844, -60986.75709804978, 0.062, 0.934, 0.352, 192.0, 0.0, 0.0, 0.0, 0.0, 0.0, 0.0, 0.0, 0.0, 0.0, 1.7393885447090268E9, 0.0, 2025-02-12 16:29:04.709
250.0, -6215.953077787528, -6011.099339854639, -6106.630695656621, -6024.95742141693, -45588.30506662191, -54169.29622522548, -84875.13928117028, -60948.7367807313, 0.062, 0.934, 0.352, 192.0, 0.0, 0.0, 0.0, 0.0, 0.0, 0.0, 0.0, 0.0, 0.0, 1.7393885447090397E9, 0.0, 2025-02-12 16:29:04.709
251.0, -6106.116605534149, -5949.140304224527, -6114.319695749247, -6044.761067004331, -45587.43334858815, -54206.936562888215, -84895.27820292451, -60982.30910090317, 0.062, 0.934, 0.352, 192.0, 0.0, 0.0, 0.0, 0.0, 0.0, 0.0, 0.0, 0.0, 0.0, 1.7393885447090528E9, 0.0, 2025-02-12 16:29:04.709
252.0, -5921.111216677573, -5794.376825615982, -6141.521768751356, -6068.096288215672, -45592.864822490796, -54230.562356777475, -84970.06713987197, -61024.86682234608, 0.062, 0.934, 0.352, 192.0, 0.0, 0.0, 0.0, 0.0, 0.0, 0.0, 0.0, 0.0, 0.0, 1.739388544709066E9, 0.0, 2025-02-12 16:29:04.709
253.0, -6005.667865951999, -5835.057000524641, -6135.799722170797, -6049.924319973507, -45593.84829924683, -54194.93367611572, -84957.32664553245, -60996.033071998725, 0.062, 0.934, 0.352, 192.0, 0.0, 0.0, 0.0, 0.0, 0.0, 0.0, 0.0, 0.0, 0.0, 1.7393885447090783E9, 0.0, 2025-02-12 16:29:04.709
254.0, -6201.5362026138555, -5995.453118735924, -6108.30707649077, -6024.756255716831, -45589.35559861131, -54167.91041706925, -84880.68251379521, -60950.90489994346, 0.062, 0.934, 0.352, 192.0, 0.0, 0.0, 0.0, 0.0, 0.0, 0.0, 0.0, 0.0, 0.0, 1.7393885447090914E9, 0.0, 2025-02-12 16:29:04.709
255.0, -6142.773466440853, -5976.208266759904, -6111.793948625797, -6041.095380913661, -45589.7579300115, -54201.81801340795, -84885.21991791963, -60976.09531594459, 0.062, 0.934, 0.352, 192.0, 0.0, 0.0, 0.0, 0.0, 0.0, 0.0, 0.0, 0.0, 0.0, 1.739388544709104E9, 0.0, 2025-02-12 16:29:04.709
0.0, -5938.903205263997, -5812.951125258342, -6139.68892570602, -6068.543323104778, -45595.14470042523, -54233.87041495686, -84963.13809909084, -61025.29150549073, 0.062, 0.934, 0.352, 192.0, 0.0, 0.0, 0.0, 0.0, 0.0, 0.0, 0.0, 0.0, 0.0, 1.7393885447091165E9, 0.0, 2025-02-12 16:29:04.709
1.0, -5973.302539980715, -5813.040532236163, -6141.6111757291765, -6057.680375299499, -45598.20688941561, -54206.310714043466, -84971.43059628375, -61008.907676804985, 0.06, 0.934, 0.34600000000000003, 192.0, 1.0, 224.0, 29.0, 48.0, 10.0, 208.0, 0.0, 0.0, 0.0, 1.7393885447091289E9, 0.0, 2025-02-12 16:29:04.709
2.0, -6182.201943660015, -5977.057633049207, -6115.012599827362, -6030.299488341748, -45595.34586612533, -54172.62663514932, -84897.20045294768, -60959.64443202549, 0.06, 0.934, 0.34600000000000003, 192.0, 0.0, 0.0, 0.0, 0.0, 0.0, 0.0, 0.0, 0.0, 0.0, 1.739388544709142E9, 0.0, 2025-02-12 16:29:04.709
3.0, -6172.74715575542, -5996.324836769681, -6108.642352657599, -6036.893252956063, -45591.90369747922, -54195.15719356027, -84880.16842367273, -60969.389792608, 0.06, 0.934, 0.34600000000000003, 192.0, 0.0, 0.0, 0.0, 0.0, 0.0, 0.0, 0.0, 0.0, 0.0, 1.7393885447091548E9, 0.0, 2025-02-12 16:29:04.709
4.0, -5962.528999153256, -5834.6770208689, -6134.950355881496, -6065.749355047865, -45595.59173531434, -54232.663420756275, -84954.26445654208, -61021.02232229976, 0.06, 0.934, 0.34600000000000003, 192.0, 0.0, 0.0, 0.0, 0.0, 0.0, 0.0, 0.0, 0.0, 0.0, 1.7393885447091672E9, 0.0, 2025-02-12 16:29:04.709
5.0, -5945.429914644947, -5795.159136671918, -6145.232158330937, -6063.603587580155, -45600.79969177243, -54215.810205436974, -84982.82998595596, -61019.12242402106, 0.06, 0.934, 0.34600000000000003, 192.0, 0.0, 0.0, 0.0, 0.0, 0.0, 0.0, 0.0, 0.0, 0.0, 1.7393885447091796E9, 0.0, 2025-02-12 16:29:04.709
6.0, -6151.378888056146, -5949.833208302643, -6118.812396384764, -6033.227566865393, -45597.02224695948, -54175.17473401722, -84912.55610138847, -60966.50641757327, 0.06, 0.934, 0.34600000000000003, 192.0, 0.0, 0.0, 0.0, 0.0, 0.0, 0.0, 0.0, 0.0, 0.0, 1.7393885447091918E9, 0.0, 2025-02-12 16:29:04.709
7.0, -6196.238839177948, -6010.518194498801, -6107.122434034638, -6033.562843032222, -45594.00476145801, -54189.25633302407, -84878.53674632749, -60964.31594661665, 0.06, 0.934, 0.34600000000000003, 192.0, 0.0, 0.0, 0.0, 0.0, 0.0, 0.0, 0.0, 0.0, 0.0, 1.7393885447092304E9, 0.0, 2025-02-12 16:29:04.709
8.0, -5995.609580947111, -5863.421364238426, -6132.245794802403, -6064.408250380547, -45598.27394464898, -54232.30579284499, -84946.17312504926, -61017.62485714255, 0.06, 0.934, 0.34600000000000003, 192.0, 0.0, 0.0, 0.0, 0.0, 0.0, 0.0, 0.0, 0.0, 0.0, 1.7393885447092428E9, 0.0, 2025-02-12 16:29:04.709
9.0, -5924.039295201218, -5782.776270243678, -6146.103876364694, -6067.090459715183, -45601.537299339456, -54223.14157761831, -84989.17788138127, -61026.14087178003, 0.06, 0.934, 0.34600000000000003, 192.0, 0.0, 0.0, 0.0, 0.0, 0.0, 0.0, 0.0, 0.0, 0.0, 1.7393885447092953E9, 0.0, 2025-02-12 16:29:04.709
10.0, -6115.236117271915, -5919.680705032433, -6122.92511736454, -6036.960308189429, -45598.60922081581, -54179.62273116383, -84928.38113646283, -60974.91067348846, 0.06, 0.934, 0.34600000000000003, 192.0, 0.0, 0.0, 0.0, 0.0, 0.0, 0.0, 0.0, 0.0, 0.0, 1.7393885447093084E9, 0.0, 2025-02-12 16:29:04.709
11.0, -6211.862708552207, -6018.47541552489, -6106.965971823451, -6031.484130797879, -45596.418749859185, -54184.60717017736, -84879.11789168333, -60961.27610937072, 0.062, 0.934, 0.342, 192.0, 1.0, 240.0, 29.0, 48.0, 10.0, 176.0, 0.0, 0.0, 0.0, 1.7393885447093208E9, 0.0, 2025-02-12 16:29:04.709
12.0, -6032.132331387083, -5893.439757041902, -6127.708390677976, -6060.653157312055, -45599.34682838283, -54228.818920709964, -84933.7008516432, -61010.96403729487, 0.062, 0.934, 0.342, 192.0, 0.0, 0.0, 0.0, 0.0, 0.0, 0.0, 0.0, 0.0, 0.0, 1.739388544709334E9, 0.0, 2025-02-12 16:29:04.709
13.0, -5915.07624567464, -5781.301055109627, -6148.875492677152, -6072.499581873368, -45604.9124127522, -54232.50695854509, -84992.2624221161, -61034.03103757275, 0.062, 0.934, 0.342, 192.0, 0.0, 0.0, 0.0, 0.0, 0.0, 0.0, 0.0, 0.0, 0.0, 1.7393885447093463E9, 0.0, 2025-02-12 16:29:04.709
14.0, -6078.825125554219, -5891.003416896274, -6129.8094546567745, -6043.889348970574, -45602.18549992866, -54188.31755975694, -84943.58032269243, -60986.75709804978, 0.062, 0.934, 0.342, 192.0, 0.0, 0.0, 0.0, 0.0, 0.0, 0.0, 0.0, 0.0, 0.0, 1.7393885447093587E9, 0.0, 2025-02-12 16:29:04.709
15.0, -6215.6848568540645, -6016.307296312725, -6105.289590989303, -6027.505520284834, -45595.658790547706, -54178.66160615225, -84876.74860677107, -60957.27514711323, 0.062, 0.934, 0.342, 192.0, 0.0, 0.0, 0.0, 0.0, 0.0, 0.0, 0.0, 0.0, 0.0, 1.739388544709371E9, 0.0, 2025-02-12 16:29:04.709
16.0, -6069.862076027641, -5923.234632400827, -6121.785178397319, -6054.551131075756, -45598.40805511571, -54222.76159796258, -84915.81945607894, -61001.97863602384, 0.062, 0.934, 0.342, 192.0, 0.0, 0.0, 0.0, 0.0, 0.0, 0.0, 0.0, 0.0, 0.0, 1.7393885447093832E9, 0.0, 2025-02-12 16:29:04.709
17.0, -5913.355161351581, -5785.279665622672, -6147.0650013762715, -6073.125430718116, -45604.174805185176, -54237.491397558624, -84984.17109062328, -61036.26621201828, 0.062, 0.934, 0.342, 192.0, 0.0, 0.0, 0.0, 0.0, 0.0, 0.0, 0.0, 0.0, 0.0, 1.7393885447093954E9, 0.0, 2025-02-12 16:29:04.709
18.0, -6041.073029169206, -5862.661404926945, -6135.509149492878, -6050.103133929149, -45604.28656390745, -54197.5935337059, -84952.61042745238, -60998.26824644426, 0.062, 0.934, 0.342, 192.0, 0.0, 0.0, 0.0, 0.0, 0.0, 0.0, 0.0, 0.0, 0.0, 1.7393885447094076E9, 0.0, 2025-02-12 16:29:04.709
19.0, -6212.980295774973, -6009.758235187321, -6107.63652415711, -6027.393761562558, -45597.44693010413, -54177.499315440575, -84875.49690908157, -60958.54919654718, 0.062, 0.934, 0.342, 192.0, 0.0, 0.0, 0.0, 0.0, 0.0, 0.0, 0.0, 0.0, 0.0, 1.73938854470942E9, 0.0, 2025-02-12 16:29:04.709
20.0, -6107.815338112752, -5951.911920536986, -6115.97372483894, -6047.756200761342, -45597.044598703935, -54215.92196415925, -84893.24419417909, -60992.38973765251, 0.062, 0.934, 0.342, 192.0, 0.0, 0.0, 0.0, 0.0, 0.0, 0.0, 0.0, 0.0, 0.0, 1.7393885447094324E9, 0.0, 2025-02-12 16:29:04.709
21.0, -5921.178271910939, -5796.299075639138, -6143.064039118772, -6070.934959761496, -45601.78316852846, -54239.83833072643, -84965.39562528081, -61034.99216258433, 0.064, 0.9380000000000001, 0.342, 192.0, 2.0, 0.0, 29.0, 80.0, 10.0, 176.0, 0.0, 0.0, 0.0, 1.7393885447094445E9, 0.0, 2025-02-12 16:29:04.709
22.0, -6000.415206005002, -5832.4418464233695, -6135.64325995961, -6050.773686262809, -45600.39736037223, -54202.68973144171, -84948.16243030578, -61004.50438314729, 0.064, 0.9380000000000001, 0.342, 192.0, 0.0, 0.0, 0.0, 0.0, 0.0, 0.0, 0.0, 0.0, 0.0, 1.7393885447094579E9, 0.0, 2025-02-12 16:29:04.709
23.0, -6199.099862468227, -5995.14019431355, -6108.977628824428, -6026.186767361971, -45596.6646190482, -54176.448783451175, -84867.8302607334, -60959.93500470341, 0.064, 0.9380000000000001, 0.342, 192.0, 0.0, 0.0, 0.0, 0.0, 0.0, 0.0, 0.0, 0.0, 0.0, 1.739388544709478E9, 0.0, 2025-02-12 16:29:04.709
24.0, -6145.187454842026, -5980.030415061762, -6112.173928281538, -6042.145912903061, -45596.68697079265, -54210.40108327879, -84865.90801071025, -60984.32075790415, 0.064, 0.9380000000000001, 0.342, 192.0, 0.0, 0.0, 0.0, 0.0, 0.0, 0.0, 0.0, 0.0, 0.0, 1.7393885447094903E9, 0.0, 2025-02-12 16:29:04.709
25.0, -5941.339545409625, -5817.712046827322, -6140.292422806314, -6069.6385585830885, -45601.29143015044, -54243.05698192799, -84937.99238657861, -61033.49459570582, 0.064, 0.9380000000000001, 0.342, 192.0, 0.0, 0.0, 0.0, 0.0, 0.0, 0.0, 0.0, 0.0, 0.0, 1.7393885447095027E9, 0.0, 2025-02-12 16:29:04.709
26.0, -5972.631987647055, -5815.499224126247, -6143.153446096593, -6059.021479966817, -45604.28656390745, -54216.525461259545, -84941.85923836938, -61018.29540947622, 0.064, 0.9380000000000001, 0.342, 192.0, 0.0, 0.0, 0.0, 0.0, 0.0, 0.0, 0.0, 0.0, 0.0, 1.7393885447095149E9, 0.0, 2025-02-12 16:29:04.709
27.0, -6182.738385526942, -5980.3656912285915, -6116.644277172599, -6031.081799397683, -45601.15731968371, -54183.0872515544, -84860.76710948553, -60968.87570248553, 0.064, 0.9380000000000001, 0.342, 192.0, 0.0, 0.0, 0.0, 0.0, 0.0, 0.0, 0.0, 0.0, 0.0, 1.7393885447095268E9, 0.0, 2025-02-12 16:29:04.709
28.0, -6182.6936820380315, -6008.394778775547, -6113.917364349051, -6040.827159980197, -45601.112616194805, -54209.86464141186, -84838.68358596368, -60981.7950107807, 0.064, 0.9380000000000001, 0.342, 192.0, 0.0, 0.0, 0.0, 0.0, 0.0, 0.0, 0.0, 0.0, 0.0, 1.7393885447095392E9, 0.0, 2025-02-12 16:29:04.709
29.0, -5974.353071970114, -5849.317413487126, -6141.030030373339, -6070.219703938926, -45605.02417147448, -54248.7566767641, -84905.7388193296, -61034.142796295026, 0.064, 0.9380000000000001, 0.342, 192.0, 0.0, 0.0, 0.0, 0.0, 0.0, 0.0, 0.0, 0.0, 0.0, 1.739388544709551E9, 0.0, 2025-02-12 16:29:04.709
30.0, -5951.330775181148, -5805.060959465619, -6149.5013415219, -6065.727003303409, -45607.59462208684, -54230.40589456629, -84925.83303759493, -61030.47711020436, 0.064, 0.9380000000000001, 0.342, 192.0, 0.0, 0.0, 0.0, 0.0, 0.0, 0.0, 0.0, 0.0, 0.0, 1.7393885447095635E9, 0.0, 2025-02-12 16:29:04.709
31.0, -6157.033879403339, -5959.399754929514, -6122.343972008703, -6033.942822687963, -45602.63253481776, -54189.43514697971, -84846.30553082294, -60977.03408921172, 0.06, 0.9380000000000001, 0.34600000000000003, 192.0, 1.0, 224.0, 29.0, 80.0, 10.0, 208.0, 0.0, 0.0, 0.0, 1.739388544709576E9, 0.0, 2025-02-12 16:29:04.709
32.0, -6209.113443984204, -6026.633802251077, -6112.017466070351, -6035.283927355281, -45600.822043516884, -54205.52840298753, -84803.32312623538, -60975.98355722232, 0.06, 0.9380000000000001, 0.34600000000000003, 192.0, 0.0, 0.0, 0.0, 0.0, 0.0, 0.0, 0.0, 0.0, 0.0, 1.7393885447095883E9, 0.0, 2025-02-12 16:29:04.709
33.0, -6012.373389288591, -5883.7390999483, -6138.97366988345, -6067.5821980932, -45606.275869163976, -54250.94714772072, -84863.2258013756, -61030.857089860096, 0.06, 0.9380000000000001, 0.34600000000000003, 192.0, 0.0, 0.0, 0.0, 0.0, 0.0, 0.0, 0.0, 0.0, 0.0, 1.7393885447096007E9, 0.0, 2025-02-12 16:29:04.709
34.0, -5940.22195818686, -5803.764558287211, -6156.162161369582, -6073.013671995839, -45611.796750044436, -54245.42626684025, -84901.4919878831, -61042.815273143686, 0.06, 0.9380000000000001, 0.34600000000000003, 192.0, 0.0, 0.0, 0.0, 0.0, 0.0, 0.0, 0.0, 0.0, 0.0, 1.7393885447096212E9, 0.0, 2025-02-12 16:29:04.709
35.0, -6133.11751283616, -5942.5018361213015, -6135.352687281691, -6044.492846070868, -45610.612107588306, -54204.701388442685, -84833.96736788361, -60993.797897553195, 0.06, 0.9380000000000001, 0.34600000000000003, 192.0, 0.0, 0.0, 0.0, 0.0, 0.0, 0.0, 0.0, 0.0, 0.0, 1.7393885447096336E9, 0.0, 2025-02-12 16:29:04.709
36.0, -6233.409790207123, -6044.448142581957, -6117.761864395365, -6036.759142489332, -45606.8123110309, -54208.65764721127, -84772.4106636537, -60978.285786901215, 0.06, 0.9380000000000001, 0.34600000000000003, 192.0, 0.0, 0.0, 0.0, 0.0, 0.0, 0.0, 0.0, 0.0, 0.0, 1.739388544709646E9, 0.0, 2025-02-12 16:29:04.709
37.0, -6057.590968321678, -5923.569908567657, -6139.331297794735, -6066.174038192516, -45610.053313976925, -54254.344612877925, -84817.98587059807, -61028.80072937021, 0.06, 0.9380000000000001, 0.34600000000000003, 192.0, 0.0, 0.0, 0.0, 0.0, 0.0, 0.0, 0.0, 0.0, 0.0, 1.7393885447096584E9, 0.0, 2025-02-12 16:29:04.709
38.0, -5939.663164575478, -5811.632372335479, -6162.7335742394425, -6079.875657543619, -45616.98235475807, -54260.84897051442, -84870.9371532127, -61054.43818026045, 0.06, 0.9380000000000001, 0.34600000000000003, 192.0, 0.0, 0.0, 0.0, 0.0, 0.0, 0.0, 0.0, 0.0, 0.0, 1.7393885447096772E9, 0.0, 2025-02-12 16:29:04.709
39.0, -6102.361512465658, -5920.842995744109, -6144.5392542528225, -6051.533645574289, -45614.523662867985, -54217.93362116023, -84814.61075718532, -61008.058310515684, 0.06, 0.9380000000000001, 0.34600000000000003, 192.0, 0.0, 0.0, 0.0, 0.0, 0.0, 0.0, 0.0, 0.0, 0.0, 1.7393885447096894E9, 0.0, 2025-02-12 16:29:04.709
40.0, -6245.077400812794, -6051.19836940746, -6121.293440019303, -6035.842720966664, -45609.3157064099, -54210.155214089784, -84739.21832313757, -60979.71629854635, 0.06, 0.9380000000000001, 0.34600000000000003, 192.0, 0.0, 0.0, 0.0, 0.0, 0.0, 0.0, 0.0, 0.0, 0.0, 1.7393885447097018E9, 0.0, 2025-02-12 16:29:04.709
41.0, -6102.49562293239, -5961.32200495267, -6137.252585560392, -6061.949558490463, -45611.394418644246, -54254.14344717783, -84769.0131984965, -61023.7045316344, 0.056, 0.936, 0.352, 192.0, 1.0, 192.0, 29.0, 64.0, 11.0, 0.0, 0.0, 0.0, 0.0, 1.739388544709714E9, 0.0, 2025-02-12 16:29:04.709
42.0, -5945.139341967028, -5823.791721319166, -6164.4546585625, -6082.066128500239, -45618.27875593648, -54271.17547645277, -84832.89448414976, -61060.428447774466, 0.056, 0.936, 0.352, 192.0, 0.0, 0.0, 0.0, 0.0, 0.0, 0.0, 0.0, 0.0, 0.0, 1.739388544709727E9, 0.0, 2025-02-12 16:29:04.709
43.0, -6073.661872585043, -5902.715730990855, -6156.586844514232, -6062.173075935016, -45621.47505539359, -54235.323278346455, -84798.7633703665, -61026.47614794686, 0.056, 0.936, 0.352, 192.0, 0.0, 0.0, 0.0, 0.0, 0.0, 0.0, 0.0, 0.0, 0.0, 1.7393885447097392E9, 0.0, 2025-02-12 16:29:04.709
44.0, -6250.888854371173, -6054.797000264764, -6130.614117457166, -6040.9389187024735, -45616.82589254688, -54217.75480720458, -84715.70428797058, -60988.567589350656, 0.056, 0.936, 0.352, 192.0, 0.0, 0.0, 0.0, 0.0, 0.0, 0.0, 0.0, 0.0, 0.0, 1.7393885447097516E9, 0.0, 2025-02-12 16:29:04.709
45.0, -6148.160236854582, -5999.074101337684, -6137.11847509366, -6059.267349155825, -45614.85893903481, -54254.79164776703, -84724.6002822638, -61020.374121710556, 0.056, 0.936, 0.352, 192.0, 0.0, 0.0, 0.0, 0.0, 0.0, 0.0, 0.0, 0.0, 0.0, 1.739388544709764E9, 0.0, 2025-02-12 16:29:04.709
46.0, -5960.338528196637, -5843.170683761917, -6165.393431829623, -6083.384881423102, -45620.268061193, -54280.138525979346, -84793.98009705306, -61064.5635204987, 0.056, 0.936, 0.352, 192.0, 0.0, 0.0, 0.0, 0.0, 0.0, 0.0, 0.0, 0.0, 0.0, 1.739388544709776E9, 0.0, 2025-02-12 16:29:04.709
47.0, -6041.520064058312, -5881.883905158509, -6163.69469925102, -6068.565674849234, -45623.97845077258, -54248.89078723083, -84779.33970443484, -61040.423636486965, 0.056, 0.936, 0.352, 192.0, 0.0, 0.0, 0.0, 0.0, 0.0, 0.0, 0.0, 0.0, 0.0, 1.739388544709788E9, 0.0, 2025-02-12 16:29:04.709
48.0, -6242.797522878352, -6046.728020516399, -6137.297289049303, -6043.889348970574, -45620.71509608211, -54223.47685378514, -84694.71599992705, -60996.27894118774, 0.056, 0.936, 0.352, 192.0, 0.0, 0.0, 0.0, 0.0, 0.0, 0.0, 0.0, 0.0, 0.0, 1.7393885447098026E9, 0.0, 2025-02-12 16:29:04.709
49.0, -6192.595504831732, -6034.993354677362, -6139.890091406119, -6059.066183455728, -45620.78215131547, -54257.18328442374, -84687.92106961264, -61020.12825252155, 0.056, 0.936, 0.352, 192.0, 0.0, 0.0, 0.0, 0.0, 0.0, 0.0, 0.0, 0.0, 0.0, 1.7393885447098153E9, 0.0, 2025-02-12 16:29:04.709
50.0, -5990.871011122586, -5875.40189926647, -6171.69662376602, -6090.000997781873, -45628.918186297204, -54293.66133137481, -84762.28532341545, -61073.39245955855, 0.056, 0.936, 0.352, 192.0, 0.0, 0.0, 0.0, 0.0, 0.0, 0.0, 0.0, 0.0, 0.0, 1.7393885447098274E9, 0.0, 2025-02-12 16:29:04.709
51.0, -6020.241203336859, -5872.2950067871825, -6176.815173246286, -6081.7308523334095, -45633.52264565499, -54269.74496480763, -84767.87325952927, -61061.07664836367, 0.058, 0.93, 0.34800000000000003, 192.0, 1.0, 208.0, 29.0, 16.0, 10.0, 224.0, 0.0, 0.0, 0.0, 1.7393885447098396E9, 0.0, 2025-02-12 16:29:04.709
52.0, -6230.705229128031, -6037.407343078536, -6149.680155477543, -6053.098267686161, -45629.7228490976, -54236.06088591348, -84683.76364514395, -61011.38872043952, 0.058, 0.93, 0.34800000000000003, 192.0, 0.0, 0.0, 0.0, 0.0, 0.0, 0.0, 0.0, 0.0, 0.0, 1.7393885447098527E9, 0.0, 2025-02-12 16:29:04.709
53.0, -6231.845168095251, -6065.838762025686, -6143.734591452431, -6059.6026253226555, -45627.241805463054, -54259.88784550284, -84655.84631631926, -61021.134081022035, 0.058, 0.93, 0.34800000000000003, 192.0, 0.0, 0.0, 0.0, 0.0, 0.0, 0.0, 0.0, 0.0, 0.0, 1.7393885447098649E9, 0.0, 2025-02-12 16:29:04.709
54.0, -6023.817482449709, -5907.387245582015, -6171.7189755104755, -6089.866887315141, -45632.159189243226, -54299.58454365547, -84723.86267469676, -61074.621805503586, 0.058, 0.93, 0.34800000000000003, 192.0, 0.0, 0.0, 0.0, 0.0, 0.0, 0.0, 0.0, 0.0, 0.0, 1.739388544709883E9, 0.0, 2025-02-12 16:29:04.709
55.0, -5998.80588040422, -5861.901445615465, -6182.850144249219, -6088.034044269806, -45636.94246255666, -54283.93832253675, -84748.2037244086, -61074.44299154795, 0.058, 0.93, 0.34800000000000003, 192.0, 0.0, 0.0, 0.0, 0.0, 0.0, 0.0, 0.0, 0.0, 0.0, 1.7393885447098951E9, 0.0, 2025-02-12 16:29:04.709
56.0, -6204.03959799285, -6015.837909679164, -6155.715126480476, -6056.406325865546, -45632.069782265404, -54243.39225809482, -84668.47505193652, -61021.51406067778, 0.058, 0.93, 0.34800000000000003, 192.0, 0.0, 0.0, 0.0, 0.0, 0.0, 0.0, 0.0, 0.0, 0.0, 1.7393885447099075E9, 0.0, 2025-02-12 16:29:04.709
57.0, -6259.695441686564, -6086.044739013283, -6144.583957741733, -6057.099229943661, -45630.14753224225, -54259.06083095799, -84623.23512115898, -61019.54710716571, 0.058, 0.93, 0.34800000000000003, 192.0, 0.0, 0.0, 0.0, 0.0, 0.0, 0.0, 0.0, 0.0, 0.0, 1.7393885447099197E9, 0.0, 2025-02-12 16:29:04.709
58.0, -6059.647328811566, -5939.931385508941, -6167.718013252976, -6085.731814590909, -45632.36035494332, -54300.50096517813, -84680.79086313139, -61070.82200894618, 0.058, 0.93, 0.34800000000000003, 192.0, 0.0, 0.0, 0.0, 0.0, 0.0, 0.0, 0.0, 0.0, 0.0, 1.739388544709932E9, 0.0, 2025-02-12 16:29:04.709
59.0, -5981.5950371736335, -5854.793590878677, -6183.878324494162, -6090.045701270784, -45636.85305557884, -54293.773090097086, -84721.60514850679, -61082.2661021073, 0.058, 0.93, 0.34800000000000003, 192.0, 0.0, 0.0, 0.0, 0.0, 0.0, 0.0, 0.0, 0.0, 0.0, 1.7393885447099445E9, 0.0, 2025-02-12 16:29:04.709
60.0, -6173.216542388981, -5992.189764045449, -6163.381774828646, -6062.038965468284, -45635.98133754508, -54253.65170879981, -84656.31570295284, -61034.32161025067, 0.058, 0.93, 0.34800000000000003, 192.0, 0.0, 0.0, 0.0, 0.0, 0.0, 0.0, 0.0, 0.0, 0.0, 1.7393885447099564E9, 0.0, 2025-02-12 16:29:04.709
61.0, -6276.034566883393, -6095.8795065736185, -6144.136922852626, -6053.142971175072, -45631.443933420655, -54256.53508383454, -84593.77552196688, -61017.37898795355, 0.06, 0.936, 0.34600000000000003, 192.0, 1.0, 224.0, 29.0, 64.0, 10.0, 208.0, 0.0, 0.0, 0.0, 1.7393885447099688E9, 0.0, 2025-02-12 16:29:04.709
62.0, -6099.388730453102, -5974.107202781106, -6163.448830062012, -6080.613265110644, -45633.43323867718, -54299.58454365547, -84639.77541205591, -61065.725811210374, 0.06, 0.936, 0.34600000000000003, 192.0, 0.0, 0.0, 0.0, 0.0, 0.0, 0.0, 0.0, 0.0, 0.0, 1.7393885447099817E9, 0.0, 2025-02-12 16:29:04.709
63.0, -5975.425955703969, -5857.073468813118, -6185.822926261774, -6093.331407705714, -45639.334099213374, -54304.3678169689, -84696.68295343911, -61090.58095104468, 0.06, 0.936, 0.34600000000000003, 192.0, 0.0, 0.0, 0.0, 0.0, 0.0, 0.0, 0.0, 0.0, 0.0, 1.7393885447099938E9, 0.0, 2025-02-12 16:29:04.709
64.0, -6137.990193127417, -5966.284092221748, -6170.623740032165, -6068.073936471216, -45639.84818933585, -54264.38054613835, -84647.35265342625, -61047.777360412765, 0.06, 0.936, 0.34600000000000003, 192.0, 0.0, 0.0, 0.0, 0.0, 0.0, 0.0, 0.0, 0.0, 0.0, 1.739388544710006E9, 0.0, 2025-02-12 16:29:04.710
65.0, -6283.76827046493, -6099.075806030728, -6146.997946142906, -6052.315956630226, -45635.154323000235, -54256.713897790185, -84573.43543451255, -61019.36829321007, 0.06, 0.936, 0.34600000000000003, 192.0, 0.0, 0.0, 0.0, 0.0, 0.0, 0.0, 0.0, 0.0, 0.0, 1.7393885447100184E9, 0.0, 2025-02-12 16:29:04.710
66.0, -6142.125265851649, -6009.646476465044, -6161.12424863866, -6076.947579019974, -45636.540131156464, -54298.77988085507, -84604.52671104988, -61061.546034997235, 0.06, 0.936, 0.34600000000000003, 192.0, 0.0, 0.0, 0.0, 0.0, 0.0, 0.0, 0.0, 0.0, 0.0, 1.7393885447100303E9, 0.0, 2025-02-12 16:29:04.710
67.0, -5981.684444151455, -5869.4786869858135, -6189.488612352445, -6098.271143230337, -45644.76557311602, -54316.28129676358, -84674.97940957302, -61099.499297082344, 0.06, 0.936, 0.34600000000000003, 192.0, 0.0, 0.0, 0.0, 0.0, 0.0, 0.0, 0.0, 0.0, 0.0, 1.7393885447100427E9, 0.0, 2025-02-12 16:29:04.710
68.0, -6102.026236298828, -5940.601937842601, -6177.664539535587, -6074.578294107711, -45643.91620682672, -54276.33872942194, -84641.8764760347, -61062.171883841984, 0.06, 0.936, 0.34600000000000003, 192.0, 0.0, 0.0, 0.0, 0.0, 0.0, 0.0, 0.0, 0.0, 0.0, 1.739388544710055E9, 0.0, 2025-02-12 16:29:04.710
69.0, -6282.091889630782, -6094.87367807313, -6151.6471089896095, -6053.835875253186, -45639.98229980258, -54259.21729316918, -84561.43254774006, -61024.710360134886, 0.06, 0.936, 0.34600000000000003, 192.0, 0.0, 0.0, 0.0, 0.0, 0.0, 0.0, 0.0, 0.0, 0.0, 1.7393885447100751E9, 0.0, 2025-02-12 16:29:04.710
70.0, -6184.41476636109, -6043.554072803745, -6159.403164315601, -6073.728927818409, -45640.518741669504, -54297.63994188785, -84574.32950429077, -61057.925052395476, 0.06, 0.936, 0.34600000000000003, 192.0, 0.0, 0.0, 0.0, 0.0, 0.0, 0.0, 0.0, 0.0, 0.0, 1.7393885447100875E9, 0.0, 2025-02-12 16:29:04.710
71.0, -5994.1567175575165, -5885.706053460366, -6188.549839085322, -6098.807585097264, -45647.20191326165, -54323.053875333535, -84649.58782787179, -61102.89676223955, 0.068, 0.9380000000000001, 0.34, 192.0, 2.0, 32.0, 29.0, 80.0, 10.0, 160.0, 0.0, 0.0, 0.0, 1.7393885447100997E9, 0.0, 2025-02-12 16:29:04.710
72.0, -6069.571503349723, -5919.367780610059, -6186.247609406425, -6083.407233167557, -45650.06293655193, -54290.86736331789, -84639.23897018898, -61078.48865729436, 0.068, 0.9380000000000001, 0.34, 192.0, 0.0, 0.0, 0.0, 0.0, 0.0, 0.0, 0.0, 0.0, 0.0, 1.7393885447101128E9, 0.0, 2025-02-12 16:29:04.710
73.0, -6269.619616224721, -6082.49081164489, -6156.564492769778, -6055.8475322541635, -45644.34088997137, -54262.74886879312, -84553.8553063697, -61031.482938704845, 0.068, 0.9380000000000001, 0.34, 192.0, 0.0, 0.0, 0.0, 0.0, 0.0, 0.0, 0.0, 0.0, 0.0, 1.7393885447101247E9, 0.0, 2025-02-12 16:29:04.710
74.0, -6221.608069134721, -6072.052546984261, -6156.720954980964, -6069.102116716161, -45643.15624751523, -54294.2648284751, -84546.456878955, -61052.94061338194, 0.068, 0.9380000000000001, 0.34, 192.0, 0.0, 0.0, 0.0, 0.0, 0.0, 0.0, 0.0, 0.0, 0.0, 1.739388544710137E9, 0.0, 2025-02-12 16:29:04.710
75.0, -6015.033246878773, -5907.811928726665, -6185.934684984051, -6097.4664804299455, -45648.90064584025, -54327.323058524504, -84622.09518219176, -61103.43320410648, 0.068, 0.9380000000000001, 0.34, 192.0, 0.0, 0.0, 0.0, 0.0, 0.0, 0.0, 0.0, 0.0, 0.0, 1.7393885447101493E9, 0.0, 2025-02-12 16:29:04.710
76.0, -6038.189654134471, -5899.228858855827, -6190.60619957521, -6088.570486136733, -45652.85690460884, -54302.37851171238, -84632.1758189411, -61090.75976500032, 0.068, 0.9380000000000001, 0.34, 192.0, 0.0, 0.0, 0.0, 0.0, 0.0, 0.0, 0.0, 0.0, 0.0, 1.7393885447101624E9, 0.0, 2025-02-12 16:29:04.710
77.0, -6249.547749703855, -6064.922340503018, -6163.515885295378, -6060.273177656314, -45649.88412259628, -54269.27557817407, -84550.9048761016, -61041.58592719864, 0.068, 0.9380000000000001, 0.34, 192.0, 0.0, 0.0, 0.0, 0.0, 0.0, 0.0, 0.0, 0.0, 0.0, 1.7393885447101748E9, 0.0, 2025-02-12 16:29:04.710
78.0, -6256.745011418464, -6098.427605441524, -6158.5090945373895, -6068.297453915769, -45649.548846429454, -54294.331883708466, -84525.17801823355, -61052.247709303825, 0.068, 0.9380000000000001, 0.34, 192.0, 0.0, 0.0, 0.0, 0.0, 0.0, 0.0, 0.0, 0.0, 0.0, 1.7393885447101872E9, 0.0, 2025-02-12 16:29:04.710
79.0, -6045.655136782544, -5937.048010474206, -6184.235952405447, -6096.572410651733, -45652.58868367537, -54331.18991031527, -84594.35666732272, -61103.23203840638, 0.068, 0.9380000000000001, 0.34, 192.0, 0.0, 0.0, 0.0, 0.0, 0.0, 0.0, 0.0, 0.0, 0.0, 1.739388544710199E9, 0.0, 2025-02-12 16:29:04.710
80.0, -6014.161528845016, -5885.929570904919, -6194.830679277263, -6094.024311783828, -45656.43318372169, -54314.113177551415, -84622.81043801433, -61102.449727350446, 0.068, 0.9380000000000001, 0.34, 192.0, 0.0, 0.0, 0.0, 0.0, 0.0, 0.0, 0.0, 0.0, 0.0, 1.7393885447102115E9, 0.0, 2025-02-12 16:29:04.710
81.0, -6219.797577833841, -6040.022497179806, -6168.925007453562, -6063.491828857878, -45653.01336682002, -54274.79645905453, -84547.3062452443, -61050.906604636504, 0.064, 0.9400000000000001, 0.34800000000000003, 192.0, 2.0, 0.0, 29.0, 96.0, 10.0, 224.0, 0.0, 0.0, 0.0, 1.7393885447102237E9, 0.0, 2025-02-12 16:29:04.710
82.0, -6278.202686095558, -6111.995114325895, -6155.357498569191, -6062.217779423926, -45650.15234352974, -54288.565133639, -84501.39576213309, -61046.726828423365, 0.064, 0.9400000000000001, 0.34800000000000003, 192.0, 0.0, 0.0, 0.0, 0.0, 0.0, 0.0, 0.0, 0.0, 0.0, 1.739388544710236E9, 0.0, 2025-02-12 16:29:04.710
83.0, -6079.898009288074, -5967.6251968890665, -6179.631493047655, -6092.146765249582, -45653.952140087145, -54330.76522717062, -84563.0642250853, -61098.98520695987, 0.064, 0.9400000000000001, 0.34800000000000003, 192.0, 0.0, 0.0, 0.0, 0.0, 0.0, 0.0, 0.0, 0.0, 0.0, 1.7393885447102544E9, 0.0, 2025-02-12 16:29:04.710
84.0, -5997.576534459178, -5879.02288186823, -6197.267019422891, -6097.891163574596, -45658.95893084514, -54324.5737939565, -84609.82407448579, -61111.99392223286, 0.064, 0.9400000000000001, 0.34800000000000003, 192.0, 0.0, 0.0, 0.0, 0.0, 0.0, 0.0, 0.0, 0.0, 0.0, 1.7393885447102668E9, 0.0, 2025-02-12 16:29:04.710
85.0, -6186.448775106523, -6013.625086978089, -6176.211676145992, -6069.504448116356, -45657.528419199996, -54283.87126730338, -84547.66387315559, -61063.73650595385, 0.064, 0.9400000000000001, 0.34800000000000003, 192.0, 0.0, 0.0, 0.0, 0.0, 0.0, 0.0, 0.0, 0.0, 0.0, 1.7393885447102852E9, 0.0, 2025-02-12 16:29:04.710
86.0, -6296.620523526732, -6123.752131909387, -6159.827847460252, -6063.625939324611, -45657.03668082198, -54289.95094179523, -84489.8399102497, -61049.69961043592, 0.064, 0.9400000000000001, 0.34800000000000003, 192.0, 0.0, 0.0, 0.0, 0.0, 0.0, 0.0, 0.0, 0.0, 0.0, 1.7393885447102976E9, 0.0, 2025-02-12 16:29:04.710
87.0, -6123.26039353137, -6004.773796173787, -6180.436155848045, -6092.660855372054, -45661.015291335025, -54334.07328535, -84539.97487306297, -61099.14166917106, 0.064, 0.9400000000000001, 0.34800000000000003, 192.0, 0.0, 0.0, 0.0, 0.0, 0.0, 0.0, 0.0, 0.0, 0.0, 1.7393885447103095E9, 0.0, 2025-02-12 16:29:04.710
88.0, -5994.939028613452, -5883.940265648397, -6203.279638681369, -6105.870736345141, -45666.89380012677, -54338.54363424106, -84602.44799881554, -61124.51089912783, 0.064, 0.9400000000000001, 0.34800000000000003, 192.0, 0.0, 0.0, 0.0, 0.0, 0.0, 0.0, 0.0, 0.0, 0.0, 1.7393885447103224E9, 0.0, 2025-02-12 16:29:04.710
89.0, -6152.6976409790095, -5988.6358366770555, -6186.448775106523, -6079.20510520996, -45665.59739894836, -54296.902334320825, -84556.09048081524, -61080.58972127316, 0.064, 0.9400000000000001, 0.34800000000000003, 192.0, 0.0, 0.0, 0.0, 0.0, 0.0, 0.0, 0.0, 0.0, 0.0, 1.7393885447103353E9, 0.0, 2025-02-12 16:29:04.710
90.0, -6298.967456694539, -6121.248736530392, -6159.492571293423, -6060.764916034332, -45658.623654678304, -54286.441717915746, -84481.52506131234, -61049.07376159117, 0.064, 0.9400000000000001, 0.34800000000000003, 192.0, 0.0, 0.0, 0.0, 0.0, 0.0, 0.0, 0.0, 0.0, 0.0, 1.7393885447103474E9, 0.0, 2025-02-12 16:29:04.710
91.0, -6158.710260237487, -6032.6240697651, -6172.210713888492, -6084.234247712404, -45659.18244828969, -54326.87602363539, -84513.86803553916, -61089.508067310824, 0.06, 0.934, 0.35000000000000003, 192.0, 1.0, 224.0, 29.0, 48.0, 10.0, 240.0, 0.0, 0.0, 0.0, 1.7393885447103596E9, 0.0, 2025-02-12 16:29:04.710
92.0, -5994.044958835239, -5888.567076750645, -6200.440967135545, -6105.289590989303, -45666.89380012677, -54343.23750057668, -84588.92519342009, -61127.19310846247, 0.06, 0.934, 0.35000000000000003, 192.0, 0.0, 0.0, 0.0, 0.0, 0.0, 0.0, 0.0, 0.0, 0.0, 1.739388544710373E9, 0.0, 2025-02-12 16:29:04.710
93.0, -6113.224460270937, -5958.863313062587, -6191.589676331244, -6084.569523879233, -45668.45842223864, -54305.95479082523, -84563.5112599744, -61093.084346423675, 0.06, 0.934, 0.35000000000000003, 192.0, 0.0, 0.0, 0.0, 0.0, 0.0, 0.0, 0.0, 0.0, 0.0, 1.739388544710385E9, 0.0, 2025-02-12 16:29:04.710
94.0, -6293.96066593655, -6113.135053293116, -6163.605292273199, -6062.061317212739, -45663.07165182491, -54287.15697373831, -84483.42495959104, -61053.588813971146, 0.06, 0.934, 0.35000000000000003, 192.0, 0.0, 0.0, 0.0, 0.0, 0.0, 0.0, 0.0, 0.0, 0.0, 1.7393885447103972E9, 0.0, 2025-02-12 16:29:04.710
95.0, -6197.736406056453, -6062.7765730353085, -6169.170876642571, -6080.076823243717, -45662.04347157997, -54323.187985800265, -84495.71841904146, -61084.18835213046, 0.06, 0.934, 0.35000000000000003, 192.0, 0.0, 0.0, 0.0, 0.0, 0.0, 0.0, 0.0, 0.0, 0.0, 1.7393885447104094E9, 0.0, 2025-02-12 16:29:04.710
96.0, -6002.7844909172645, -5900.614667012056, -6196.350597900224, -6103.322637477236, -45666.536172215485, -54346.00911688914, -84572.45195775652, -61127.23781195138, 0.06, 0.934, 0.35000000000000003, 192.0, 0.0, 0.0, 0.0, 0.0, 0.0, 0.0, 0.0, 0.0, 0.0, 1.7393885447104287E9, 0.0, 2025-02-12 16:29:04.710
97.0, -6074.198314451971, -5930.543652837712, -6194.629513577165, -6088.503430903367, -45669.48660248359, -54313.979067084685, -84566.28287628686, -61103.54496282875, 0.06, 0.934, 0.35000000000000003, 192.0, 0.0, 0.0, 0.0, 0.0, 0.0, 0.0, 0.0, 0.0, 0.0, 1.7393885447104418E9, 0.0, 2025-02-12 16:29:04.710
98.0, -6277.755651206452, -6096.3488932071805, -6167.047460919316, -6063.067145713228, -45665.95502685965, -54287.9169330498, -84484.00610494686, -61058.57325298468, 0.06, 0.934, 0.35000000000000003, 192.0, 0.0, 0.0, 0.0, 0.0, 0.0, 0.0, 0.0, 0.0, 0.0, 1.7393885447104647E9, 0.0, 2025-02-12 16:29:04.710
99.0, -6232.068685539804, -6087.5423058917895, -6164.946396940518, -6074.2206661964265, -45663.09400356937, -54317.33182875298, -84474.28309610882, -61077.32636658268, 0.06, 0.934, 0.35000000000000003, 192.0, 0.0, 0.0, 0.0, 0.0, 0.0, 0.0, 0.0, 0.0, 0.0, 1.739388544710477E9, 0.0, 2025-02-12 16:29:04.710
100.0, -6024.465683038912, -5922.631135300534, -6194.27188566588, -6102.875602588129, -45668.927808872206, -54349.98772740218, -84551.84364936873, -61127.684846840486, 0.06, 0.934, 0.35000000000000003, 192.0, 0.0, 0.0, 0.0, 0.0, 0.0, 0.0, 0.0, 0.0, 0.0, 1.7393885447104957E9, 0.0, 2025-02-12 16:29:04.710
101.0, -6041.676526269499, -5908.616591527056, -6198.071682223283, -6093.0631867722495, -45671.25239029556, -54323.59031720046, -84563.60066695222, -61114.29615191176, 0.062, 0.932, 0.352, 192.0, 1.0, 240.0, 29.0, 32.0, 11.0, 0.0, 0.0, 0.0, 0.0, 1.7393885447105083E9, 0.0, 2025-02-12 16:29:04.710
102.0, -6250.687688671075, -6071.337291161692, -6168.321510353268, -6062.15072419056, -45665.50799197054, -54287.87222956088, -84480.56393630075, -61062.44010477544, 0.062, 0.932, 0.352, 192.0, 0.0, 0.0, 0.0, 0.0, 0.0, 0.0, 0.0, 0.0, 0.0, 1.7393885447105217E9, 0.0, 2025-02-12 16:29:04.710
103.0, -6258.5331509748885, -6104.7978526112865, -6159.000832915406, -6066.129334703605, -45661.61878843532, -54308.97227632669, -84450.38908128609, -61068.63153798957, 0.062, 0.932, 0.352, 192.0, 0.0, 0.0, 0.0, 0.0, 0.0, 0.0, 0.0, 0.0, 0.0, 1.7393885447105343E9, 0.0, 2025-02-12 16:29:04.710
104.0, -6052.33830837468, -5948.469751890869, -6189.801536774819, -6099.478137430923, -45669.79952690596, -54350.4794657802, -84525.8485705672, -61124.5779543612, 0.062, 0.932, 0.352, 192.0, 0.0, 0.0, 0.0, 0.0, 0.0, 0.0, 0.0, 0.0, 0.0, 1.7393885451881988E9, 0.0, 2025-02-12 16:29:05.188
105.0, -6017.871918424597, -5895.026730898229, -6202.6537898366205, -6099.098157775183, -45674.98513161959, -54335.05676210604, -84559.33148376126, -61126.075521239705, 0.062, 0.932, 0.352, 192.0, 0.0, 0.0, 0.0, 0.0, 0.0, 0.0, 0.0, 0.0, 0.0, 1.7393885451882565E9, 0.0, 2025-02-12 16:29:05.188
106.0, -6222.971525546494, -6048.359697861636, -6177.038690690839, -6069.035061482795, -45671.58766646239, -54296.142375009345, -84486.21892764795, -61075.06884039269, 0.062, 0.932, 0.352, 192.0, 0.0, 0.0, 0.0, 0.0, 0.0, 0.0, 0.0, 0.0, 0.0, 1.7393885451882856E9, 0.0, 2025-02-12 16:29:05.188
107.0, -6285.422299554622, -6123.506262720378, -6162.9123881950845, -6067.492791115379, -45668.70429142765, -54309.620476915894, -84440.24138930338, -61070.30791882372, 0.062, 0.932, 0.352, 192.0, 0.0, 0.0, 0.0, 0.0, 0.0, 0.0, 0.0, 0.0, 0.0, 1.7393885451883223E9, 0.0, 2025-02-12 16:29:05.188
108.0, -6088.056396014261, -5979.806897617209, -6187.052272206816, -6097.354721707669, -45672.50408798505, -54351.19472160277, -84502.89332901161, -61121.940448515474, 0.062, 0.932, 0.352, 192.0, 0.0, 0.0, 0.0, 0.0, 0.0, 0.0, 0.0, 0.0, 0.0, 1.7393885451883404E9, 0.0, 2025-02-12 16:29:05.188
109.0, -6002.069235094695, -5888.254152328272, -6205.89479278264, -6104.2167072554485, -45678.24848631007, -54345.51737851112, -84553.72119590297, -61136.15615798905, 0.062, 0.932, 0.352, 192.0, 0.0, 0.0, 0.0, 0.0, 0.0, 0.0, 0.0, 0.0, 0.0, 1.7393885451883533E9, 0.0, 2025-02-12 16:29:05.188
110.0, -6189.220391418981, -6021.202328348438, -6185.152373928115, -6075.941750519485, -45676.4826984981, -54304.948962324735, -84493.48324459592, -61088.27872136578, 0.062, 0.932, 0.352, 192.0, 0.0, 0.0, 0.0, 0.0, 0.0, 0.0, 0.0, 0.0, 0.0, 1.739388545188366E9, 0.0, 2025-02-12 16:29:05.188
111.0, -6297.514593304943, -6128.490701733912, -6162.286539350336, -6064.0059189803505, -45669.66541643923, -54305.06072104701, -84428.14909555306, -61067.625709489075, 0.064, 0.93, 0.35000000000000003, 192.0, 2.0, 0.0, 29.0, 16.0, 10.0, 240.0, 0.0, 0.0, 0.0, 1.7393885451883783E9, 0.0, 2025-02-12 16:29:05.188
112.0, -6125.316754021258, -6010.540546243256, -6181.665501793087, -6092.01265478285, -45672.72760542961, -54347.864311678924, -84476.20534613197, -61115.5254978568, 0.064, 0.93, 0.35000000000000003, 192.0, 0.0, 0.0, 0.0, 0.0, 0.0, 0.0, 0.0, 0.0, 0.0, 1.7393885451883929E9, 0.0, 2025-02-12 16:29:05.188
113.0, -5995.944857113941, -5889.282332573215, -6207.9958567614385, -6108.30707649077, -45681.288323555986, -54355.061573393534, -84542.36650971968, -61144.06867552623, 0.064, 0.93, 0.35000000000000003, 192.0, 0.0, 0.0, 0.0, 0.0, 0.0, 0.0, 0.0, 0.0, 0.0, 1.7393885451884053E9, 0.0, 2025-02-12 16:29:05.188
114.0, -6153.12232412366, -5993.32970301267, -6193.288408909847, -6083.451936656468, -45681.355378789354, -54315.34252349645, -84497.35009638668, -61102.2709133948, 0.064, 0.93, 0.35000000000000003, 192.0, 0.0, 0.0, 0.0, 0.0, 0.0, 0.0, 0.0, 0.0, 0.0, 1.7393885451884174E9, 0.0, 2025-02-12 16:29:05.188
115.0, -6305.225945142025, -6130.815283157263, -6168.142696397626, -6066.598721337166, -45676.03566360899, -54306.96061932571, -84420.75066813835, -61072.319575824695, 0.064, 0.93, 0.35000000000000003, 192.0, 0.0, 0.0, 0.0, 0.0, 0.0, 0.0, 0.0, 0.0, 0.0, 1.7393885451884692E9, 0.0, 2025-02-12 16:29:05.188
116.0, -6171.070774921272, -6047.95736646144, -6183.073661693771, -6092.325579205225, -45679.030797366, -54349.74185821317, -84450.85846791965, -61114.49731761186, 0.064, 0.93, 0.35000000000000003, 192.0, 0.0, 0.0, 0.0, 0.0, 0.0, 0.0, 0.0, 0.0, 0.0, 1.7393885451884816E9, 0.0, 2025-02-12 16:29:05.188
117.0, -6001.041054849751, -5899.519431533746, -6209.024037006383, -6110.87752710313, -45683.76936719053, -54363.48818105319, -84520.81942806476, -61149.58955640669, 0.064, 0.93, 0.35000000000000003, 192.0, 0.0, 0.0, 0.0, 0.0, 0.0, 0.0, 0.0, 0.0, 0.0, 1.739388545188494E9, 0.0, 2025-02-12 16:29:05.188
118.0, -6114.2526405158815, -5964.250083476315, -6197.870516523185, -6087.363491936147, -45682.271800312024, -54323.679724178284, -84489.75050327189, -61113.066805966715, 0.064, 0.93, 0.35000000000000003, 192.0, 0.0, 0.0, 0.0, 0.0, 0.0, 0.0, 0.0, 0.0, 0.0, 1.7393885451885061E9, 0.0, 2025-02-12 16:29:05.188
119.0, -6299.638009028198, -6122.276916775337, -6171.271940621369, -6066.017575981328, -45678.31554154343, -54306.60299141443, -84405.68559237548, -61074.84532294814, 0.064, 0.93, 0.35000000000000003, 192.0, 0.0, 0.0, 0.0, 0.0, 0.0, 0.0, 0.0, 0.0, 0.0, 1.7393885451885185E9, 0.0, 2025-02-12 16:29:05.188
120.0, -6211.147452729637, -6079.026291254318, -6179.899713981118, -6086.894105302586, -45680.6848264557, -54345.87500642241, -84415.43095295799, -61108.01531171981, 0.064, 0.93, 0.35000000000000003, 192.0, 0.0, 0.0, 0.0, 0.0, 0.0, 0.0, 0.0, 0.0, 0.0, 1.7393885451885307E9, 0.0, 2025-02-12 16:29:05.188
121.0, -6017.246069579848, -5918.6078212985785, -6210.007513762416, -6112.6656666595545, -45687.591515492386, -54371.42305033482, -84491.0916079392, -61153.56816691973, 0.064, 0.934, 0.35000000000000003, 192.0, 2.0, 0.0, 29.0, 48.0, 10.0, 240.0, 0.0, 0.0, 0.0, 1.739388545188543E9, 0.0, 2025-02-12 16:29:05.188
122.0, -6084.457765156957, -5944.98287975584, -6208.107615483716, -6097.242962985392, -45689.670227726725, -54339.1247795969, -84481.5921165457, -61129.80826256374, 0.064, 0.934, 0.35000000000000003, 192.0, 0.0, 0.0, 0.0, 0.0, 0.0, 0.0, 0.0, 0.0, 0.0, 1.739388545188556E9, 0.0, 2025-02-12 16:29:05.188
123.0, -6289.915000190139, -6112.173928281538, -6180.324397125769, -6071.270235928326, -45685.93748640269, -54312.928535095285, -84394.06268525872, -61084.389517830554, 0.064, 0.934, 0.35000000000000003, 192.0, 0.0, 0.0, 0.0, 0.0, 0.0, 0.0, 0.0, 0.0, 0.0, 1.7393885451885686E9, 0.0, 2025-02-12 16:29:05.188
124.0, -6249.592453192766, -6108.128262535127, -6178.9385889695395, -6082.91549478954, -45684.21640207963, -54343.10339010994, -84379.39994089604, -61103.343797128655, 0.064, 0.934, 0.35000000000000003, 192.0, 0.0, 0.0, 0.0, 0.0, 0.0, 0.0, 0.0, 0.0, 0.0, 1.7393885451885808E9, 0.0, 2025-02-12 16:29:05.188
125.0, -6041.050677424751, -5942.814760543676, -6208.308781183813, -6111.279858503325, -45689.71493121564, -54375.78164050361, -84453.1383458541, -61153.612870408644, 0.064, 0.934, 0.35000000000000003, 192.0, 0.0, 0.0, 0.0, 0.0, 0.0, 0.0, 0.0, 0.0, 0.0, 1.739388545188593E9, 0.0, 2025-02-12 16:29:05.188
126.0, -6056.227511909904, -5927.526167336246, -6214.366103931201, -6103.389692710602, -45693.5370795175, -54351.68645998078, -84464.47068029293, -61142.77227434782, 0.064, 0.934, 0.35000000000000003, 192.0, 0.0, 0.0, 0.0, 0.0, 0.0, 0.0, 0.0, 0.0, 0.0, 1.739388545188605E9, 0.0, 2025-02-12 16:29:05.188
127.0, -6268.680842957598, -6093.286704216803, -6187.275789651369, -6074.958273763451, -45690.34078006039, -54318.78469214257, -84380.04814148524, -61093.486677823865, 0.064, 0.934, 0.35000000000000003, 192.0, 0.0, 0.0, 0.0, 0.0, 0.0, 0.0, 0.0, 0.0, 0.0, 1.7393885451886172E9, 0.0, 2025-02-12 16:29:05.188
128.0, -6282.650683242165, -6132.089332591216, -6179.385623858646, -6079.96506452144, -45688.217364337135, -54341.20349183125, -84346.162896891, -61100.549829071744, 0.064, 0.934, 0.35000000000000003, 192.0, 0.0, 0.0, 0.0, 0.0, 0.0, 0.0, 0.0, 0.0, 0.0, 1.7393885451886294E9, 0.0, 2025-02-12 16:29:05.188
129.0, -6074.466535385434, -5974.196609758927, -6207.7052840835195, -6110.609306169666, -45693.85000393987, -54380.27434113912, -84415.74387738036, -61153.836387853196, 0.064, 0.934, 0.35000000000000003, 192.0, 0.0, 0.0, 0.0, 0.0, 0.0, 0.0, 0.0, 0.0, 0.0, 1.7393885451886415E9, 0.0, 2025-02-12 16:29:05.188
130.0, -6038.4131715790245, -5920.12773992154, -6223.105636013226, -6112.620963170643, -45701.24843135458, -54367.802067733064, -84449.94204639699, -61158.55260593326, 0.064, 0.934, 0.35000000000000003, 192.0, 0.0, 0.0, 0.0, 0.0, 0.0, 0.0, 0.0, 0.0, 0.0, 1.7393885451886537E9, 0.0, 2025-02-12 16:29:05.188
131.0, -6242.395191478156, -6072.074898728717, -6196.998798489428, -6081.6190936111325, -45697.00159990807, -54328.306535280535, -84372.44854837043, -61106.89772449705, 0.064, 0.9400000000000001, 0.34400000000000003, 192.0, 2.0, 0.0, 29.0, 96.0, 10.0, 192.0, 0.0, 0.0, 0.0, 1.7393885451886728E9, 0.0, 2025-02-12 16:29:05.188
132.0, -6307.5505265653765, -6149.054306632795, -6180.9949494594275, -6077.7969453092755, -45692.33008531691, -54339.50475925264, -84319.407858778, -61099.40989010452, 0.064, 0.9400000000000001, 0.34400000000000003, 192.0, 0.0, 0.0, 0.0, 0.0, 0.0, 0.0, 0.0, 0.0, 0.0, 1.739388545188686E9, 0.0, 2025-02-12 16:29:05.188
133.0, -6111.324561992235, -6006.628990963578, -6204.486632881955, -6106.965971823451, -45695.77225396303, -54380.85548649496, -84378.4611676289, -61150.617736651635, 0.064, 0.9400000000000001, 0.34400000000000003, 192.0, 0.0, 0.0, 0.0, 0.0, 0.0, 0.0, 0.0, 0.0, 0.0, 1.7393885451886983E9, 0.0, 2025-02-12 16:29:05.188
134.0, -6020.531776014778, -5911.343504350603, -6222.4350836795675, -6113.135053293116, -45700.33200983191, -54375.066384681035, -84427.52324670831, -61164.74403914739, 0.064, 0.9400000000000001, 0.34400000000000003, 192.0, 0.0, 0.0, 0.0, 0.0, 0.0, 0.0, 0.0, 0.0, 0.0, 1.7393885451887105E9, 0.0, 2025-02-12 16:29:05.188
135.0, -6206.364179416201, -6043.062334425728, -6202.206754947514, -6085.240076212893, -45698.834442953405, -54335.012058617125, -84365.58656282266, -61117.33598915768, 0.064, 0.9400000000000001, 0.34400000000000003, 192.0, 0.0, 0.0, 0.0, 0.0, 0.0, 0.0, 0.0, 0.0, 0.0, 1.7393885451887228E9, 0.0, 2025-02-12 16:29:05.188
136.0, -6322.660305817164, -6157.324452081258, -6183.31953088278, -6076.7464133198755, -45696.040474896494, -54338.4765790077, -84300.38652424653, -61099.923980226995, 0.064, 0.9400000000000001, 0.34400000000000003, 192.0, 0.0, 0.0, 0.0, 0.0, 0.0, 0.0, 0.0, 0.0, 0.0, 1.7393885451887348E9, 0.0, 2025-02-12 16:29:05.188
137.0, -6151.334184567236, -6040.268366368815, -6200.955057258017, -6102.8085473547635, -45697.38157956381, -54379.62614054992, -84344.39710907903, -61146.03562903829, 0.064, 0.9400000000000001, 0.34400000000000003, 192.0, 0.0, 0.0, 0.0, 0.0, 0.0, 0.0, 0.0, 0.0, 0.0, 1.7393885451887467E9, 0.0, 2025-02-12 16:29:05.188
