%OpenBCI Raw EXG Data
%Number of channels = 8
%Sample Rate = 250 Hz
%Board = OpenBCI_GUI$BoardCytonSerial
Sample Index, EXG Channel 0, EXG Channel 1, EXG Channel 2, EXG Channel 3, EXG Channel 4, EXG Channel 5, EXG Channel 6, EXG Channel 7, Accel Channel 0, Accel Channel 1, Accel Channel 2, Not Used, Digital Channel 0 (D11), Digital Channel 1 (D12), Digital Channel 2 (D13), Digital Channel 3 (D17), Not Used, Digital Channel 4 (D18), Analog Channel 0, Analog Channel 1, Analog Channel 2, Timestamp, Marker Channel, Timestamp (Formatted)
0.0, -187500.02235174447, -184828.83242712409, -187500.02235174447, -187500.02235174447, -187500.02235174447, -187500.02235174447, -187500.02235174447, -187500.02235174447, 0.026000000000000002, 0.432, 0.276, 192.0, 0.0, 208.0, 13.0, 128.0, 8.0, 160.0, 0.0, 0.0, 0.0, 1.739535131989194E9, 0.0, 2025-02-14 09:12:11.989
1.0, -187500.02235174447, -184969.3131410257, -187500.02235174447, -187500.02235174447, -187500.02235174447, -187500.02235174447, -187500.02235174447, -187500.02235174447, 0.026000000000000002, 0.432, 0.276, 192.0, 0.0, 0.0, 0.0, 0.0, 0.0, 0.0, 0.0, 0.0, 0.0, 1.7395351319894521E9, 0.0, 2025-02-14 09:12:11.989
2.0, -187500.02235174447, -185248.26291182791, -187500.02235174447, -187500.02235174447, -187500.02235174447, -187500.02235174447, -187500.02235174447, -187500.02235174447, 0.026000000000000002, 0.432, 0.276, 192.0, 0.0, 0.0, 0.0, 0.0, 0.0, 0.0, 0.0, 0.0, 0.0, 1.7395351319894705E9, 0.0, 2025-02-14 09:12:11.989
3.0, -187500.02235174447, -185337.73694488252, -187500.02235174447, -187500.02235174447, -187500.02235174447, -187500.02235174447, -187500.02235174447, -187500.02235174447, 0.026000000000000002, 0.432, 0.276, 192.0, 0.0, 0.0, 0.0, 0.0, 0.0, 0.0, 0.0, 0.0, 0.0, 1.7395351319894855E9, 0.0, 2025-02-14 09:12:11.989
4.0, -187500.02235174447, -185246.94415890507, -187500.02235174447, -187500.02235174447, -187500.02235174447, -187500.02235174447, -187500.02235174447, -187500.02235174447, 0.026000000000000002, 0.432, 0.276, 192.0, 0.0, 0.0, 0.0, 0.0, 0.0, 0.0, 0.0, 0.0, 0.0, 1.7395351319895E9, 0.0, 2025-02-14 09:12:11.989
5.0, -187500.02235174447, -185295.42509262863, -187500.02235174447, -187500.02235174447, -187500.02235174447, -187500.02235174447, -187500.02235174447, -187500.02235174447, 0.026000000000000002, 0.432, 0.276, 192.0, 0.0, 0.0, 0.0, 0.0, 0.0, 0.0, 0.0, 0.0, 0.0, 1.7395351319895155E9, 0.0, 2025-02-14 09:12:11.989
6.0, -187500.02235174447, -185513.22049060115, -187500.02235174447, -187500.02235174447, -187500.02235174447, -187500.02235174447, -187500.02235174447, -187500.02235174447, 0.026000000000000002, 0.432, 0.276, 192.0, 0.0, 0.0, 0.0, 0.0, 0.0, 0.0, 0.0, 0.0, 0.0, 1.7395351319895291E9, 0.0, 2025-02-14 09:12:11.989
7.0, -187500.02235174447, -185579.292247211, -187500.02235174447, -187500.02235174447, -187500.02235174447, -187500.02235174447, -187500.02235174447, -187500.02235174447, 0.032, 0.642, 0.40800000000000003, 192.0, 1.0, 0.0, 20.0, 16.0, 12.0, 192.0, 0.0, 0.0, 0.0, 1.7395351319895427E9, 0.0, 2025-02-14 09:12:11.989
8.0, -187500.02235174447, -185418.15852143272, -187500.02235174447, -187500.02235174447, -187500.02235174447, -187500.02235174447, -187500.02235174447, -187500.02235174447, 0.032, 0.642, 0.40800000000000003, 192.0, 0.0, 0.0, 0.0, 0.0, 0.0, 0.0, 0.0, 0.0, 0.0, 1.739535131989559E9, 0.0, 2025-02-14 09:12:11.989
9.0, -187500.02235174447, -185354.72427066855, -187500.02235174447, -187500.02235174447, -187500.02235174447, -187500.02235174447, -187500.02235174447, -187500.02235174447, 0.032, 0.642, 0.40800000000000003, 192.0, 0.0, 0.0, 0.0, 0.0, 0.0, 0.0, 0.0, 0.0, 0.0, 1.7395351319895723E9, 0.0, 2025-02-14 09:12:11.989
10.0, -187500.02235174447, -185498.82596717193, -187500.02235174447, -187500.02235174447, -187500.02235174447, -187500.02235174447, -187500.02235174447, -187500.02235174447, 0.032, 0.642, 0.40800000000000003, 192.0, 0.0, 0.0, 0.0, 0.0, 0.0, 0.0, 0.0, 0.0, 0.0, 1.7395351319895864E9, 0.0, 2025-02-14 09:12:11.989
11.0, -187500.02235174447, -185547.73158404013, -187500.02235174447, -187500.02235174447, -187500.02235174447, -187500.02235174447, -187500.02235174447, -187500.02235174447, 0.032, 0.642, 0.40800000000000003, 192.0, 0.0, 0.0, 0.0, 0.0, 0.0, 0.0, 0.0, 0.0, 0.0, 1.7395351319896004E9, 0.0, 2025-02-14 09:12:11.989
12.0, -187500.02235174447, -185356.82533464735, -187500.02235174447, -187500.02235174447, -187500.02235174447, -187500.02235174447, -187500.02235174447, -187500.02235174447, 0.032, 0.642, 0.40800000000000003, 192.0, 0.0, 0.0, 0.0, 0.0, 0.0, 0.0, 0.0, 0.0, 0.0, 1.7395351319896147E9, 0.0, 2025-02-14 09:12:11.989
13.0, -187500.02235174447, -185215.38349573416, -187500.02235174447, -187500.02235174447, -187500.02235174447, -187500.02235174447, -187500.02235174447, -187500.02235174447, 0.032, 0.642, 0.40800000000000003, 192.0, 0.0, 0.0, 0.0, 0.0, 0.0, 0.0, 0.0, 0.0, 0.0, 1.7395351319896288E9, 0.0, 2025-02-14 09:12:11.989
14.0, -187500.02235174447, -185311.87597654772, -187500.02235174447, -187500.02235174447, -187500.02235174447, -187500.02235174447, -187500.02235174447, -187500.02235174447, 0.032, 0.642, 0.40800000000000003, 192.0, 0.0, 0.0, 0.0, 0.0, 0.0, 0.0, 0.0, 0.0, 0.0, 1.7395351319896424E9, 0.0, 2025-02-14 09:12:11.989
15.0, -187500.02235174447, -185378.68534072465, -187500.02235174447, -187500.02235174447, -187500.02235174447, -187500.02235174447, -187500.02235174447, -187500.02235174447, 0.032, 0.642, 0.40800000000000003, 192.0, 0.0, 0.0, 0.0, 0.0, 0.0, 0.0, 0.0, 0.0, 0.0, 1.7395351319898062E9, 0.0, 2025-02-14 09:12:11.989
16.0, -187500.02235174447, -185202.10655952772, -187500.02235174447, -187500.02235174447, -187500.02235174447, -187500.02235174447, -187500.02235174447, -187500.02235174447, 0.032, 0.642, 0.40800000000000003, 192.0, 0.0, 0.0, 0.0, 0.0, 0.0, 0.0, 0.0, 0.0, 0.0, 1.7395351319898214E9, 0.0, 2025-02-14 09:12:11.989
17.0, -187500.02235174447, -185026.31008938674, -187500.02235174447, -187500.02235174447, -187500.02235174447, -187500.02235174447, -187500.02235174447, -187500.02235174447, 0.042, 0.748, 0.47200000000000003, 192.0, 1.0, 80.0, 23.0, 96.0, 14.0, 192.0, 0.0, 0.0, 0.0, 1.7395351319898355E9, 0.0, 2025-02-14 09:12:11.989
18.0, -187500.02235174447, -185095.71225592046, -187500.02235174447, -187500.02235174447, -187500.02235174447, -187500.02235174447, -187500.02235174447, -187500.02235174447, 0.042, 0.748, 0.47200000000000003, 192.0, 0.0, 0.0, 0.0, 0.0, 0.0, 0.0, 0.0, 0.0, 0.0, 1.7395351319898503E9, 0.0, 2025-02-14 09:12:11.989
19.0, -187500.02235174447, -185204.78876886235, -187500.02235174447, -187500.02235174447, -187500.02235174447, -187500.02235174447, -187500.02235174447, -187500.02235174447, 0.042, 0.748, 0.47200000000000003, 192.0, 0.0, 0.0, 0.0, 0.0, 0.0, 0.0, 0.0, 0.0, 0.0, 1.739535131989864E9, 0.0, 2025-02-14 09:12:11.989
20.0, -187500.02235174447, -185077.00384581136, -187500.02235174447, -187500.02235174447, -187500.02235174447, -187500.02235174447, -187500.02235174447, -187500.02235174447, 0.042, 0.748, 0.47200000000000003, 192.0, 0.0, 0.0, 0.0, 0.0, 0.0, 0.0, 0.0, 0.0, 0.0, 1.7395351319898782E9, 0.0, 2025-02-14 09:12:11.989
21.0, -187500.02235174447, -184892.11021567706, -187500.02235174447, -187500.02235174447, -187500.02235174447, -187500.02235174447, -187500.02235174447, -187500.02235174447, 0.042, 0.748, 0.47200000000000003, 192.0, 0.0, 0.0, 0.0, 0.0, 0.0, 0.0, 0.0, 0.0, 0.0, 1.739535131989892E9, 0.0, 2025-02-14 09:12:11.989
22.0, -187500.02235174447, -184944.16742851346, -187500.02235174447, -187500.02235174447, -187500.02235174447, -187500.02235174447, -187500.02235174447, -187500.02235174447, 0.042, 0.748, 0.47200000000000003, 192.0, 0.0, 0.0, 0.0, 0.0, 0.0, 0.0, 0.0, 0.0, 0.0, 1.7395351319899094E9, 0.0, 2025-02-14 09:12:11.989
23.0, -187500.02235174447, -185091.35366575167, -187500.02235174447, -187500.02235174447, -187500.02235174447, -187500.02235174447, -187500.02235174447, -187500.02235174447, 0.042, 0.748, 0.47200000000000003, 192.0, 0.0, 0.0, 0.0, 0.0, 0.0, 0.0, 0.0, 0.0, 0.0, 1.739535131989923E9, 0.0, 2025-02-14 09:12:11.989
24.0, -187500.02235174447, -185019.98454570587, -187500.02235174447, -187500.02235174447, -187500.02235174447, -187500.02235174447, -187500.02235174447, -187500.02235174447, 0.042, 0.748, 0.47200000000000003, 192.0, 0.0, 0.0, 0.0, 0.0, 0.0, 0.0, 0.0, 0.0, 0.0, 1.7395351319899368E9, 0.0, 2025-02-14 09:12:11.989
25.0, -187500.02235174447, -184832.54281670367, -187500.02235174447, -187500.02235174447, -187500.02235174447, -187500.02235174447, -187500.02235174447, -187500.02235174447, 0.042, 0.748, 0.47200000000000003, 192.0, 0.0, 0.0, 0.0, 0.0, 0.0, 0.0, 0.0, 0.0, 0.0, 1.7395351319899507E9, 0.0, 2025-02-14 09:12:11.989
26.0, -187500.02235174447, -184855.9450931484, -187500.02235174447, -187500.02235174447, -187500.02235174447, -187500.02235174447, -187500.02235174447, -187500.02235174447, 0.042, 0.748, 0.47200000000000003, 192.0, 0.0, 0.0, 0.0, 0.0, 0.0, 0.0, 0.0, 0.0, 0.0, 1.7395351319899645E9, 0.0, 2025-02-14 09:12:11.989
27.0, -187500.02235174447, -185026.37714462008, -187500.02235174447, -187500.02235174447, -187500.02235174447, -187500.02235174447, -187500.02235174447, -187500.02235174447, 0.048, 0.8, 0.5, 192.0, 1.0, 128.0, 25.0, 0.0, 15.0, 160.0, 0.0, 0.0, 0.0, 1.739535131989978E9, 0.0, 2025-02-14 09:12:11.989
28.0, -187500.02235174447, -185011.22266187938, -187500.02235174447, -187500.02235174447, -187500.02235174447, -187500.02235174447, -187500.02235174447, -187500.02235174447, 0.048, 0.8, 0.5, 192.0, 0.0, 0.0, 0.0, 0.0, 0.0, 0.0, 0.0, 0.0, 0.0, 1.739535131989992E9, 0.0, 2025-02-14 09:12:11.989
29.0, -187500.02235174447, -184826.4184387229, -187500.02235174447, -187500.02235174447, -187500.02235174447, -187500.02235174447, -187500.02235174447, -187500.02235174447, 0.048, 0.8, 0.5, 192.0, 0.0, 0.0, 0.0, 0.0, 0.0, 0.0, 0.0, 0.0, 0.0, 1.7395351319900055E9, 0.0, 2025-02-14 09:12:11.990
30.0, -187500.02235174447, -184811.84510133805, -187500.02235174447, -187500.02235174447, -187500.02235174447, -187500.02235174447, -187500.02235174447, -187500.02235174447, 0.048, 0.8, 0.5, 192.0, 0.0, 0.0, 0.0, 0.0, 0.0, 0.0, 0.0, 0.0, 0.0, 1.7395351319900494E9, 0.0, 2025-02-14 09:12:11.990
31.0, -187500.02235174447, -184991.5084232698, -187500.02235174447, -187500.02235174447, -187500.02235174447, -187500.02235174447, -187500.02235174447, -187500.02235174447, 0.048, 0.8, 0.5, 192.0, 0.0, 0.0, 0.0, 0.0, 0.0, 0.0, 0.0, 0.0, 0.0, 1.7395351319900634E9, 0.0, 2025-02-14 09:12:11.990
32.0, -187500.02235174447, -185024.03021145228, -187500.02235174447, -187500.02235174447, -187500.02235174447, -187500.02235174447, -187500.02235174447, -187500.02235174447, 0.048, 0.8, 0.5, 192.0, 0.0, 0.0, 0.0, 0.0, 0.0, 0.0, 0.0, 0.0, 0.0, 1.7395351319900775E9, 0.0, 2025-02-14 09:12:11.990
33.0, -187500.02235174447, -184850.8935989015, -187500.02235174447, -187500.02235174447, -187500.02235174447, -187500.02235174447, -187500.02235174447, -187500.02235174447, 0.048, 0.8, 0.5, 192.0, 0.0, 0.0, 0.0, 0.0, 0.0, 0.0, 0.0, 0.0, 0.0, 1.739535131990091E9, 0.0, 2025-02-14 09:12:11.990
34.0, -187500.02235174447, -184798.54581338714, -187500.02235174447, -187500.02235174447, -187500.02235174447, -187500.02235174447, -187500.02235174447, -187500.02235174447, 0.048, 0.8, 0.5, 192.0, 0.0, 0.0, 0.0, 0.0, 0.0, 0.0, 0.0, 0.0, 0.0, 1.739535131990105E9, 0.0, 2025-02-14 09:12:11.990
35.0, -187500.02235174447, -184972.911771883, -187500.02235174447, -187500.02235174447, -187500.02235174447, -187500.02235174447, -187500.02235174447, -187500.02235174447, 0.048, 0.8, 0.5, 192.0, 0.0, 0.0, 0.0, 0.0, 0.0, 0.0, 0.0, 0.0, 0.0, 1.7395351319901187E9, 0.0, 2025-02-14 09:12:11.990
36.0, -187500.02235174447, -185057.26725545732, -187500.02235174447, -187500.02235174447, -187500.02235174447, -187500.02235174447, -187500.02235174447, -187500.02235174447, 0.048, 0.8, 0.5, 192.0, 0.0, 0.0, 0.0, 0.0, 0.0, 0.0, 0.0, 0.0, 0.0, 1.7395351319901326E9, 0.0, 2025-02-14 09:12:11.990
37.0, -187500.02235174447, -184903.66606756047, -187500.02235174447, -187500.02235174447, -187500.02235174447, -187500.02235174447, -187500.02235174447, -187500.02235174447, 0.032, 0.8300000000000001, 0.526, 192.0, 1.0, 0.0, 25.0, 240.0, 16.0, 112.0, 0.0, 0.0, 0.0, 1.739535131990146E9, 0.0, 2025-02-14 09:12:11.990
38.0, -187500.02235174447, -184814.86258683953, -187500.02235174447, -187500.02235174447, -187500.02235174447, -187500.02235174447, -187500.02235174447, -187500.02235174447, 0.032, 0.8300000000000001, 0.526, 192.0, 0.0, 0.0, 0.0, 0.0, 0.0, 0.0, 0.0, 0.0, 0.0, 1.739535131990161E9, 0.0, 2025-02-14 09:12:11.990
39.0, -187500.02235174447, -184969.5590102147, -187500.02235174447, -187500.02235174447, -187500.02235174447, -187500.02235174447, -187500.02235174447, -187500.02235174447, 0.032, 0.8300000000000001, 0.526, 192.0, 0.0, 0.0, 0.0, 0.0, 0.0, 0.0, 0.0, 0.0, 0.0, 1.7395351319901745E9, 0.0, 2025-02-14 09:12:11.990
40.0, -187500.02235174447, -185093.09710181918, -187500.02235174447, -187500.02235174447, -187500.02235174447, -187500.02235174447, -187500.02235174447, -187500.02235174447, 0.032, 0.8300000000000001, 0.526, 192.0, 0.0, 0.0, 0.0, 0.0, 0.0, 0.0, 0.0, 0.0, 0.0, 1.7395351319902537E9, 0.0, 2025-02-14 09:12:11.990
41.0, -187500.02235174447, -184968.7990509032, -187500.02235174447, -187500.02235174447, -187500.02235174447, -187500.02235174447, -187500.02235174447, -187500.02235174447, 0.032, 0.8300000000000001, 0.526, 192.0, 0.0, 0.0, 0.0, 0.0, 0.0, 0.0, 0.0, 0.0, 0.0, 1.7395351319903696E9, 0.0, 2025-02-14 09:12:11.990
42.0, -187500.02235174447, -184842.4893429863, -187500.02235174447, -187500.02235174447, -187500.02235174447, -187500.02235174447, -187500.02235174447, -187500.02235174447, 0.032, 0.8300000000000001, 0.526, 192.0, 0.0, 0.0, 0.0, 0.0, 0.0, 0.0, 0.0, 0.0, 0.0, 1.739535131990415E9, 0.0, 2025-02-14 09:12:11.990
43.0, -187500.02235174447, -184968.41907124748, -187500.02235174447, -187500.02235174447, -187500.02235174447, -187500.02235174447, -187500.02235174447, -187500.02235174447, 0.032, 0.8300000000000001, 0.526, 192.0, 0.0, 0.0, 0.0, 0.0, 0.0, 0.0, 0.0, 0.0, 0.0, 1.7395351319904308E9, 0.0, 2025-02-14 09:12:11.990
44.0, -187500.02235174447, -185126.5576632688, -187500.02235174447, -187500.02235174447, -187500.02235174447, -187500.02235174447, -187500.02235174447, -187500.02235174447, 0.032, 0.8300000000000001, 0.526, 192.0, 0.0, 0.0, 0.0, 0.0, 0.0, 0.0, 0.0, 0.0, 0.0, 1.739535131990444E9, 0.0, 2025-02-14 09:12:11.990
45.0, -187500.02235174447, -185039.34115640417, -187500.02235174447, -187500.02235174447, -187500.02235174447, -187500.02235174447, -187500.02235174447, -187500.02235174447, 0.032, 0.8300000000000001, 0.526, 192.0, 0.0, 0.0, 0.0, 0.0, 0.0, 0.0, 0.0, 0.0, 0.0, 1.739535131990467E9, 0.0, 2025-02-14 09:12:11.990
46.0, -187500.02235174447, -184888.35512260857, -187500.02235174447, -187500.02235174447, -187500.02235174447, -187500.02235174447, -187500.02235174447, -187500.02235174447, 0.032, 0.8300000000000001, 0.526, 192.0, 0.0, 0.0, 0.0, 0.0, 0.0, 0.0, 0.0, 0.0, 0.0, 1.739535131990481E9, 0.0, 2025-02-14 09:12:11.990
47.0, -187500.02235174447, -184973.33645502766, -187500.02235174447, -187500.02235174447, -187500.02235174447, -187500.02235174447, -187500.02235174447, -187500.02235174447, 0.042, 0.838, 0.536, 192.0, 1.0, 80.0, 26.0, 48.0, 16.0, 192.0, 0.0, 0.0, 0.0, 1.739535131990494E9, 0.0, 2025-02-14 09:12:11.990
48.0, -187500.02235174447, -185151.16693391406, -187500.02235174447, -187500.02235174447, -187500.02235174447, -187500.02235174447, -187500.02235174447, -187500.02235174447, 0.042, 0.838, 0.536, 192.0, 0.0, 0.0, 0.0, 0.0, 0.0, 0.0, 0.0, 0.0, 0.0, 1.7395351319905083E9, 0.0, 2025-02-14 09:12:11.990
49.0, -187500.02235174447, -185104.25062230238, -187500.02235174447, -187500.02235174447, -187500.02235174447, -187500.02235174447, -187500.02235174447, -187500.02235174447, 0.042, 0.838, 0.536, 192.0, 0.0, 0.0, 0.0, 0.0, 0.0, 0.0, 0.0, 0.0, 0.0, 1.739535131990522E9, 0.0, 2025-02-14 09:12:11.990
50.0, -187500.02235174447, -184937.70777436587, -187500.02235174447, -187500.02235174447, -187500.02235174447, -187500.02235174447, -187500.02235174447, -187500.02235174447, 0.042, 0.838, 0.536, 192.0, 0.0, 0.0, 0.0, 0.0, 0.0, 0.0, 0.0, 0.0, 0.0, 1.7395351319905353E9, 0.0, 2025-02-14 09:12:11.990
51.0, -187500.02235174447, -184980.2207923199, -187500.02235174447, -187500.02235174447, -187500.02235174447, -187500.02235174447, -187500.02235174447, -187500.02235174447, 0.042, 0.838, 0.536, 192.0, 0.0, 0.0, 0.0, 0.0, 0.0, 0.0, 0.0, 0.0, 0.0, 1.7395351319905486E9, 0.0, 2025-02-14 09:12:11.990
52.0, -187500.02235174447, -185173.92100976958, -187500.02235174447, -187500.02235174447, -187500.02235174447, -187500.02235174447, -187500.02235174447, -187500.02235174447, 0.042, 0.838, 0.536, 192.0, 0.0, 0.0, 0.0, 0.0, 0.0, 0.0, 0.0, 0.0, 0.0, 1.7395351319905667E9, 0.0, 2025-02-14 09:12:11.990
53.0, -187500.02235174447, -185176.6479225931, -187500.02235174447, -187500.02235174447, -187500.02235174447, -187500.02235174447, -187500.02235174447, -187500.02235174447, 0.042, 0.838, 0.536, 192.0, 0.0, 0.0, 0.0, 0.0, 0.0, 0.0, 0.0, 0.0, 0.0, 1.7395351319905803E9, 0.0, 2025-02-14 09:12:11.990
54.0, -187500.02235174447, -185004.76300773182, -187500.02235174447, -187500.02235174447, -187500.02235174447, -187500.02235174447, -187500.02235174447, -187500.02235174447, 0.042, 0.838, 0.536, 192.0, 0.0, 0.0, 0.0, 0.0, 0.0, 0.0, 0.0, 0.0, 0.0, 1.7395351319905937E9, 0.0, 2025-02-14 09:12:11.990
55.0, -187500.02235174447, -185003.0195716643, -187500.02235174447, -187500.02235174447, -187500.02235174447, -187500.02235174447, -187500.02235174447, -187500.02235174447, 0.042, 0.838, 0.536, 192.0, 0.0, 0.0, 0.0, 0.0, 0.0, 0.0, 0.0, 0.0, 0.0, 1.7395351319906073E9, 0.0, 2025-02-14 09:12:11.990
56.0, -187500.02235174447, -185196.9209548141, -187500.02235174447, -187500.02235174447, -187500.02235174447, -187500.02235174447, -187500.02235174447, -187500.02235174447, 0.042, 0.838, 0.536, 192.0, 0.0, 0.0, 0.0, 0.0, 0.0, 0.0, 0.0, 0.0, 0.0, 1.7395351319906287E9, 0.0, 2025-02-14 09:12:11.990
57.0, -187500.02235174447, -185252.3309293188, -187500.02235174447, -187500.02235174447, -187500.02235174447, -187500.02235174447, -187500.02235174447, -187500.02235174447, 0.042, 0.84, 0.536, 192.0, 1.0, 80.0, 26.0, 64.0, 16.0, 192.0, 0.0, 0.0, 0.0, 1.7395351319906456E9, 0.0, 2025-02-14 09:12:11.990
58.0, -187500.02235174447, -185097.61215419916, -187500.02235174447, -187500.02235174447, -187500.02235174447, -187500.02235174447, -187500.02235174447, -187500.02235174447, 0.042, 0.84, 0.536, 192.0, 0.0, 0.0, 0.0, 0.0, 0.0, 0.0, 0.0, 0.0, 0.0, 1.73953513199066E9, 0.0, 2025-02-14 09:12:11.990
59.0, -187500.02235174447, -185062.4752119154, -187500.02235174447, -187500.02235174447, -187500.02235174447, -187500.02235174447, -187500.02235174447, -187500.02235174447, 0.042, 0.84, 0.536, 192.0, 0.0, 0.0, 0.0, 0.0, 0.0, 0.0, 0.0, 0.0, 0.0, 1.7395351319906733E9, 0.0, 2025-02-14 09:12:11.990
60.0, -187500.02235174447, -185263.1268218907, -187500.02235174447, -187500.02235174447, -187500.02235174447, -187500.02235174447, -187500.02235174447, -187500.02235174447, 0.042, 0.84, 0.536, 192.0, 0.0, 0.0, 0.0, 0.0, 0.0, 0.0, 0.0, 0.0, 0.0, 1.7395351319907143E9, 0.0, 2025-02-14 09:12:11.990
61.0, -187500.02235174447, -185380.8981634257, -187500.02235174447, -187500.02235174447, -187500.02235174447, -187500.02235174447, -187500.02235174447, -187500.02235174447, 0.042, 0.84, 0.536, 192.0, 0.0, 0.0, 0.0, 0.0, 0.0, 0.0, 0.0, 0.0, 0.0, 1.739535131990728E9, 0.0, 2025-02-14 09:12:11.990
62.0, -187500.02235174447, -185263.0374149129, -187500.02235174447, -187500.02235174447, -187500.02235174447, -187500.02235174447, -187500.02235174447, -187500.02235174447, 0.042, 0.84, 0.536, 192.0, 0.0, 0.0, 0.0, 0.0, 0.0, 0.0, 0.0, 0.0, 0.0, 1.7395351319907544E9, 0.0, 2025-02-14 09:12:11.990
63.0, -187500.02235174447, -185206.50985318542, -187500.02235174447, -187500.02235174447, -187500.02235174447, -187500.02235174447, -187500.02235174447, -187500.02235174447, 0.042, 0.84, 0.536, 192.0, 0.0, 0.0, 0.0, 0.0, 0.0, 0.0, 0.0, 0.0, 0.0, 1.739535131990772E9, 0.0, 2025-02-14 09:12:11.990
64.0, -187500.02235174447, -185410.08954168434, -187500.02235174447, -187500.02235174447, -187500.02235174447, -187500.02235174447, -187500.02235174447, -187500.02235174447, 0.042, 0.84, 0.536, 192.0, 0.0, 0.0, 0.0, 0.0, 0.0, 0.0, 0.0, 0.0, 0.0, 1.7395351319907873E9, 0.0, 2025-02-14 09:12:11.990
65.0, -187500.02235174447, -185606.3602097464, -187500.02235174447, -187500.02235174447, -187500.02235174447, -187500.02235174447, -187500.02235174447, -187500.02235174447, 0.042, 0.84, 0.536, 192.0, 0.0, 0.0, 0.0, 0.0, 0.0, 0.0, 0.0, 0.0, 0.0, 1.7395351319908009E9, 0.0, 2025-02-14 09:12:11.990
66.0, -187500.02235174447, -185547.9998049736, -187500.02235174447, -187500.02235174447, -187500.02235174447, -187500.02235174447, -187500.02235174447, -187500.02235174447, 0.042, 0.84, 0.536, 192.0, 0.0, 0.0, 0.0, 0.0, 0.0, 0.0, 0.0, 0.0, 0.0, 1.7395351319908147E9, 0.0, 2025-02-14 09:12:11.990
67.0, -187500.02235174447, -185456.15648700672, -187500.02235174447, -187500.02235174447, -187500.02235174447, -187500.02235174447, -187500.02235174447, -187500.02235174447, 0.038, 0.838, 0.534, 192.0, 1.0, 48.0, 26.0, 48.0, 16.0, 176.0, 0.0, 0.0, 0.0, 1.7395351319908285E9, 0.0, 2025-02-14 09:12:11.990
68.0, -187500.02235174447, -185603.09685505592, -187500.02235174447, -187500.02235174447, -187500.02235174447, -187500.02235174447, -187500.02235174447, -187500.02235174447, 0.038, 0.838, 0.534, 192.0, 0.0, 0.0, 0.0, 0.0, 0.0, 0.0, 0.0, 0.0, 0.0, 1.7395351319908552E9, 0.0, 2025-02-14 09:12:11.990
69.0, -187500.02235174447, -185784.05657816608, -187500.02235174447, -187500.02235174447, -187500.02235174447, -187500.02235174447, -187500.02235174447, -187500.02235174447, 0.038, 0.838, 0.534, 192.0, 0.0, 0.0, 0.0, 0.0, 0.0, 0.0, 0.0, 0.0, 0.0, 1.739535131990869E9, 0.0, 2025-02-14 09:12:11.990
70.0, -187500.02235174447, -185681.4397193718, -187500.02235174447, -187500.02235174447, -187500.02235174447, -187500.02235174447, -187500.02235174447, -187500.02235174447, 0.038, 0.838, 0.534, 192.0, 0.0, 0.0, 0.0, 0.0, 0.0, 0.0, 0.0, 0.0, 0.0, 1.7395351319908829E9, 0.0, 2025-02-14 09:12:11.990
71.0, -187500.02235174447, -185470.79687962495, -187500.02235174447, -187500.02235174447, -187500.02235174447, -187500.02235174447, -187500.02235174447, -187500.02235174447, 0.038, 0.838, 0.534, 192.0, 0.0, 0.0, 0.0, 0.0, 0.0, 0.0, 0.0, 0.0, 0.0, 1.739535131990896E9, 0.0, 2025-02-14 09:12:11.990
72.0, -187500.02235174447, -185508.77249345454, -187500.02235174447, -187500.02235174447, -187500.02235174447, -187500.02235174447, -187500.02235174447, -187500.02235174447, 0.038, 0.838, 0.534, 192.0, 0.0, 0.0, 0.0, 0.0, 0.0, 0.0, 0.0, 0.0, 0.0, 1.7395351319909108E9, 0.0, 2025-02-14 09:12:11.990
73.0, -187500.02235174447, -185704.082036505, -187500.02235174447, -187500.02235174447, -187500.02235174447, -187500.02235174447, -187500.02235174447, -187500.02235174447, 0.038, 0.838, 0.534, 192.0, 0.0, 0.0, 0.0, 0.0, 0.0, 0.0, 0.0, 0.0, 0.0, 1.739535131991027E9, 0.0, 2025-02-14 09:12:11.991
74.0, -187500.02235174447, -185735.26272002017, -187500.02235174447, -187500.02235174447, -187500.02235174447, -187500.02235174447, -187500.02235174447, -187500.02235174447, 0.038, 0.838, 0.534, 192.0, 0.0, 0.0, 0.0, 0.0, 0.0, 0.0, 0.0, 0.0, 0.0, 1.7395351319911273E9, 0.0, 2025-02-14 09:12:11.991
75.0, -187500.02235174447, -185630.56714899148, -187500.02235174447, -187500.02235174447, -187500.02235174447, -187500.02235174447, -187500.02235174447, -187500.02235174447, 0.038, 0.838, 0.534, 192.0, 0.0, 0.0, 0.0, 0.0, 0.0, 0.0, 0.0, 0.0, 0.0, 1.7395351319911504E9, 0.0, 2025-02-14 09:12:11.991
76.0, -187500.02235174447, -185711.05578077506, -187500.02235174447, -187500.02235174447, -187500.02235174447, -187500.02235174447, -187500.02235174447, -187500.02235174447, 0.038, 0.838, 0.534, 192.0, 0.0, 0.0, 0.0, 0.0, 0.0, 0.0, 0.0, 0.0, 0.0, 1.7395351319911637E9, 0.0, 2025-02-14 09:12:11.991
77.0, -187500.02235174447, -185953.32633892613, -187500.02235174447, -187500.02235174447, -187500.02235174447, -187500.02235174447, -187500.02235174447, -187500.02235174447, 0.036000000000000004, 0.846, 0.54, 192.0, 1.0, 32.0, 26.0, 112.0, 16.0, 224.0, 0.0, 0.0, 0.0, 1.739535131991177E9, 0.0, 2025-02-14 09:12:11.991
78.0, -187500.02235174447, -186015.7100577009, -187500.02235174447, -187500.02235174447, -187500.02235174447, -187500.02235174447, -187500.02235174447, -187500.02235174447, 0.036000000000000004, 0.846, 0.54, 192.0, 0.0, 0.0, 0.0, 0.0, 0.0, 0.0, 0.0, 0.0, 0.0, 1.7395351319911911E9, 0.0, 2025-02-14 09:12:11.991
79.0, -187500.02235174447, -185888.90861140593, -187500.02235174447, -187500.02235174447, -187500.02235174447, -187500.02235174447, -187500.02235174447, -187500.02235174447, 0.036000000000000004, 0.846, 0.54, 192.0, 0.0, 0.0, 0.0, 0.0, 0.0, 0.0, 0.0, 0.0, 0.0, 1.7395351319912045E9, 0.0, 2025-02-14 09:12:11.991
80.0, -187500.02235174447, -185928.00181245827, -187500.02235174447, -187500.02235174447, -187500.02235174447, -187500.02235174447, -187500.02235174447, -187500.02235174447, 0.036000000000000004, 0.846, 0.54, 192.0, 0.0, 0.0, 0.0, 0.0, 0.0, 0.0, 0.0, 0.0, 0.0, 1.739535131991218E9, 0.0, 2025-02-14 09:12:11.991
81.0, -187500.02235174447, -186192.8923359981, -187500.02235174447, -187500.02235174447, -187500.02235174447, -187500.02235174447, -187500.02235174447, -187500.02235174447, 0.036000000000000004, 0.846, 0.54, 192.0, 0.0, 0.0, 0.0, 0.0, 0.0, 0.0, 0.0, 0.0, 0.0, 1.7395351319912312E9, 0.0, 2025-02-14 09:12:11.991
82.0, -187500.02235174447, -186332.90366326616, -187500.02235174447, -187500.02235174447, -187500.02235174447, -187500.02235174447, -187500.02235174447, -187500.02235174447, 0.036000000000000004, 0.846, 0.54, 192.0, 0.0, 0.0, 0.0, 0.0, 0.0, 0.0, 0.0, 0.0, 0.0, 1.7395351319912443E9, 0.0, 2025-02-14 09:12:11.991
83.0, -187500.02235174447, -186242.26733949987, -187500.02235174447, -187500.02235174447, -187500.02235174447, -187500.02235174447, -187500.02235174447, -187500.02235174447, 0.036000000000000004, 0.846, 0.54, 192.0, 0.0, 0.0, 0.0, 0.0, 0.0, 0.0, 0.0, 0.0, 0.0, 1.7395351319912648E9, 0.0, 2025-02-14 09:12:11.991
84.0, -187500.02235174447, -186249.19638028104, -187500.02235174447, -187500.02235174447, -187500.02235174447, -187500.02235174447, -187500.02235174447, -187500.02235174447, 0.036000000000000004, 0.846, 0.54, 192.0, 0.0, 0.0, 0.0, 0.0, 0.0, 0.0, 0.0, 0.0, 0.0, 1.7395351319912784E9, 0.0, 2025-02-14 09:12:11.991
85.0, -187500.02235174447, -186486.03546452947, -187500.02235174447, -187500.02235174447, -187500.02235174447, -187500.02235174447, -187500.02235174447, -187500.02235174447, 0.036000000000000004, 0.846, 0.54, 192.0, 0.0, 0.0, 0.0, 0.0, 0.0, 0.0, 0.0, 0.0, 0.0, 1.739535131991292E9, 0.0, 2025-02-14 09:12:11.991
86.0, -187500.02235174447, -186659.08267010245, -187500.02235174447, -187500.02235174447, -187500.02235174447, -187500.02235174447, -187500.02235174447, -187500.02235174447, 0.036000000000000004, 0.846, 0.54, 192.0, 0.0, 0.0, 0.0, 0.0, 0.0, 0.0, 0.0, 0.0, 0.0, 1.739535131991307E9, 0.0, 2025-02-14 09:12:11.991
87.0, -187500.02235174447, -186591.98273324763, -187500.02235174447, -187500.02235174447, -187500.02235174447, -187500.02235174447, -187500.02235174447, -187500.02235174447, 0.044, 0.852, 0.538, 192.0, 1.0, 96.0, 26.0, 160.0, 16.0, 208.0, 0.0, 0.0, 0.0, 1.7395351319913204E9, 0.0, 2025-02-14 09:12:11.991
88.0, -187500.02235174447, -186533.30940405244, -187500.02235174447, -187500.02235174447, -187500.02235174447, -187500.02235174447, -187500.02235174447, -187500.02235174447, 0.044, 0.852, 0.538, 192.0, 0.0, 0.0, 0.0, 0.0, 0.0, 0.0, 0.0, 0.0, 0.0, 1.7395351319913344E9, 0.0, 2025-02-14 09:12:11.991
89.0, -187500.02235174447, -186702.9144409793, -187500.02235174447, -187500.02235174447, -187500.02235174447, -187500.02235174447, -187500.02235174447, -187500.02235174447, 0.044, 0.852, 0.538, 192.0, 0.0, 0.0, 0.0, 0.0, 0.0, 0.0, 0.0, 0.0, 0.0, 1.7395351319913552E9, 0.0, 2025-02-14 09:12:11.991
90.0, -187500.02235174447, -186874.86641107398, -187500.02235174447, -187500.02235174447, -187500.02235174447, -187500.02235174447, -187500.02235174447, -187500.02235174447, 0.044, 0.852, 0.538, 192.0, 0.0, 0.0, 0.0, 0.0, 0.0, 0.0, 0.0, 0.0, 0.0, 1.7395351319913688E9, 0.0, 2025-02-14 09:12:11.991
91.0, -187500.02235174447, -186840.78000077963, -187500.02235174447, -187500.02235174447, -187500.02235174447, -187500.02235174447, -187500.02235174447, -187500.02235174447, 0.044, 0.852, 0.538, 192.0, 0.0, 0.0, 0.0, 0.0, 0.0, 0.0, 0.0, 0.0, 0.0, 1.7395351319913824E9, 0.0, 2025-02-14 09:12:11.991
92.0, -187500.02235174447, -186750.322490969, -187500.02235174447, -187500.02235174447, -187500.02235174447, -187500.02235174447, -187500.02235174447, -187500.02235174447, 0.044, 0.852, 0.538, 192.0, 0.0, 0.0, 0.0, 0.0, 0.0, 0.0, 0.0, 0.0, 0.0, 1.7395351319913957E9, 0.0, 2025-02-14 09:12:11.991
93.0, -187500.02235174447, -186836.1084861885, -187500.02235174447, -187500.02235174447, -187500.02235174447, -187500.02235174447, -187500.02235174447, -187500.02235174447, 0.044, 0.852, 0.538, 192.0, 0.0, 0.0, 0.0, 0.0, 0.0, 0.0, 0.0, 0.0, 0.0, 1.7395351319914093E9, 0.0, 2025-02-14 09:12:11.991
94.0, -187500.02235174447, -186906.40472250042, -187500.02235174447, -187500.02235174447, -187500.02235174447, -187500.02235174447, -187500.02235174447, -187500.02235174447, 0.044, 0.852, 0.538, 192.0, 0.0, 0.0, 0.0, 0.0, 0.0, 0.0, 0.0, 0.0, 0.0, 1.7395351319914224E9, 0.0, 2025-02-14 09:12:11.991
95.0, -187500.02235174447, -186898.49220496326, -187500.02235174447, -187500.02235174447, -187500.02235174447, -187500.02235174447, -187500.02235174447, -187500.02235174447, 0.044, 0.852, 0.538, 192.0, 0.0, 0.0, 0.0, 0.0, 0.0, 0.0, 0.0, 0.0, 0.0, 1.739535131991436E9, 0.0, 2025-02-14 09:12:11.991
96.0, -187500.02235174447, -186879.33675996505, -187500.02235174447, -187500.02235174447, -187500.02235174447, -187500.02235174447, -187500.02235174447, -187500.02235174447, 0.044, 0.852, 0.538, 192.0, 0.0, 0.0, 0.0, 0.0, 0.0, 0.0, 0.0, 0.0, 0.0, 1.739535131991449E9, 0.0, 2025-02-14 09:12:11.991
97.0, -187500.02235174447, -186883.8071088561, -187500.02235174447, -187500.02235174447, -187500.02235174447, -187500.02235174447, -187500.02235174447, -187500.02235174447, 0.036000000000000004, 0.848, 0.536, 192.0, 1.0, 32.0, 26.0, 128.0, 16.0, 192.0, 0.0, 0.0, 0.0, 1.7395351319914627E9, 0.0, 2025-02-14 09:12:11.991
98.0, -187500.02235174447, -186900.3697514975, -187500.02235174447, -187500.02235174447, -187500.02235174447, -187500.02235174447, -187500.02235174447, -187500.02235174447, 0.036000000000000004, 0.848, 0.536, 192.0, 0.0, 0.0, 0.0, 0.0, 0.0, 0.0, 0.0, 0.0, 0.0, 1.7395351319914765E9, 0.0, 2025-02-14 09:12:11.991
99.0, -187500.02235174447, -186893.9100973499, -187500.02235174447, -187500.02235174447, -187500.02235174447, -187500.02235174447, -187500.02235174447, -187500.02235174447, 0.036000000000000004, 0.848, 0.536, 192.0, 0.0, 0.0, 0.0, 0.0, 0.0, 0.0, 0.0, 0.0, 0.0, 1.73953513199149E9, 0.0, 2025-02-14 09:12:11.991
100.0, -187500.02235174447, -186879.73909136525, -187500.02235174447, -187500.02235174447, -187500.02235174447, -187500.02235174447, -187500.02235174447, -187500.02235174447, 0.036000000000000004, 0.848, 0.536, 192.0, 0.0, 0.0, 0.0, 0.0, 0.0, 0.0, 0.0, 0.0, 0.0, 1.7395351319915032E9, 0.0, 2025-02-14 09:12:11.991
101.0, -187500.02235174447, -186886.13169027946, -187500.02235174447, -187500.02235174447, -187500.02235174447, -187500.02235174447, -187500.02235174447, -187500.02235174447, 0.036000000000000004, 0.848, 0.536, 192.0, 0.0, 0.0, 0.0, 0.0, 0.0, 0.0, 0.0, 0.0, 0.0, 1.7395351319915168E9, 0.0, 2025-02-14 09:12:11.991
102.0, -187500.02235174447, -186905.44359748883, -187500.02235174447, -187500.02235174447, -187500.02235174447, -187500.02235174447, -187500.02235174447, -187500.02235174447, 0.036000000000000004, 0.848, 0.536, 192.0, 0.0, 0.0, 0.0, 0.0, 0.0, 0.0, 0.0, 0.0, 0.0, 1.7395351319915304E9, 0.0, 2025-02-14 09:12:11.991
103.0, -187500.02235174447, -186908.90811787941, -187500.02235174447, -187500.02235174447, -187500.02235174447, -187500.02235174447, -187500.02235174447, -187500.02235174447, 0.036000000000000004, 0.848, 0.536, 192.0, 0.0, 0.0, 0.0, 0.0, 0.0, 0.0, 0.0, 0.0, 0.0, 1.7395351319915435E9, 0.0, 2025-02-14 09:12:11.991
104.0, -187500.02235174447, -186898.1122253075, -187500.02235174447, -187500.02235174447, -187500.02235174447, -187500.02235174447, -187500.02235174447, -187500.02235174447, 0.036000000000000004, 0.848, 0.536, 192.0, 0.0, 0.0, 0.0, 0.0, 0.0, 0.0, 0.0, 0.0, 0.0, 1.7395351319915645E9, 0.0, 2025-02-14 09:12:11.991
105.0, -187500.02235174447, -186899.02864683018, -187500.02235174447, -187500.02235174447, -187500.02235174447, -187500.02235174447, -187500.02235174447, -187500.02235174447, 0.036000000000000004, 0.848, 0.536, 192.0, 0.0, 0.0, 0.0, 0.0, 0.0, 0.0, 0.0, 0.0, 0.0, 1.7395351319915779E9, 0.0, 2025-02-14 09:12:11.991
106.0, -187500.02235174447, -186918.6311267175, -187500.02235174447, -187500.02235174447, -187500.02235174447, -187500.02235174447, -187500.02235174447, -187500.02235174447, 0.036000000000000004, 0.848, 0.536, 192.0, 0.0, 0.0, 0.0, 0.0, 0.0, 0.0, 0.0, 0.0, 0.0, 1.739535131991591E9, 0.0, 2025-02-14 09:12:11.991
107.0, -187500.02235174447, -186925.89544366545, -187500.02235174447, -187500.02235174447, -187500.02235174447, -187500.02235174447, -187500.02235174447, -187500.02235174447, 0.034, 0.846, 0.528, 192.0, 1.0, 16.0, 26.0, 112.0, 16.0, 128.0, 0.0, 0.0, 0.0, 1.7395351319916053E9, 0.0, 2025-02-14 09:12:11.991
108.0, -187500.02235174447, -186909.2210423018, -187500.02235174447, -187500.02235174447, -187500.02235174447, -187500.02235174447, -187500.02235174447, -187500.02235174447, 0.034, 0.846, 0.528, 192.0, 0.0, 0.0, 0.0, 0.0, 0.0, 0.0, 0.0, 0.0, 0.0, 1.7395351319916198E9, 0.0, 2025-02-14 09:12:11.991
109.0, -187500.02235174447, -186899.90036486392, -187500.02235174447, -187500.02235174447, -187500.02235174447, -187500.02235174447, -187500.02235174447, -187500.02235174447, 0.034, 0.846, 0.528, 192.0, 0.0, 0.0, 0.0, 0.0, 0.0, 0.0, 0.0, 0.0, 0.0, 1.7395351319916332E9, 0.0, 2025-02-14 09:12:11.991
110.0, -187500.02235174447, -186915.3230685381, -187500.02235174447, -187500.02235174447, -187500.02235174447, -187500.02235174447, -187500.02235174447, -187500.02235174447, 0.034, 0.846, 0.528, 192.0, 0.0, 0.0, 0.0, 0.0, 0.0, 0.0, 0.0, 0.0, 0.0, 1.7395351319916465E9, 0.0, 2025-02-14 09:12:11.991
111.0, -187500.02235174447, -186923.74967619774, -187500.02235174447, -187500.02235174447, -187500.02235174447, -187500.02235174447, -187500.02235174447, -187500.02235174447, 0.034, 0.846, 0.528, 192.0, 0.0, 0.0, 0.0, 0.0, 0.0, 0.0, 0.0, 0.0, 0.0, 1.7395351319916596E9, 0.0, 2025-02-14 09:12:11.991
112.0, -187500.02235174447, -186903.78956839917, -187500.02235174447, -187500.02235174447, -187500.02235174447, -187500.02235174447, -187500.02235174447, -187500.02235174447, 0.034, 0.846, 0.528, 192.0, 0.0, 0.0, 0.0, 0.0, 0.0, 0.0, 0.0, 0.0, 0.0, 1.7395351319916818E9, 0.0, 2025-02-14 09:12:11.991
113.0, -187500.02235174447, -186883.69535013384, -187500.02235174447, -187500.02235174447, -187500.02235174447, -187500.02235174447, -187500.02235174447, -187500.02235174447, 0.034, 0.846, 0.528, 192.0, 0.0, 0.0, 0.0, 0.0, 0.0, 0.0, 0.0, 0.0, 0.0, 1.7395351319916954E9, 0.0, 2025-02-14 09:12:11.991
114.0, -187500.02235174447, -186894.22302177228, -187500.02235174447, -187500.02235174447, -187500.02235174447, -187500.02235174447, -187500.02235174447, -187500.02235174447, 0.034, 0.846, 0.528, 192.0, 0.0, 0.0, 0.0, 0.0, 0.0, 0.0, 0.0, 0.0, 0.0, 1.7395351319917088E9, 0.0, 2025-02-14 09:12:11.991
115.0, -187500.02235174447, -186913.24435630374, -187500.02235174447, -187500.02235174447, -187500.02235174447, -187500.02235174447, -187500.02235174447, -187500.02235174447, 0.034, 0.846, 0.528, 192.0, 0.0, 0.0, 0.0, 0.0, 0.0, 0.0, 0.0, 0.0, 0.0, 1.739535131991722E9, 0.0, 2025-02-14 09:12:11.991
116.0, -187500.02235174447, -186895.6088299285, -187500.02235174447, -187500.02235174447, -187500.02235174447, -187500.02235174447, -187500.02235174447, -187500.02235174447, 0.034, 0.846, 0.528, 192.0, 0.0, 0.0, 0.0, 0.0, 0.0, 0.0, 0.0, 0.0, 0.0, 1.7395351319917357E9, 0.0, 2025-02-14 09:12:11.991
117.0, -187500.02235174447, -186864.53990513564, -187500.02235174447, -187500.02235174447, -187500.02235174447, -187500.02235174447, -187500.02235174447, -187500.02235174447, 0.02, 0.874, 0.56, 192.0, 0.0, 160.0, 27.0, 80.0, 17.0, 128.0, 0.0, 0.0, 0.0, 1.7395351319917495E9, 0.0, 2025-02-14 09:12:11.991
118.0, -187500.02235174447, -186868.09383250403, -187500.02235174447, -187500.02235174447, -187500.02235174447, -187500.02235174447, -187500.02235174447, -187500.02235174447, 0.02, 0.874, 0.56, 192.0, 0.0, 0.0, 0.0, 0.0, 0.0, 0.0, 0.0, 0.0, 0.0, 1.7395351319917638E9, 0.0, 2025-02-14 09:12:11.991
119.0, -187500.02235174447, -186884.92469607887, -187500.02235174447, -187500.02235174447, -187500.02235174447, -187500.02235174447, -187500.02235174447, -187500.02235174447, 0.02, 0.874, 0.56, 192.0, 0.0, 0.0, 0.0, 0.0, 0.0, 0.0, 0.0, 0.0, 0.0, 1.7395351319918077E9, 0.0, 2025-02-14 09:12:11.991
120.0, -187500.02235174447, -186870.01608252717, -187500.02235174447, -187500.02235174447, -187500.02235174447, -187500.02235174447, -187500.02235174447, -187500.02235174447, 0.02, 0.874, 0.56, 192.0, 0.0, 0.0, 0.0, 0.0, 0.0, 0.0, 0.0, 0.0, 0.0, 1.7395351324695406E9, 0.0, 2025-02-14 09:12:12.469
121.0, -187500.02235174447, -186834.2979948876, -187500.02235174447, -187500.02235174447, -187500.02235174447, -187500.02235174447, -187500.02235174447, -187500.02235174447, 0.02, 0.874, 0.56, 192.0, 0.0, 0.0, 0.0, 0.0, 0.0, 0.0, 0.0, 0.0, 0.0, 1.7395351324695923E9, 0.0, 2025-02-14 09:12:12.469
122.0, -187500.02235174447, -186826.27371862816, -187500.02235174447, -187500.02235174447, -187500.02235174447, -187500.02235174447, -187500.02235174447, -187500.02235174447, 0.02, 0.874, 0.56, 192.0, 0.0, 0.0, 0.0, 0.0, 0.0, 0.0, 0.0, 0.0, 0.0, 1.739535132469615E9, 0.0, 2025-02-14 09:12:12.469
123.0, -187500.02235174447, -186837.9413292338, -187500.02235174447, -187500.02235174447, -187500.02235174447, -187500.02235174447, -187500.02235174447, -187500.02235174447, 0.02, 0.874, 0.56, 192.0, 0.0, 0.0, 0.0, 0.0, 0.0, 0.0, 0.0, 0.0, 0.0, 1.7395351324696352E9, 0.0, 2025-02-14 09:12:12.469
124.0, -187500.02235174447, -186822.00453543718, -187500.02235174447, -187500.02235174447, -187500.02235174447, -187500.02235174447, -187500.02235174447, -187500.02235174447, 0.02, 0.874, 0.56, 192.0, 0.0, 0.0, 0.0, 0.0, 0.0, 0.0, 0.0, 0.0, 0.0, 1.7395351324696543E9, 0.0, 2025-02-14 09:12:12.469
125.0, -187500.02235174447, -186781.81609890654, -187500.02235174447, -187500.02235174447, -187500.02235174447, -187500.02235174447, -187500.02235174447, -187500.02235174447, 0.02, 0.874, 0.56, 192.0, 0.0, 0.0, 0.0, 0.0, 0.0, 0.0, 0.0, 0.0, 0.0, 1.739535132469674E9, 0.0, 2025-02-14 09:12:12.469
126.0, -187500.02235174447, -186761.7218806412, -187500.02235174447, -187500.02235174447, -187500.02235174447, -187500.02235174447, -187500.02235174447, -187500.02235174447, 0.02, 0.874, 0.56, 192.0, 0.0, 0.0, 0.0, 0.0, 0.0, 0.0, 0.0, 0.0, 0.0, 1.7395351324696934E9, 0.0, 2025-02-14 09:12:12.469
127.0, -187500.02235174447, -186771.578999946, -187500.02235174447, -187500.02235174447, -187500.02235174447, -187500.02235174447, -187500.02235174447, -187500.02235174447, 0.048, 0.812, 0.512, 192.0, 1.0, 128.0, 25.0, 96.0, 16.0, 0.0, 0.0, 0.0, 0.0, 1.7395351324697125E9, 0.0, 2025-02-14 09:12:12.469
128.0, -187500.02235174447, -186764.6276074204, -187500.02235174447, -187500.02235174447, -187500.02235174447, -187500.02235174447, -187500.02235174447, -187500.02235174447, 0.048, 0.812, 0.512, 192.0, 0.0, 0.0, 0.0, 0.0, 0.0, 0.0, 0.0, 0.0, 0.0, 1.7395351324697337E9, 0.0, 2025-02-14 09:12:12.469
129.0, -187500.02235174447, -186723.41099064483, -187500.02235174447, -187500.02235174447, -187500.02235174447, -187500.02235174447, -187500.02235174447, -187500.02235174447, 0.048, 0.812, 0.512, 192.0, 0.0, 0.0, 0.0, 0.0, 0.0, 0.0, 0.0, 0.0, 0.0, 1.7395351324697528E9, 0.0, 2025-02-14 09:12:12.469
130.0, -187500.02235174447, -186698.35468511042, -187500.02235174447, -187500.02235174447, -187500.02235174447, -187500.02235174447, -187500.02235174447, -187500.02235174447, 0.048, 0.812, 0.512, 192.0, 0.0, 0.0, 0.0, 0.0, 0.0, 0.0, 0.0, 0.0, 0.0, 1.739535132469772E9, 0.0, 2025-02-14 09:12:12.469
131.0, -187500.02235174447, -186706.7812927701, -187500.02235174447, -187500.02235174447, -187500.02235174447, -187500.02235174447, -187500.02235174447, -187500.02235174447, 0.048, 0.812, 0.512, 192.0, 0.0, 0.0, 0.0, 0.0, 0.0, 0.0, 0.0, 0.0, 0.0, 1.7395351324697914E9, 0.0, 2025-02-14 09:12:12.469
132.0, -187500.02235174447, -186703.6296968019, -187500.02235174447, -187500.02235174447, -187500.02235174447, -187500.02235174447, -187500.02235174447, -187500.02235174447, 0.048, 0.812, 0.512, 192.0, 0.0, 0.0, 0.0, 0.0, 0.0, 0.0, 0.0, 0.0, 0.0, 1.7395351324698107E9, 0.0, 2025-02-14 09:12:12.469
133.0, -187500.02235174447, -186662.79305968204, -187500.02235174447, -187500.02235174447, -187500.02235174447, -187500.02235174447, -187500.02235174447, -187500.02235174447, 0.048, 0.812, 0.512, 192.0, 0.0, 0.0, 0.0, 0.0, 0.0, 0.0, 0.0, 0.0, 0.0, 1.73953513246983E9, 0.0, 2025-02-14 09:12:12.469
134.0, -187500.02235174447, -186630.53949243302, -187500.02235174447, -187500.02235174447, -187500.02235174447, -187500.02235174447, -187500.02235174447, -187500.02235174447, 0.048, 0.812, 0.512, 192.0, 0.0, 0.0, 0.0, 0.0, 0.0, 0.0, 0.0, 0.0, 0.0, 1.7395351324699028E9, 0.0, 2025-02-14 09:12:12.469
135.0, -187500.02235174447, -186633.2440535121, -187500.02235174447, -187500.02235174447, -187500.02235174447, -187500.02235174447, -187500.02235174447, -187500.02235174447, 0.048, 0.812, 0.512, 192.0, 0.0, 0.0, 0.0, 0.0, 0.0, 0.0, 0.0, 0.0, 0.0, 1.7395351324699223E9, 0.0, 2025-02-14 09:12:12.469
136.0, -187500.02235174447, -186631.3441552334, -187500.02235174447, -187500.02235174447, -187500.02235174447, -187500.02235174447, -187500.02235174447, -187500.02235174447, 0.048, 0.812, 0.512, 192.0, 0.0, 0.0, 0.0, 0.0, 0.0, 0.0, 0.0, 0.0, 0.0, 1.7395351324699414E9, 0.0, 2025-02-14 09:12:12.469
137.0, -187500.02235174447, -186591.84862278088, -187500.02235174447, -187500.02235174447, -187500.02235174447, -187500.02235174447, -187500.02235174447, -187500.02235174447, 0.032, 0.864, 0.538, 192.0, 1.0, 0.0, 27.0, 0.0, 16.0, 208.0, 0.0, 0.0, 0.0, 1.7395351324699607E9, 0.0, 2025-02-14 09:12:12.469
138.0, -187500.02235174447, -186547.0780786369, -187500.02235174447, -187500.02235174447, -187500.02235174447, -187500.02235174447, -187500.02235174447, -187500.02235174447, 0.032, 0.864, 0.538, 192.0, 0.0, 0.0, 0.0, 0.0, 0.0, 0.0, 0.0, 0.0, 0.0, 1.7395351324699807E9, 0.0, 2025-02-14 09:12:12.469
139.0, -187500.02235174447, -186531.8788924073, -187500.02235174447, -187500.02235174447, -187500.02235174447, -187500.02235174447, -187500.02235174447, -187500.02235174447, 0.032, 0.864, 0.538, 192.0, 0.0, 0.0, 0.0, 0.0, 0.0, 0.0, 0.0, 0.0, 0.0, 1.7395351324699998E9, 0.0, 2025-02-14 09:12:12.469
140.0, -187500.02235174447, -186522.89349113626, -187500.02235174447, -187500.02235174447, -187500.02235174447, -187500.02235174447, -187500.02235174447, -187500.02235174447, 0.032, 0.864, 0.538, 192.0, 0.0, 0.0, 0.0, 0.0, 0.0, 0.0, 0.0, 0.0, 0.0, 1.739535132470019E9, 0.0, 2025-02-14 09:12:12.470
141.0, -187500.02235174447, -186374.41085271965, -187500.02235174447, -187500.02235174447, -187500.02235174447, -187500.02235174447, -187500.02235174447, -187500.02235174447, 0.032, 0.864, 0.538, 192.0, 0.0, 0.0, 0.0, 0.0, 0.0, 0.0, 0.0, 0.0, 0.0, 1.739535132470038E9, 0.0, 2025-02-14 09:12:12.470
142.0, -187500.02235174447, -185769.57264775905, -187500.02235174447, -187500.02235174447, -187500.02235174447, -187500.02235174447, -187500.02235174447, -187500.02235174447, 0.032, 0.864, 0.538, 192.0, 0.0, 0.0, 0.0, 0.0, 0.0, 0.0, 0.0, 0.0, 0.0, 1.7395351324700568E9, 0.0, 2025-02-14 09:12:12.470
143.0, -187500.02235174447, -185246.9218071606, -187500.02235174447, -187500.02235174447, -187500.02235174447, -187500.02235174447, -187500.02235174447, -187500.02235174447, 0.032, 0.864, 0.538, 192.0, 0.0, 0.0, 0.0, 0.0, 0.0, 0.0, 0.0, 0.0, 0.0, 1.739535132470076E9, 0.0, 2025-02-14 09:12:12.470
144.0, -187500.02235174447, -184821.41164796494, -187500.02235174447, -187500.02235174447, -187500.02235174447, -187500.02235174447, -187500.02235174447, -187500.02235174447, 0.032, 0.864, 0.538, 192.0, 0.0, 0.0, 0.0, 0.0, 0.0, 0.0, 0.0, 0.0, 0.0, 1.7395351324700956E9, 0.0, 2025-02-14 09:12:12.470
145.0, -187500.02235174447, -183893.18840422493, -187500.02235174447, -187500.02235174447, -187500.02235174447, -187500.02235174447, -187500.02235174447, -187500.02235174447, 0.032, 0.864, 0.538, 192.0, 0.0, 0.0, 0.0, 0.0, 0.0, 0.0, 0.0, 0.0, 0.0, 1.7395351324701145E9, 0.0, 2025-02-14 09:12:12.470
146.0, -187500.02235174447, -182644.12822057348, -187500.02235174447, -187500.02235174447, -187500.02235174447, -187500.02235174447, -187500.02235174447, -187500.02235174447, 0.032, 0.864, 0.538, 192.0, 0.0, 0.0, 0.0, 0.0, 0.0, 0.0, 0.0, 0.0, 0.0, 1.7395351324701335E9, 0.0, 2025-02-14 09:12:12.470
147.0, -187500.02235174447, -181724.17512228194, -187500.02235174447, -187500.02235174447, -187500.02235174447, -187500.02235174447, -187500.02235174447, -187500.02235174447, 0.022, 0.868, 0.524, 192.0, 0.0, 176.0, 27.0, 32.0, 16.0, 96.0, 0.0, 0.0, 0.0, 1.7395351324701524E9, 0.0, 2025-02-14 09:12:12.470
148.0, -187500.02235174447, -181096.20286181007, -187500.02235174447, -187500.02235174447, -187500.02235174447, -187500.02235174447, -187500.02235174447, -187500.02235174447, 0.022, 0.868, 0.524, 192.0, 0.0, 0.0, 0.0, 0.0, 0.0, 0.0, 0.0, 0.0, 0.0, 1.739535132470199E9, 0.0, 2025-02-14 09:12:12.470
149.0, -187500.02235174447, -180176.65209491874, -187500.02235174447, -187500.02235174447, -187500.02235174447, -187500.02235174447, -187500.02235174447, -187500.02235174447, 0.022, 0.868, 0.524, 192.0, 0.0, 0.0, 0.0, 0.0, 0.0, 0.0, 0.0, 0.0, 0.0, 1.7395351324702191E9, 0.0, 2025-02-14 09:12:12.470
150.0, -187500.02235174447, -178910.20225408106, -187500.02235174447, -187500.02235174447, -187500.02235174447, -187500.02235174447, -187500.02235174447, -187500.02235174447, 0.022, 0.868, 0.524, 192.0, 0.0, 0.0, 0.0, 0.0, 0.0, 0.0, 0.0, 0.0, 0.0, 1.7395351324702387E9, 0.0, 2025-02-14 09:12:12.470
151.0, -187500.02235174447, -177880.25622132496, -187500.02235174447, -187500.02235174447, -187500.02235174447, -187500.02235174447, -187500.02235174447, -187500.02235174447, 0.022, 0.868, 0.524, 192.0, 0.0, 0.0, 0.0, 0.0, 0.0, 0.0, 0.0, 0.0, 0.0, 1.7395351324702585E9, 0.0, 2025-02-14 09:12:12.470
152.0, -187500.02235174447, -177503.76343771975, -187500.02235174447, -187500.02235174447, -187500.02235174447, -187500.02235174447, -187500.02235174447, -187500.02235174447, 0.022, 0.868, 0.524, 192.0, 0.0, 0.0, 0.0, 0.0, 0.0, 0.0, 0.0, 0.0, 0.0, 1.7395351324702775E9, 0.0, 2025-02-14 09:12:12.470
153.0, -187500.02235174447, -177006.70534452266, -187500.02235174447, -187500.02235174447, -187500.02235174447, -187500.02235174447, -187500.02235174447, -187500.02235174447, 0.022, 0.868, 0.524, 192.0, 0.0, 0.0, 0.0, 0.0, 0.0, 0.0, 0.0, 0.0, 0.0, 1.7395351324702969E9, 0.0, 2025-02-14 09:12:12.470
154.0, -187500.02235174447, -176208.50219827917, -187500.02235174447, -187500.02235174447, -187500.02235174447, -187500.02235174447, -187500.02235174447, -187500.02235174447, 0.022, 0.868, 0.524, 192.0, 0.0, 0.0, 0.0, 0.0, 0.0, 0.0, 0.0, 0.0, 0.0, 1.739535132470316E9, 0.0, 2025-02-14 09:12:12.470
155.0, -187500.02235174447, -175656.458813722, -187500.02235174447, -187500.02235174447, -187500.02235174447, -187500.02235174447, -187500.02235174447, -187500.02235174447, 0.022, 0.868, 0.524, 192.0, 0.0, 0.0, 0.0, 0.0, 0.0, 0.0, 0.0, 0.0, 0.0, 1.7395351324703355E9, 0.0, 2025-02-14 09:12:12.470
156.0, -187500.02235174447, -175574.0926354042, -187500.02235174447, -187500.02235174447, -187500.02235174447, -187500.02235174447, -187500.02235174447, -187500.02235174447, 0.022, 0.868, 0.524, 192.0, 0.0, 0.0, 0.0, 0.0, 0.0, 0.0, 0.0, 0.0, 0.0, 1.739535132470355E9, 0.0, 2025-02-14 09:12:12.470
157.0, -187500.02235174447, -175436.98703491534, -187500.02235174447, -187500.02235174447, -187500.02235174447, -187500.02235174447, -187500.02235174447, -187500.02235174447, 0.022, 0.852, 0.524, 192.0, 0.0, 176.0, 26.0, 160.0, 16.0, 96.0, 0.0, 0.0, 0.0, 1.7395351324703748E9, 0.0, 2025-02-14 09:12:12.470
158.0, -187500.02235174447, -174964.73937806362, -187500.02235174447, -187500.02235174447, -187500.02235174447, -187500.02235174447, -187500.02235174447, -187500.02235174447, 0.022, 0.852, 0.524, 192.0, 0.0, 0.0, 0.0, 0.0, 0.0, 0.0, 0.0, 0.0, 0.0, 1.7395351324703956E9, 0.0, 2025-02-14 09:12:12.470
159.0, -187500.02235174447, -174614.10756279322, -187500.02235174447, -187500.02235174447, -187500.02235174447, -187500.02235174447, -187500.02235174447, -187500.02235174447, 0.022, 0.852, 0.524, 192.0, 0.0, 0.0, 0.0, 0.0, 0.0, 0.0, 0.0, 0.0, 0.0, 1.7395351324704156E9, 0.0, 2025-02-14 09:12:12.470
160.0, -187500.02235174447, -174720.8371425673, -187500.02235174447, -187500.02235174447, -187500.02235174447, -187500.02235174447, -187500.02235174447, -187500.02235174447, 0.022, 0.852, 0.524, 192.0, 0.0, 0.0, 0.0, 0.0, 0.0, 0.0, 0.0, 0.0, 0.0, 1.7395351324704351E9, 0.0, 2025-02-14 09:12:12.470
161.0, -187500.02235174447, -174857.16043200024, -187500.02235174447, -187500.02235174447, -187500.02235174447, -187500.02235174447, -187500.02235174447, -187500.02235174447, 0.022, 0.852, 0.524, 192.0, 0.0, 0.0, 0.0, 0.0, 0.0, 0.0, 0.0, 0.0, 0.0, 1.7395351324704545E9, 0.0, 2025-02-14 09:12:12.470
162.0, -187500.02235174447, -174614.2193215155, -187500.02235174447, -187500.02235174447, -187500.02235174447, -187500.02235174447, -187500.02235174447, -187500.02235174447, 0.022, 0.852, 0.524, 192.0, 0.0, 0.0, 0.0, 0.0, 0.0, 0.0, 0.0, 0.0, 0.0, 1.739535132470474E9, 0.0, 2025-02-14 09:12:12.470
163.0, -187500.02235174447, -174369.73594066335, -187500.02235174447, -187500.02235174447, -187500.02235174447, -187500.02235174447, -187500.02235174447, -187500.02235174447, 0.022, 0.852, 0.524, 192.0, 0.0, 0.0, 0.0, 0.0, 0.0, 0.0, 0.0, 0.0, 0.0, 1.7395351324705205E9, 0.0, 2025-02-14 09:12:12.470
164.0, -187500.02235174447, -174552.4614515855, -187500.02235174447, -187500.02235174447, -187500.02235174447, -187500.02235174447, -187500.02235174447, -187500.02235174447, 0.022, 0.852, 0.524, 192.0, 0.0, 0.0, 0.0, 0.0, 0.0, 0.0, 0.0, 0.0, 0.0, 1.73953513247054E9, 0.0, 2025-02-14 09:12:12.470
165.0, -187500.02235174447, -174835.3674811563, -187500.02235174447, -187500.02235174447, -187500.02235174447, -187500.02235174447, -187500.02235174447, -187500.02235174447, 0.022, 0.852, 0.524, 192.0, 0.0, 0.0, 0.0, 0.0, 0.0, 0.0, 0.0, 0.0, 0.0, 1.7395351324705591E9, 0.0, 2025-02-14 09:12:12.470
166.0, -187500.02235174447, -174722.62528212374, -187500.02235174447, -187500.02235174447, -187500.02235174447, -187500.02235174447, -187500.02235174447, -187500.02235174447, 0.022, 0.852, 0.524, 192.0, 0.0, 0.0, 0.0, 0.0, 0.0, 0.0, 0.0, 0.0, 0.0, 1.7395351324705784E9, 0.0, 2025-02-14 09:12:12.470
167.0, -187500.02235174447, -174436.47824960688, -187500.02235174447, -187500.02235174447, -187500.02235174447, -187500.02235174447, -187500.02235174447, -187500.02235174447, 0.022, 0.872, 0.508, 192.0, 0.0, 176.0, 27.0, 64.0, 15.0, 224.0, 0.0, 0.0, 0.0, 1.7395351324705975E9, 0.0, 2025-02-14 09:12:12.470
168.0, -187500.02235174447, -174433.55017108325, -187500.02235174447, -187500.02235174447, -187500.02235174447, -187500.02235174447, -187500.02235174447, -187500.02235174447, 0.022, 0.872, 0.508, 192.0, 0.0, 0.0, 0.0, 0.0, 0.0, 0.0, 0.0, 0.0, 0.0, 1.7395351324706175E9, 0.0, 2025-02-14 09:12:12.470
169.0, -187500.02235174447, -174585.38557116815, -187500.02235174447, -187500.02235174447, -187500.02235174447, -187500.02235174447, -187500.02235174447, -187500.02235174447, 0.022, 0.872, 0.508, 192.0, 0.0, 0.0, 0.0, 0.0, 0.0, 0.0, 0.0, 0.0, 0.0, 1.7395351324706368E9, 0.0, 2025-02-14 09:12:12.470
170.0, -187500.02235174447, -174448.19056370147, -187500.02235174447, -187500.02235174447, -187500.02235174447, -187500.02235174447, -187500.02235174447, -187500.02235174447, 0.022, 0.872, 0.508, 192.0, 0.0, 0.0, 0.0, 0.0, 0.0, 0.0, 0.0, 0.0, 0.0, 1.739535132470656E9, 0.0, 2025-02-14 09:12:12.470
171.0, -187500.02235174447, -174185.49051111826, -187500.02235174447, -187500.02235174447, -187500.02235174447, -187500.02235174447, -187500.02235174447, -187500.02235174447, 0.022, 0.872, 0.508, 192.0, 0.0, 0.0, 0.0, 0.0, 0.0, 0.0, 0.0, 0.0, 0.0, 1.7395351324706757E9, 0.0, 2025-02-14 09:12:12.470
172.0, -187500.02235174447, -174353.21800151086, -187500.02235174447, -187500.02235174447, -187500.02235174447, -187500.02235174447, -187500.02235174447, -187500.02235174447, 0.022, 0.872, 0.508, 192.0, 0.0, 0.0, 0.0, 0.0, 0.0, 0.0, 0.0, 0.0, 0.0, 1.7395351324706953E9, 0.0, 2025-02-14 09:12:12.470
173.0, -187500.02235174447, -174882.529661957, -187500.02235174447, -187500.02235174447, -187500.02235174447, -187500.02235174447, -187500.02235174447, -187500.02235174447, 0.022, 0.872, 0.508, 192.0, 0.0, 0.0, 0.0, 0.0, 0.0, 0.0, 0.0, 0.0, 0.0, 1.7395351324707456E9, 0.0, 2025-02-14 09:12:12.470
174.0, -187500.02235174447, -175197.46574133227, -187500.02235174447, -187500.02235174447, -187500.02235174447, -187500.02235174447, -187500.02235174447, -187500.02235174447, 0.022, 0.872, 0.508, 192.0, 0.0, 0.0, 0.0, 0.0, 0.0, 0.0, 0.0, 0.0, 0.0, 1.739535132470768E9, 0.0, 2025-02-14 09:12:12.470
175.0, -187500.02235174447, -175254.26152399322, -187500.02235174447, -187500.02235174447, -187500.02235174447, -187500.02235174447, -187500.02235174447, -187500.02235174447, 0.022, 0.872, 0.508, 192.0, 0.0, 0.0, 0.0, 0.0, 0.0, 0.0, 0.0, 0.0, 0.0, 1.7395351324707885E9, 0.0, 2025-02-14 09:12:12.470
176.0, -187500.02235174447, -175588.77773151133, -187500.02235174447, -187500.02235174447, -187500.02235174447, -187500.02235174447, -187500.02235174447, -187500.02235174447, 0.022, 0.872, 0.508, 192.0, 0.0, 0.0, 0.0, 0.0, 0.0, 0.0, 0.0, 0.0, 0.0, 1.739535132470809E9, 0.0, 2025-02-14 09:12:12.470
177.0, -187500.02235174447, -176289.86254809648, -187500.02235174447, -187500.02235174447, -187500.02235174447, -187500.02235174447, -187500.02235174447, -187500.02235174447, 0.044, 0.87, 0.5, 192.0, 1.0, 96.0, 27.0, 48.0, 15.0, 160.0, 0.0, 0.0, 0.0, 1.7395351324708292E9, 0.0, 2025-02-14 09:12:12.470
178.0, -187500.02235174447, -176804.1314845242, -187500.02235174447, -187500.02235174447, -187500.02235174447, -187500.02235174447, -187500.02235174447, -187500.02235174447, 0.044, 0.87, 0.5, 192.0, 0.0, 0.0, 0.0, 0.0, 0.0, 0.0, 0.0, 0.0, 0.0, 1.7395351324708836E9, 0.0, 2025-02-14 09:12:12.470
179.0, -187500.02235174447, -176971.45664351663, -187500.02235174447, -187500.02235174447, -187500.02235174447, -187500.02235174447, -187500.02235174447, -187500.02235174447, 0.044, 0.87, 0.5, 192.0, 0.0, 0.0, 0.0, 0.0, 0.0, 0.0, 0.0, 0.0, 0.0, 1.7395351324709036E9, 0.0, 2025-02-14 09:12:12.470
180.0, -187500.02235174447, -177308.02921152464, -187500.02235174447, -187500.02235174447, -187500.02235174447, -187500.02235174447, -187500.02235174447, -187500.02235174447, 0.044, 0.87, 0.5, 192.0, 0.0, 0.0, 0.0, 0.0, 0.0, 0.0, 0.0, 0.0, 0.0, 1.7395351324709234E9, 0.0, 2025-02-14 09:12:12.470
181.0, -187500.02235174447, -178056.36561588832, -187500.02235174447, -187500.02235174447, -187500.02235174447, -187500.02235174447, -187500.02235174447, -187500.02235174447, 0.044, 0.87, 0.5, 192.0, 0.0, 0.0, 0.0, 0.0, 0.0, 0.0, 0.0, 0.0, 0.0, 1.739535132470943E9, 0.0, 2025-02-14 09:12:12.470
182.0, -187500.02235174447, -178805.2161103745, -187500.02235174447, -187500.02235174447, -187500.02235174447, -187500.02235174447, -187500.02235174447, -187500.02235174447, 0.044, 0.87, 0.5, 192.0, 0.0, 0.0, 0.0, 0.0, 0.0, 0.0, 0.0, 0.0, 0.0, 1.739535132470962E9, 0.0, 2025-02-14 09:12:12.470
183.0, -187500.02235174447, -178921.8698646867, -187500.02235174447, -187500.02235174447, -187500.02235174447, -187500.02235174447, -187500.02235174447, -187500.02235174447, 0.044, 0.87, 0.5, 192.0, 0.0, 0.0, 0.0, 0.0, 0.0, 0.0, 0.0, 0.0, 0.0, 1.739535132470982E9, 0.0, 2025-02-14 09:12:12.470
184.0, -187500.02235174447, -178963.2429436735, -187500.02235174447, -187500.02235174447, -187500.02235174447, -187500.02235174447, -187500.02235174447, -187500.02235174447, 0.044, 0.87, 0.5, 192.0, 0.0, 0.0, 0.0, 0.0, 0.0, 0.0, 0.0, 0.0, 0.0, 1.7395351324710016E9, 0.0, 2025-02-14 09:12:12.471
185.0, -187500.02235174447, -179414.32349852604, -187500.02235174447, -187500.02235174447, -187500.02235174447, -187500.02235174447, -187500.02235174447, -187500.02235174447, 0.044, 0.87, 0.5, 192.0, 0.0, 0.0, 0.0, 0.0, 0.0, 0.0, 0.0, 0.0, 0.0, 1.7395351324710212E9, 0.0, 2025-02-14 09:12:12.471
186.0, -187500.02235174447, -179869.4050156361, -187500.02235174447, -187500.02235174447, -187500.02235174447, -187500.02235174447, -187500.02235174447, -187500.02235174447, 0.044, 0.87, 0.5, 192.0, 0.0, 0.0, 0.0, 0.0, 0.0, 0.0, 0.0, 0.0, 0.0, 1.7395351324710412E9, 0.0, 2025-02-14 09:12:12.471
187.0, -187500.02235174447, -179930.87231288818, -187500.02235174447, -187500.02235174447, -187500.02235174447, -187500.02235174447, -187500.02235174447, -187500.02235174447, 0.03, 0.9, 0.52, 192.0, 0.0, 240.0, 28.0, 32.0, 16.0, 64.0, 0.0, 0.0, 0.0, 1.7395351324710605E9, 0.0, 2025-02-14 09:12:12.471
188.0, -187500.02235174447, -179939.18716182557, -187500.02235174447, -187500.02235174447, -187500.02235174447, -187500.02235174447, -187500.02235174447, -187500.02235174447, 0.03, 0.9, 0.52, 192.0, 0.0, 0.0, 0.0, 0.0, 0.0, 0.0, 0.0, 0.0, 0.0, 1.7395351324710815E9, 0.0, 2025-02-14 09:12:12.471
189.0, -187500.02235174447, -180340.33391956496, -187500.02235174447, -187500.02235174447, -187500.02235174447, -187500.02235174447, -187500.02235174447, -187500.02235174447, 0.03, 0.9, 0.52, 192.0, 0.0, 0.0, 0.0, 0.0, 0.0, 0.0, 0.0, 0.0, 0.0, 1.7395351324711015E9, 0.0, 2025-02-14 09:12:12.471
190.0, -187500.02235174447, -180842.7787831758, -187500.02235174447, -187500.02235174447, -187500.02235174447, -187500.02235174447, -187500.02235174447, -187500.02235174447, 0.03, 0.9, 0.52, 192.0, 0.0, 0.0, 0.0, 0.0, 0.0, 0.0, 0.0, 0.0, 0.0, 1.7395351324711225E9, 0.0, 2025-02-14 09:12:12.471
191.0, -187500.02235174447, -180968.75321492594, -187500.02235174447, -187500.02235174447, -187500.02235174447, -187500.02235174447, -187500.02235174447, -187500.02235174447, 0.03, 0.9, 0.52, 192.0, 0.0, 0.0, 0.0, 0.0, 0.0, 0.0, 0.0, 0.0, 0.0, 1.7395351324711416E9, 0.0, 2025-02-14 09:12:12.471
192.0, -187500.02235174447, -180955.3645199972, -187500.02235174447, -187500.02235174447, -187500.02235174447, -187500.02235174447, -187500.02235174447, -187500.02235174447, 0.03, 0.9, 0.52, 192.0, 0.0, 0.0, 0.0, 0.0, 0.0, 0.0, 0.0, 0.0, 0.0, 1.7395351324711628E9, 0.0, 2025-02-14 09:12:12.471
193.0, -187500.02235174447, -181319.8991203188, -187500.02235174447, -187500.02235174447, -187500.02235174447, -187500.02235174447, -187500.02235174447, -187500.02235174447, 0.03, 0.9, 0.52, 192.0, 0.0, 0.0, 0.0, 0.0, 0.0, 0.0, 0.0, 0.0, 0.0, 1.7395351324712195E9, 0.0, 2025-02-14 09:12:12.471
194.0, -187500.02235174447, -181908.46525531594, -187500.02235174447, -187500.02235174447, -187500.02235174447, -187500.02235174447, -187500.02235174447, -187500.02235174447, 0.03, 0.9, 0.52, 192.0, 0.0, 0.0, 0.0, 0.0, 0.0, 0.0, 0.0, 0.0, 0.0, 1.7395351324712396E9, 0.0, 2025-02-14 09:12:12.471
195.0, -187500.02235174447, -182190.79013953093, -187500.02235174447, -187500.02235174447, -187500.02235174447, -187500.02235174447, -187500.02235174447, -187500.02235174447, 0.03, 0.9, 0.52, 192.0, 0.0, 0.0, 0.0, 0.0, 0.0, 0.0, 0.0, 0.0, 0.0, 1.7395351324713047E9, 0.0, 2025-02-14 09:12:12.471
196.0, -187500.02235174447, -182217.88045381077, -187500.02235174447, -187500.02235174447, -187500.02235174447, -187500.02235174447, -187500.02235174447, -187500.02235174447, 0.03, 0.9, 0.52, 192.0, 0.0, 0.0, 0.0, 0.0, 0.0, 0.0, 0.0, 0.0, 0.0, 1.739535132471401E9, 0.0, 2025-02-14 09:12:12.471
197.0, -187500.02235174447, -182465.78365156456, -187500.02235174447, -187500.02235174447, -187500.02235174447, -187500.02235174447, -187500.02235174447, -187500.02235174447, 0.02, 0.87, 0.504, 192.0, 0.0, 160.0, 27.0, 48.0, 15.0, 192.0, 0.0, 0.0, 0.0, 1.739535132471422E9, 0.0, 2025-02-14 09:12:12.471
198.0, -187500.02235174447, -182929.3364798232, -187500.02235174447, -187500.02235174447, -187500.02235174447, -187500.02235174447, -187500.02235174447, -187500.02235174447, 0.02, 0.87, 0.504, 192.0, 0.0, 0.0, 0.0, 0.0, 0.0, 0.0, 0.0, 0.0, 0.0, 1.7395351324714425E9, 0.0, 2025-02-14 09:12:12.471
199.0, -187500.02235174447, -183093.19711842504, -187500.02235174447, -187500.02235174447, -187500.02235174447, -187500.02235174447, -187500.02235174447, -187500.02235174447, 0.02, 0.87, 0.504, 192.0, 0.0, 0.0, 0.0, 0.0, 0.0, 0.0, 0.0, 0.0, 0.0, 1.7395351324714615E9, 0.0, 2025-02-14 09:12:12.471
200.0, -187500.02235174447, -182912.19269182597, -187500.02235174447, -187500.02235174447, -187500.02235174447, -187500.02235174447, -187500.02235174447, -187500.02235174447, 0.02, 0.87, 0.504, 192.0, 0.0, 0.0, 0.0, 0.0, 0.0, 0.0, 0.0, 0.0, 0.0, 1.73953513247148E9, 0.0, 2025-02-14 09:12:12.471
201.0, -187500.02235174447, -182933.24803510285, -187500.02235174447, -187500.02235174447, -187500.02235174447, -187500.02235174447, -187500.02235174447, -187500.02235174447, 0.02, 0.87, 0.504, 192.0, 0.0, 0.0, 0.0, 0.0, 0.0, 0.0, 0.0, 0.0, 0.0, 1.7395351324714987E9, 0.0, 2025-02-14 09:12:12.471
202.0, -187500.02235174447, -183269.53003043294, -187500.02235174447, -187500.02235174447, -187500.02235174447, -187500.02235174447, -187500.02235174447, -187500.02235174447, 0.02, 0.87, 0.504, 192.0, 0.0, 0.0, 0.0, 0.0, 0.0, 0.0, 0.0, 0.0, 0.0, 1.739535132471517E9, 0.0, 2025-02-14 09:12:12.471
203.0, -187500.02235174447, -183388.7318836131, -187500.02235174447, -187500.02235174447, -187500.02235174447, -187500.02235174447, -187500.02235174447, -187500.02235174447, 0.02, 0.87, 0.504, 192.0, 0.0, 0.0, 0.0, 0.0, 0.0, 0.0, 0.0, 0.0, 0.0, 1.7395351324715366E9, 0.0, 2025-02-14 09:12:12.471
204.0, -187500.02235174447, -183114.58773786877, -187500.02235174447, -187500.02235174447, -187500.02235174447, -187500.02235174447, -187500.02235174447, -187500.02235174447, 0.02, 0.87, 0.504, 192.0, 0.0, 0.0, 0.0, 0.0, 0.0, 0.0, 0.0, 0.0, 0.0, 1.7395351324715557E9, 0.0, 2025-02-14 09:12:12.471
205.0, -187500.02235174447, -182957.52202958133, -187500.02235174447, -187500.02235174447, -187500.02235174447, -187500.02235174447, -187500.02235174447, -187500.02235174447, 0.02, 0.87, 0.504, 192.0, 0.0, 0.0, 0.0, 0.0, 0.0, 0.0, 0.0, 0.0, 0.0, 1.739535132471574E9, 0.0, 2025-02-14 09:12:12.471
206.0, -187500.02235174447, -183194.02583766292, -187500.02235174447, -187500.02235174447, -187500.02235174447, -187500.02235174447, -187500.02235174447, -187500.02235174447, 0.02, 0.87, 0.504, 192.0, 0.0, 0.0, 0.0, 0.0, 0.0, 0.0, 0.0, 0.0, 0.0, 1.7395351324715924E9, 0.0, 2025-02-14 09:12:12.471
207.0, -187500.02235174447, -183341.90497897923, -187500.02235174447, -187500.02235174447, -187500.02235174447, -187500.02235174447, -187500.02235174447, -187500.02235174447, 0.014, 0.838, 0.508, 192.0, 0.0, 112.0, 26.0, 48.0, 15.0, 224.0, 0.0, 0.0, 0.0, 1.7395351324716597E9, 0.0, 2025-02-14 09:12:12.471
208.0, -187500.02235174447, -183094.717037048, -187500.02235174447, -187500.02235174447, -187500.02235174447, -187500.02235174447, -187500.02235174447, -187500.02235174447, 0.014, 0.838, 0.508, 192.0, 0.0, 0.0, 0.0, 0.0, 0.0, 0.0, 0.0, 0.0, 0.0, 1.7395351324716794E9, 0.0, 2025-02-14 09:12:12.471
209.0, -187500.02235174447, -182892.50080496084, -187500.02235174447, -187500.02235174447, -187500.02235174447, -187500.02235174447, -187500.02235174447, -187500.02235174447, 0.014, 0.838, 0.508, 192.0, 0.0, 0.0, 0.0, 0.0, 0.0, 0.0, 0.0, 0.0, 0.0, 1.7395351324717E9, 0.0, 2025-02-14 09:12:12.471
210.0, -187500.02235174447, -183097.13102544917, -187500.02235174447, -187500.02235174447, -187500.02235174447, -187500.02235174447, -187500.02235174447, -187500.02235174447, 0.014, 0.838, 0.508, 192.0, 0.0, 0.0, 0.0, 0.0, 0.0, 0.0, 0.0, 0.0, 0.0, 1.7395351324717193E9, 0.0, 2025-02-14 09:12:12.471
211.0, -187500.02235174447, -183336.76407775452, -187500.02235174447, -187500.02235174447, -187500.02235174447, -187500.02235174447, -187500.02235174447, -187500.02235174447, 0.014, 0.838, 0.508, 192.0, 0.0, 0.0, 0.0, 0.0, 0.0, 0.0, 0.0, 0.0, 0.0, 1.7395351324717371E9, 0.0, 2025-02-14 09:12:12.471
212.0, -187500.02235174447, -183198.0491516649, -187500.02235174447, -187500.02235174447, -187500.02235174447, -187500.02235174447, -187500.02235174447, -187500.02235174447, 0.014, 0.838, 0.508, 192.0, 0.0, 0.0, 0.0, 0.0, 0.0, 0.0, 0.0, 0.0, 0.0, 1.7395351324717565E9, 0.0, 2025-02-14 09:12:12.471
213.0, -187500.02235174447, -182995.02825677732, -187500.02235174447, -187500.02235174447, -187500.02235174447, -187500.02235174447, -187500.02235174447, -187500.02235174447, 0.014, 0.838, 0.508, 192.0, 0.0, 0.0, 0.0, 0.0, 0.0, 0.0, 0.0, 0.0, 0.0, 1.7395351324717753E9, 0.0, 2025-02-14 09:12:12.471
214.0, -187500.02235174447, -183189.51078528297, -187500.02235174447, -187500.02235174447, -187500.02235174447, -187500.02235174447, -187500.02235174447, -187500.02235174447, 0.014, 0.838, 0.508, 192.0, 0.0, 0.0, 0.0, 0.0, 0.0, 0.0, 0.0, 0.0, 0.0, 1.7395351324717937E9, 0.0, 2025-02-14 09:12:12.471
215.0, -187500.02235174447, -183505.07271350297, -187500.02235174447, -187500.02235174447, -187500.02235174447, -187500.02235174447, -187500.02235174447, -187500.02235174447, 0.014, 0.838, 0.508, 192.0, 0.0, 0.0, 0.0, 0.0, 0.0, 0.0, 0.0, 0.0, 0.0, 1.7395351324718125E9, 0.0, 2025-02-14 09:12:12.471
216.0, -187500.02235174447, -183328.53863579498, -187500.02235174447, -187500.02235174447, -187500.02235174447, -187500.02235174447, -187500.02235174447, -187500.02235174447, 0.014, 0.838, 0.508, 192.0, 0.0, 0.0, 0.0, 0.0, 0.0, 0.0, 0.0, 0.0, 0.0, 1.7395351324718318E9, 0.0, 2025-02-14 09:12:12.471
217.0, -187500.02235174447, -182655.23703756774, -187500.02235174447, -187500.02235174447, -187500.02235174447, -187500.02235174447, -187500.02235174447, -187500.02235174447, 0.016, 0.842, 0.516, 192.0, 0.0, 128.0, 26.0, 80.0, 16.0, 32.0, 0.0, 0.0, 0.0, 1.7395351324718518E9, 0.0, 2025-02-14 09:12:12.471
218.0, -187500.02235174447, -181947.4019941571, -187500.02235174447, -187500.02235174447, -187500.02235174447, -187500.02235174447, -187500.02235174447, -187500.02235174447, 0.016, 0.842, 0.516, 192.0, 0.0, 0.0, 0.0, 0.0, 0.0, 0.0, 0.0, 0.0, 0.0, 1.7395351324718728E9, 0.0, 2025-02-14 09:12:12.471
219.0, -187500.02235174447, -181191.33188621188, -187500.02235174447, -187500.02235174447, -187500.02235174447, -187500.02235174447, -187500.02235174447, -187500.02235174447, 0.016, 0.842, 0.516, 192.0, 0.0, 0.0, 0.0, 0.0, 0.0, 0.0, 0.0, 0.0, 0.0, 1.739535132471892E9, 0.0, 2025-02-14 09:12:12.471
220.0, -187500.02235174447, -179945.78092643988, -187500.02235174447, -187500.02235174447, -187500.02235174447, -187500.02235174447, -187500.02235174447, -187500.02235174447, 0.016, 0.842, 0.516, 192.0, 0.0, 0.0, 0.0, 0.0, 0.0, 0.0, 0.0, 0.0, 0.0, 1.739535132471912E9, 0.0, 2025-02-14 09:12:12.471
221.0, -187500.02235174447, -178253.1727258173, -187500.02235174447, -187500.02235174447, -187500.02235174447, -187500.02235174447, -187500.02235174447, -187500.02235174447, 0.016, 0.842, 0.516, 192.0, 0.0, 0.0, 0.0, 0.0, 0.0, 0.0, 0.0, 0.0, 0.0, 1.739535132471948E9, 0.0, 2025-02-14 09:12:12.471
222.0, -187500.02235174447, -176755.40468161163, -187500.02235174447, -187500.02235174447, -187500.02235174447, -187500.02235174447, -187500.02235174447, -187500.02235174447, 0.016, 0.842, 0.516, 192.0, 0.0, 0.0, 0.0, 0.0, 0.0, 0.0, 0.0, 0.0, 0.0, 1.7395351324719856E9, 0.0, 2025-02-14 09:12:12.471
223.0, -187500.02235174447, -175740.74724206296, -187500.02235174447, -187500.02235174447, -187500.02235174447, -187500.02235174447, -187500.02235174447, -187500.02235174447, 0.016, 0.842, 0.516, 192.0, 0.0, 0.0, 0.0, 0.0, 0.0, 0.0, 0.0, 0.0, 0.0, 1.739535132472005E9, 0.0, 2025-02-14 09:12:12.472
224.0, -187500.02235174447, -174539.36332933468, -187500.02235174447, -187500.02235174447, -187500.02235174447, -187500.02235174447, -187500.02235174447, -187500.02235174447, 0.016, 0.842, 0.516, 192.0, 0.0, 0.0, 0.0, 0.0, 0.0, 0.0, 0.0, 0.0, 0.0, 1.7395351324720235E9, 0.0, 2025-02-14 09:12:12.472
225.0, -187500.02235174447, -173098.3016608121, -187500.02235174447, -187500.02235174447, -187500.02235174447, -187500.02235174447, -187500.02235174447, -187500.02235174447, 0.016, 0.842, 0.516, 192.0, 0.0, 0.0, 0.0, 0.0, 0.0, 0.0, 0.0, 0.0, 0.0, 1.739535132472042E9, 0.0, 2025-02-14 09:12:12.472
226.0, -187500.02235174447, -171875.32596294, -187500.02235174447, -187500.02235174447, -187500.02235174447, -187500.02235174447, -187500.02235174447, -187500.02235174447, 0.016, 0.842, 0.516, 192.0, 0.0, 0.0, 0.0, 0.0, 0.0, 0.0, 0.0, 0.0, 0.0, 1.7395351324720612E9, 0.0, 2025-02-14 09:12:12.472
227.0, -187500.02235174447, -170965.72172233128, -187500.02235174447, -187500.02235174447, -187500.02235174447, -187500.02235174447, -187500.02235174447, -187500.02235174447, 0.012, 0.852, 0.524, 192.0, 0.0, 96.0, 26.0, 160.0, 16.0, 96.0, 0.0, 0.0, 0.0, 1.7395351324720795E9, 0.0, 2025-02-14 09:12:12.472
228.0, -187500.02235174447, -169900.16936065786, -187500.02235174447, -187500.02235174447, -187500.02235174447, -187500.02235174447, -187500.02235174447, -187500.02235174447, 0.012, 0.852, 0.524, 192.0, 0.0, 0.0, 0.0, 0.0, 0.0, 0.0, 0.0, 0.0, 0.0, 1.7395351324720993E9, 0.0, 2025-02-14 09:12:12.472
229.0, -187500.02235174447, -168484.29810813643, -187500.02235174447, -187500.02235174447, -187500.02235174447, -187500.02235174447, -187500.02235174447, -187500.02235174447, 0.012, 0.852, 0.524, 192.0, 0.0, 0.0, 0.0, 0.0, 0.0, 0.0, 0.0, 0.0, 0.0, 1.7395351324721184E9, 0.0, 2025-02-14 09:12:12.472
230.0, -187500.02235174447, -167228.24182847046, -187500.02235174447, -187500.02235174447, -187500.02235174447, -187500.02235174447, -187500.02235174447, -187500.02235174447, 0.012, 0.852, 0.524, 192.0, 0.0, 0.0, 0.0, 0.0, 0.0, 0.0, 0.0, 0.0, 0.0, 1.7395351324721367E9, 0.0, 2025-02-14 09:12:12.472
231.0, -187500.02235174447, -166432.36326365033, -187500.02235174447, -187500.02235174447, -187500.02235174447, -187500.02235174447, -187500.02235174447, -187500.02235174447, 0.012, 0.852, 0.524, 192.0, 0.0, 0.0, 0.0, 0.0, 0.0, 0.0, 0.0, 0.0, 0.0, 1.7395351324721558E9, 0.0, 2025-02-14 09:12:12.472
232.0, -187500.02235174447, -165647.23588791324, -187500.02235174447, -187500.02235174447, -187500.02235174447, -187500.02235174447, -187500.02235174447, -187500.02235174447, 0.012, 0.852, 0.524, 192.0, 0.0, 0.0, 0.0, 0.0, 0.0, 0.0, 0.0, 0.0, 0.0, 1.739535132472175E9, 0.0, 2025-02-14 09:12:12.472
233.0, -187500.02235174447, -164567.87014816646, -187500.02235174447, -187500.02235174447, -187500.02235174447, -187500.02235174447, -187500.02235174447, -187500.02235174447, 0.012, 0.852, 0.524, 192.0, 0.0, 0.0, 0.0, 0.0, 0.0, 0.0, 0.0, 0.0, 0.0, 1.7395351324721944E9, 0.0, 2025-02-14 09:12:12.472
234.0, -187500.02235174447, -163589.8025142911, -187500.02235174447, -187500.02235174447, -187500.02235174447, -187500.02235174447, -187500.02235174447, -187500.02235174447, 0.012, 0.852, 0.524, 192.0, 0.0, 0.0, 0.0, 0.0, 0.0, 0.0, 0.0, 0.0, 0.0, 1.7395351324722135E9, 0.0, 2025-02-14 09:12:12.472
235.0, -187500.02235174447, -163123.96980809807, -187500.02235174447, -187500.02235174447, -187500.02235174447, -187500.02235174447, -187500.02235174447, -187500.02235174447, 0.012, 0.852, 0.524, 192.0, 0.0, 0.0, 0.0, 0.0, 0.0, 0.0, 0.0, 0.0, 0.0, 1.7395351324722333E9, 0.0, 2025-02-14 09:12:12.472
236.0, -187500.02235174447, -162816.45450788195, -187500.02235174447, -187500.02235174447, -187500.02235174447, -187500.02235174447, -187500.02235174447, -187500.02235174447, 0.012, 0.852, 0.524, 192.0, 0.0, 0.0, 0.0, 0.0, 0.0, 0.0, 0.0, 0.0, 0.0, 1.739535132472252E9, 0.0, 2025-02-14 09:12:12.472
237.0, -187500.02235174447, -162070.73325761955, -187500.02235174447, -187500.02235174447, -187500.02235174447, -187500.02235174447, -187500.02235174447, -187500.02235174447, 0.018000000000000002, 0.86, 0.516, 192.0, 0.0, 144.0, 26.0, 224.0, 16.0, 32.0, 0.0, 0.0, 0.0, 1.739535132472378E9, 0.0, 2025-02-14 09:12:12.472
238.0, -187500.02235174447, -161133.2340399306, -187500.02235174447, -187500.02235174447, -187500.02235174447, -187500.02235174447, -187500.02235174447, -187500.02235174447, 0.018000000000000002, 0.86, 0.516, 192.0, 0.0, 0.0, 0.0, 0.0, 0.0, 0.0, 0.0, 0.0, 0.0, 1.7395351324723985E9, 0.0, 2025-02-14 09:12:12.472
239.0, -187500.02235174447, -160614.22653367836, -187500.02235174447, -187500.02235174447, -187500.02235174447, -187500.02235174447, -187500.02235174447, -187500.02235174447, 0.018000000000000002, 0.86, 0.516, 192.0, 0.0, 0.0, 0.0, 0.0, 0.0, 0.0, 0.0, 0.0, 0.0, 1.7395351324724176E9, 0.0, 2025-02-14 09:12:12.472
240.0, -187500.02235174447, -160391.69256588133, -187500.02235174447, -187500.02235174447, -187500.02235174447, -187500.02235174447, -187500.02235174447, -187500.02235174447, 0.018000000000000002, 0.86, 0.516, 192.0, 0.0, 0.0, 0.0, 0.0, 0.0, 0.0, 0.0, 0.0, 0.0, 1.7395351329489014E9, 0.0, 2025-02-14 09:12:12.948
241.0, -187500.02235174447, -159958.33694438185, -187500.02235174447, -187500.02235174447, -187500.02235174447, -187500.02235174447, -187500.02235174447, -187500.02235174447, 0.018000000000000002, 0.86, 0.516, 192.0, 0.0, 0.0, 0.0, 0.0, 0.0, 0.0, 0.0, 0.0, 0.0, 1.7395351329489503E9, 0.0, 2025-02-14 09:12:12.948
242.0, -187500.02235174447, -159367.80385587263, -187500.02235174447, -187500.02235174447, -187500.02235174447, -187500.02235174447, -187500.02235174447, -187500.02235174447, 0.018000000000000002, 0.86, 0.516, 192.0, 0.0, 0.0, 0.0, 0.0, 0.0, 0.0, 0.0, 0.0, 0.0, 1.739535132948978E9, 0.0, 2025-02-14 09:12:12.948
243.0, -187500.02235174447, -159021.35181681535, -187500.02235174447, -187500.02235174447, -187500.02235174447, -187500.02235174447, -187500.02235174447, -187500.02235174447, 0.018000000000000002, 0.86, 0.516, 192.0, 0.0, 0.0, 0.0, 0.0, 0.0, 0.0, 0.0, 0.0, 0.0, 1.7395351329490056E9, 0.0, 2025-02-14 09:12:12.949
244.0, -187500.02235174447, -158795.86741875022, -187500.02235174447, -187500.02235174447, -187500.02235174447, -187500.02235174447, -187500.02235174447, -187500.02235174447, 0.018000000000000002, 0.86, 0.516, 192.0, 0.0, 0.0, 0.0, 0.0, 0.0, 0.0, 0.0, 0.0, 0.0, 1.7395351329490263E9, 0.0, 2025-02-14 09:12:12.949
245.0, -187500.02235174447, -158200.72987088322, -187500.02235174447, -187500.02235174447, -187500.02235174447, -187500.02235174447, -187500.02235174447, -187500.02235174447, 0.018000000000000002, 0.86, 0.516, 192.0, 0.0, 0.0, 0.0, 0.0, 0.0, 0.0, 0.0, 0.0, 0.0, 1.739535132949045E9, 0.0, 2025-02-14 09:12:12.949
246.0, -187500.02235174447, -157315.31021777514, -187500.02235174447, -187500.02235174447, -187500.02235174447, -187500.02235174447, -187500.02235174447, -187500.02235174447, 0.018000000000000002, 0.86, 0.516, 192.0, 0.0, 0.0, 0.0, 0.0, 0.0, 0.0, 0.0, 0.0, 0.0, 1.739535132949057E9, 0.0, 2025-02-14 09:12:12.949
247.0, -187500.02235174447, -156684.25341656845, -187500.02235174447, -187500.02235174447, -187500.02235174447, -187500.02235174447, -187500.02235174447, -187500.02235174447, 0.03, 0.878, 0.522, 192.0, 0.0, 240.0, 27.0, 112.0, 16.0, 80.0, 0.0, 0.0, 0.0, 1.7395351329490693E9, 0.0, 2025-02-14 09:12:12.949
248.0, -187500.02235174447, -156342.2493746578, -187500.02235174447, -187500.02235174447, -187500.02235174447, -187500.02235174447, -187500.02235174447, -187500.02235174447, 0.03, 0.878, 0.522, 192.0, 0.0, 0.0, 0.0, 0.0, 0.0, 0.0, 0.0, 0.0, 0.0, 1.7395351329490824E9, 0.0, 2025-02-14 09:12:12.949
249.0, -187500.02235174447, -155775.58794922687, -187500.02235174447, -187500.02235174447, -187500.02235174447, -187500.02235174447, -187500.02235174447, -187500.02235174447, 0.03, 0.878, 0.522, 192.0, 0.0, 0.0, 0.0, 0.0, 0.0, 0.0, 0.0, 0.0, 0.0, 1.7395351329490943E9, 0.0, 2025-02-14 09:12:12.949
250.0, -187500.02235174447, -154895.823287466, -187500.02235174447, -187500.02235174447, -187500.02235174447, -187500.02235174447, -187500.02235174447, -187500.02235174447, 0.03, 0.878, 0.522, 192.0, 0.0, 0.0, 0.0, 0.0, 0.0, 0.0, 0.0, 0.0, 0.0, 1.7395351329491065E9, 0.0, 2025-02-14 09:12:12.949
251.0, -187500.02235174447, -154244.82873020516, -187500.02235174447, -187500.02235174447, -187500.02235174447, -187500.02235174447, -187500.02235174447, -187500.02235174447, 0.03, 0.878, 0.522, 192.0, 0.0, 0.0, 0.0, 0.0, 0.0, 0.0, 0.0, 0.0, 0.0, 1.7395351329491186E9, 0.0, 2025-02-14 09:12:12.949
252.0, -187500.02235174447, -153988.81184921408, -187500.02235174447, -187500.02235174447, -187500.02235174447, -187500.02235174447, -187500.02235174447, -187500.02235174447, 0.03, 0.878, 0.522, 192.0, 0.0, 0.0, 0.0, 0.0, 0.0, 0.0, 0.0, 0.0, 0.0, 1.7395351329491715E9, 0.0, 2025-02-14 09:12:12.949
253.0, -187500.02235174447, -153623.18201341416, -187500.02235174447, -187500.02235174447, -187500.02235174447, -187500.02235174447, -187500.02235174447, -187500.02235174447, 0.03, 0.878, 0.522, 192.0, 0.0, 0.0, 0.0, 0.0, 0.0, 0.0, 0.0, 0.0, 0.0, 1.739535132949184E9, 0.0, 2025-02-14 09:12:12.949
254.0, -187500.02235174447, -152926.58989746452, -187500.02235174447, -187500.02235174447, -187500.02235174447, -187500.02235174447, -187500.02235174447, -187500.02235174447, 0.03, 0.878, 0.522, 192.0, 0.0, 0.0, 0.0, 0.0, 0.0, 0.0, 0.0, 0.0, 0.0, 1.739535132949196E9, 0.0, 2025-02-14 09:12:12.949
255.0, -187500.02235174447, -152366.83516107025, -187500.02235174447, -187500.02235174447, -187500.02235174447, -187500.02235174447, -187500.02235174447, -187500.02235174447, 0.03, 0.878, 0.522, 192.0, 0.0, 0.0, 0.0, 0.0, 0.0, 0.0, 0.0, 0.0, 0.0, 1.7395351329492085E9, 0.0, 2025-02-14 09:12:12.949
0.0, -187500.02235174447, -152240.50310140886, -187500.02235174447, -187500.02235174447, -187500.02235174447, -187500.02235174447, -187500.02235174447, -187500.02235174447, 0.03, 0.878, 0.522, 192.0, 0.0, 0.0, 0.0, 0.0, 0.0, 0.0, 0.0, 0.0, 0.0, 1.7395351329492204E9, 0.0, 2025-02-14 09:12:12.949
1.0, -187500.02235174447, -152127.157405276, -187500.02235174447, -187500.02235174447, -187500.02235174447, -187500.02235174447, -187500.02235174447, -187500.02235174447, 0.028, 0.876, 0.526, 192.0, 0.0, 224.0, 27.0, 96.0, 16.0, 112.0, 0.0, 0.0, 0.0, 1.7395351329492323E9, 0.0, 2025-02-14 09:12:12.949
2.0, -187500.02235174447, -151691.87953375335, -187500.02235174447, -187500.02235174447, -187500.02235174447, -187500.02235174447, -187500.02235174447, -187500.02235174447, 0.028, 0.876, 0.526, 192.0, 0.0, 0.0, 0.0, 0.0, 0.0, 0.0, 0.0, 0.0, 0.0, 1.7395351329492452E9, 0.0, 2025-02-14 09:12:12.949
3.0, -187500.02235174447, -151322.13697697365, -187500.02235174447, -187500.02235174447, -187500.02235174447, -187500.02235174447, -187500.02235174447, -187500.02235174447, 0.028, 0.876, 0.526, 192.0, 0.0, 0.0, 0.0, 0.0, 0.0, 0.0, 0.0, 0.0, 0.0, 1.7395351329492576E9, 0.0, 2025-02-14 09:12:12.949
4.0, -187500.02235174447, -151400.36808256723, -187500.02235174447, -187500.02235174447, -187500.02235174447, -187500.02235174447, -187500.02235174447, -187500.02235174447, 0.028, 0.876, 0.526, 192.0, 0.0, 0.0, 0.0, 0.0, 0.0, 0.0, 0.0, 0.0, 0.0, 1.7395351329492695E9, 0.0, 2025-02-14 09:12:12.949
5.0, -187500.02235174447, -151588.36860518082, -187500.02235174447, -187500.02235174447, -187500.02235174447, -187500.02235174447, -187500.02235174447, -187500.02235174447, 0.028, 0.876, 0.526, 192.0, 0.0, 0.0, 0.0, 0.0, 0.0, 0.0, 0.0, 0.0, 0.0, 1.7395351329492815E9, 0.0, 2025-02-14 09:12:12.949
6.0, -187500.02235174447, -151473.21241774707, -187500.02235174447, -187500.02235174447, -187500.02235174447, -187500.02235174447, -187500.02235174447, -187500.02235174447, 0.028, 0.876, 0.526, 192.0, 0.0, 0.0, 0.0, 0.0, 0.0, 0.0, 0.0, 0.0, 0.0, 1.7395351329492934E9, 0.0, 2025-02-14 09:12:12.949
7.0, -187500.02235174447, -151308.2565436669, -187500.02235174447, -187500.02235174447, -187500.02235174447, -187500.02235174447, -187500.02235174447, -187500.02235174447, 0.028, 0.876, 0.526, 192.0, 0.0, 0.0, 0.0, 0.0, 0.0, 0.0, 0.0, 0.0, 0.0, 1.7395351329493053E9, 0.0, 2025-02-14 09:12:12.949
8.0, -187500.02235174447, -151508.88580189776, -187500.02235174447, -187500.02235174447, -187500.02235174447, -187500.02235174447, -187500.02235174447, -187500.02235174447, 0.028, 0.876, 0.526, 192.0, 0.0, 0.0, 0.0, 0.0, 0.0, 0.0, 0.0, 0.0, 0.0, 1.7395351329493172E9, 0.0, 2025-02-14 09:12:12.949
9.0, -187500.02235174447, -151859.3388032125, -187500.02235174447, -187500.02235174447, -187500.02235174447, -187500.02235174447, -187500.02235174447, -187500.02235174447, 0.028, 0.876, 0.526, 192.0, 0.0, 0.0, 0.0, 0.0, 0.0, 0.0, 0.0, 0.0, 0.0, 1.739535132949329E9, 0.0, 2025-02-14 09:12:12.949
10.0, -187500.02235174447, -151901.96357988878, -187500.02235174447, -187500.02235174447, -187500.02235174447, -187500.02235174447, -187500.02235174447, -187500.02235174447, 0.028, 0.876, 0.526, 192.0, 0.0, 0.0, 0.0, 0.0, 0.0, 0.0, 0.0, 0.0, 0.0, 1.739535132949341E9, 0.0, 2025-02-14 09:12:12.949
11.0, -187500.02235174447, -151791.41185181282, -187500.02235174447, -187500.02235174447, -187500.02235174447, -187500.02235174447, -187500.02235174447, -187500.02235174447, 0.028, 0.876, 0.518, 192.0, 0.0, 224.0, 27.0, 96.0, 16.0, 48.0, 0.0, 0.0, 0.0, 1.7395351329493606E9, 0.0, 2025-02-14 09:12:12.949
12.0, -187500.02235174447, -151994.18687751138, -187500.02235174447, -187500.02235174447, -187500.02235174447, -187500.02235174447, -187500.02235174447, -187500.02235174447, 0.028, 0.876, 0.518, 192.0, 0.0, 0.0, 0.0, 0.0, 0.0, 0.0, 0.0, 0.0, 0.0, 1.7395351329493732E9, 0.0, 2025-02-14 09:12:12.949
13.0, -187500.02235174447, -152413.6173622152, -187500.02235174447, -187500.02235174447, -187500.02235174447, -187500.02235174447, -187500.02235174447, -187500.02235174447, 0.028, 0.876, 0.518, 192.0, 0.0, 0.0, 0.0, 0.0, 0.0, 0.0, 0.0, 0.0, 0.0, 1.7395351329493854E9, 0.0, 2025-02-14 09:12:12.949
14.0, -187500.02235174447, -152582.55184680843, -187500.02235174447, -187500.02235174447, -187500.02235174447, -187500.02235174447, -187500.02235174447, -187500.02235174447, 0.028, 0.876, 0.518, 192.0, 0.0, 0.0, 0.0, 0.0, 0.0, 0.0, 0.0, 0.0, 0.0, 1.7395351329493973E9, 0.0, 2025-02-14 09:12:12.949
15.0, -187500.02235174447, -152514.13315703074, -187500.02235174447, -187500.02235174447, -187500.02235174447, -187500.02235174447, -187500.02235174447, -187500.02235174447, 0.028, 0.876, 0.518, 192.0, 0.0, 0.0, 0.0, 0.0, 0.0, 0.0, 0.0, 0.0, 0.0, 1.7395351329494092E9, 0.0, 2025-02-14 09:12:12.949
16.0, -187500.02235174447, -152618.98519027059, -187500.02235174447, -187500.02235174447, -187500.02235174447, -187500.02235174447, -187500.02235174447, -187500.02235174447, 0.028, 0.876, 0.518, 192.0, 0.0, 0.0, 0.0, 0.0, 0.0, 0.0, 0.0, 0.0, 0.0, 1.7395351329494214E9, 0.0, 2025-02-14 09:12:12.949
17.0, -187500.02235174447, -152894.40338544888, -187500.02235174447, -187500.02235174447, -187500.02235174447, -187500.02235174447, -187500.02235174447, -187500.02235174447, 0.028, 0.876, 0.518, 192.0, 0.0, 0.0, 0.0, 0.0, 0.0, 0.0, 0.0, 0.0, 0.0, 1.739535132949433E9, 0.0, 2025-02-14 09:12:12.949
18.0, -187500.02235174447, -152933.60834522347, -187500.02235174447, -187500.02235174447, -187500.02235174447, -187500.02235174447, -187500.02235174447, -187500.02235174447, 0.028, 0.876, 0.518, 192.0, 0.0, 0.0, 0.0, 0.0, 0.0, 0.0, 0.0, 0.0, 0.0, 1.7395351329494455E9, 0.0, 2025-02-14 09:12:12.949
19.0, -187500.02235174447, -152668.8742838948, -187500.02235174447, -187500.02235174447, -187500.02235174447, -187500.02235174447, -187500.02235174447, -187500.02235174447, 0.028, 0.876, 0.518, 192.0, 0.0, 0.0, 0.0, 0.0, 0.0, 0.0, 0.0, 0.0, 0.0, 1.7395351329494572E9, 0.0, 2025-02-14 09:12:12.949
20.0, -187500.02235174447, -152478.16920020213, -187500.02235174447, -187500.02235174447, -187500.02235174447, -187500.02235174447, -187500.02235174447, -187500.02235174447, 0.028, 0.876, 0.518, 192.0, 0.0, 0.0, 0.0, 0.0, 0.0, 0.0, 0.0, 0.0, 0.0, 1.739535132949469E9, 0.0, 2025-02-14 09:12:12.949
21.0, -187500.02235174447, -152493.3907381762, -187500.02235174447, -187500.02235174447, -187500.02235174447, -187500.02235174447, -187500.02235174447, -187500.02235174447, 0.022, 0.87, 0.538, 192.0, 0.0, 176.0, 27.0, 48.0, 16.0, 208.0, 0.0, 0.0, 0.0, 1.7395351329494812E9, 0.0, 2025-02-14 09:12:12.949
22.0, -187500.02235174447, -152383.73307987847, -187500.02235174447, -187500.02235174447, -187500.02235174447, -187500.02235174447, -187500.02235174447, -187500.02235174447, 0.022, 0.87, 0.538, 192.0, 0.0, 0.0, 0.0, 0.0, 0.0, 0.0, 0.0, 0.0, 0.0, 1.739535132949494E9, 0.0, 2025-02-14 09:12:12.949
23.0, -187500.02235174447, -151993.0692902886, -187500.02235174447, -187500.02235174447, -187500.02235174447, -187500.02235174447, -187500.02235174447, -187500.02235174447, 0.022, 0.87, 0.538, 192.0, 0.0, 0.0, 0.0, 0.0, 0.0, 0.0, 0.0, 0.0, 0.0, 1.739535132949506E9, 0.0, 2025-02-14 09:12:12.949
24.0, -187500.02235174447, -151650.52880651102, -187500.02235174447, -187500.02235174447, -187500.02235174447, -187500.02235174447, -187500.02235174447, -187500.02235174447, 0.022, 0.87, 0.538, 192.0, 0.0, 0.0, 0.0, 0.0, 0.0, 0.0, 0.0, 0.0, 0.0, 1.739535132949518E9, 0.0, 2025-02-14 09:12:12.949
25.0, -187500.02235174447, -151567.3803171373, -187500.02235174447, -187500.02235174447, -187500.02235174447, -187500.02235174447, -187500.02235174447, -187500.02235174447, 0.022, 0.87, 0.538, 192.0, 0.0, 0.0, 0.0, 0.0, 0.0, 0.0, 0.0, 0.0, 0.0, 1.7395351329495451E9, 0.0, 2025-02-14 09:12:12.949
26.0, -187500.02235174447, -151458.23674896202, -187500.02235174447, -187500.02235174447, -187500.02235174447, -187500.02235174447, -187500.02235174447, -187500.02235174447, 0.022, 0.87, 0.538, 192.0, 0.0, 0.0, 0.0, 0.0, 0.0, 0.0, 0.0, 0.0, 0.0, 1.7395351329495573E9, 0.0, 2025-02-14 09:12:12.949
27.0, -187500.02235174447, -151076.62541587657, -187500.02235174447, -187500.02235174447, -187500.02235174447, -187500.02235174447, -187500.02235174447, -187500.02235174447, 0.022, 0.87, 0.538, 192.0, 0.0, 0.0, 0.0, 0.0, 0.0, 0.0, 0.0, 0.0, 0.0, 1.7395351329495695E9, 0.0, 2025-02-14 09:12:12.949
28.0, -187500.02235174447, -150688.28620771007, -187500.02235174447, -187500.02235174447, -187500.02235174447, -187500.02235174447, -187500.02235174447, -187500.02235174447, 0.022, 0.87, 0.538, 192.0, 0.0, 0.0, 0.0, 0.0, 0.0, 0.0, 0.0, 0.0, 0.0, 1.7395351329495816E9, 0.0, 2025-02-14 09:12:12.949
29.0, -187500.02235174447, -150564.9939852946, -187500.02235174447, -187500.02235174447, -187500.02235174447, -187500.02235174447, -187500.02235174447, -187500.02235174447, 0.022, 0.87, 0.538, 192.0, 0.0, 0.0, 0.0, 0.0, 0.0, 0.0, 0.0, 0.0, 0.0, 1.7395351329495935E9, 0.0, 2025-02-14 09:12:12.949
30.0, -187500.02235174447, -150500.75507173003, -187500.02235174447, -187500.02235174447, -187500.02235174447, -187500.02235174447, -187500.02235174447, -187500.02235174447, 0.022, 0.87, 0.538, 192.0, 0.0, 0.0, 0.0, 0.0, 0.0, 0.0, 0.0, 0.0, 0.0, 1.7395351329496057E9, 0.0, 2025-02-14 09:12:12.949
31.0, -187500.02235174447, -150226.3650567967, -187500.02235174447, -187500.02235174447, -187500.02235174447, -187500.02235174447, -187500.02235174447, -187500.02235174447, 0.01, 0.836, 0.544, 192.0, 0.0, 80.0, 26.0, 32.0, 17.0, 0.0, 0.0, 0.0, 0.0, 1.739535132949618E9, 0.0, 2025-02-14 09:12:12.949
32.0, -187500.02235174447, -149928.17043401842, -187500.02235174447, -187500.02235174447, -187500.02235174447, -187500.02235174447, -187500.02235174447, -187500.02235174447, 0.01, 0.836, 0.544, 192.0, 0.0, 0.0, 0.0, 0.0, 0.0, 0.0, 0.0, 0.0, 0.0, 1.7395351329496307E9, 0.0, 2025-02-14 09:12:12.949
33.0, -187500.02235174447, -149918.7379978583, -187500.02235174447, -187500.02235174447, -187500.02235174447, -187500.02235174447, -187500.02235174447, -187500.02235174447, 0.01, 0.836, 0.544, 192.0, 0.0, 0.0, 0.0, 0.0, 0.0, 0.0, 0.0, 0.0, 0.0, 1.7395351329496427E9, 0.0, 2025-02-14 09:12:12.949
34.0, -187500.02235174447, -150069.65697642052, -187500.02235174447, -187500.02235174447, -187500.02235174447, -187500.02235174447, -187500.02235174447, -187500.02235174447, 0.01, 0.836, 0.544, 192.0, 0.0, 0.0, 0.0, 0.0, 0.0, 0.0, 0.0, 0.0, 0.0, 1.7395351329496548E9, 0.0, 2025-02-14 09:12:12.949
35.0, -187500.02235174447, -150059.24106350436, -187500.02235174447, -187500.02235174447, -187500.02235174447, -187500.02235174447, -187500.02235174447, -187500.02235174447, 0.01, 0.836, 0.544, 192.0, 0.0, 0.0, 0.0, 0.0, 0.0, 0.0, 0.0, 0.0, 0.0, 1.7395351329496665E9, 0.0, 2025-02-14 09:12:12.949
36.0, -187500.02235174447, -149936.95466958938, -187500.02235174447, -187500.02235174447, -187500.02235174447, -187500.02235174447, -187500.02235174447, -187500.02235174447, 0.01, 0.836, 0.544, 192.0, 0.0, 0.0, 0.0, 0.0, 0.0, 0.0, 0.0, 0.0, 0.0, 1.7395351329496787E9, 0.0, 2025-02-14 09:12:12.949
37.0, -187500.02235174447, -149965.14021934752, -187500.02235174447, -187500.02235174447, -187500.02235174447, -187500.02235174447, -187500.02235174447, -187500.02235174447, 0.01, 0.836, 0.544, 192.0, 0.0, 0.0, 0.0, 0.0, 0.0, 0.0, 0.0, 0.0, 0.0, 1.7395351329496908E9, 0.0, 2025-02-14 09:12:12.949
38.0, -187500.02235174447, -150108.97369491743, -187500.02235174447, -187500.02235174447, -187500.02235174447, -187500.02235174447, -187500.02235174447, -187500.02235174447, 0.01, 0.836, 0.544, 192.0, 0.0, 0.0, 0.0, 0.0, 0.0, 0.0, 0.0, 0.0, 0.0, 1.7395351329497027E9, 0.0, 2025-02-14 09:12:12.949
39.0, -187500.02235174447, -150094.48976451036, -187500.02235174447, -187500.02235174447, -187500.02235174447, -187500.02235174447, -187500.02235174447, -187500.02235174447, 0.01, 0.836, 0.544, 192.0, 0.0, 0.0, 0.0, 0.0, 0.0, 0.0, 0.0, 0.0, 0.0, 1.739535132949715E9, 0.0, 2025-02-14 09:12:12.949
40.0, -187500.02235174447, -149910.35609368756, -187500.02235174447, -187500.02235174447, -187500.02235174447, -187500.02235174447, -187500.02235174447, -187500.02235174447, 0.01, 0.836, 0.544, 192.0, 0.0, 0.0, 0.0, 0.0, 0.0, 0.0, 0.0, 0.0, 0.0, 1.739535132949733E9, 0.0, 2025-02-14 09:12:12.949
41.0, -187500.02235174447, -149815.04825533013, -187500.02235174447, -187500.02235174447, -187500.02235174447, -187500.02235174447, -187500.02235174447, -187500.02235174447, 0.014, 0.8200000000000001, 0.55, 192.0, 0.0, 112.0, 25.0, 160.0, 17.0, 48.0, 0.0, 0.0, 0.0, 1.739535132949745E9, 0.0, 2025-02-14 09:12:12.949
42.0, -187500.02235174447, -149825.8664996465, -187500.02235174447, -187500.02235174447, -187500.02235174447, -187500.02235174447, -187500.02235174447, -187500.02235174447, 0.014, 0.8200000000000001, 0.55, 192.0, 0.0, 0.0, 0.0, 0.0, 0.0, 0.0, 0.0, 0.0, 0.0, 1.7395351329497576E9, 0.0, 2025-02-14 09:12:12.949
43.0, -187500.02235174447, -149666.0738785355, -187500.02235174447, -187500.02235174447, -187500.02235174447, -187500.02235174447, -187500.02235174447, -187500.02235174447, 0.014, 0.8200000000000001, 0.55, 192.0, 0.0, 0.0, 0.0, 0.0, 0.0, 0.0, 0.0, 0.0, 0.0, 1.7395351329497695E9, 0.0, 2025-02-14 09:12:12.949
44.0, -187500.02235174447, -149215.97680043898, -187500.02235174447, -187500.02235174447, -187500.02235174447, -187500.02235174447, -187500.02235174447, -187500.02235174447, 0.014, 0.8200000000000001, 0.55, 192.0, 0.0, 0.0, 0.0, 0.0, 0.0, 0.0, 0.0, 0.0, 0.0, 1.739535132949782E9, 0.0, 2025-02-14 09:12:12.949
45.0, -187500.02235174447, -148688.5426865271, -187500.02235174447, -187500.02235174447, -187500.02235174447, -187500.02235174447, -187500.02235174447, -187500.02235174447, 0.014, 0.8200000000000001, 0.55, 192.0, 0.0, 0.0, 0.0, 0.0, 0.0, 0.0, 0.0, 0.0, 0.0, 1.739535132949794E9, 0.0, 2025-02-14 09:12:12.949
46.0, -187500.02235174447, -148187.50598281695, -187500.02235174447, -187500.02235174447, -187500.02235174447, -187500.02235174447, -187500.02235174447, -187500.02235174447, 0.014, 0.8200000000000001, 0.55, 192.0, 0.0, 0.0, 0.0, 0.0, 0.0, 0.0, 0.0, 0.0, 0.0, 1.7395351329498057E9, 0.0, 2025-02-14 09:12:12.949
47.0, -187500.02235174447, -147525.80493996202, -187500.02235174447, -187500.02235174447, -187500.02235174447, -187500.02235174447, -187500.02235174447, -187500.02235174447, 0.014, 0.8200000000000001, 0.55, 192.0, 0.0, 0.0, 0.0, 0.0, 0.0, 0.0, 0.0, 0.0, 0.0, 1.739535132949818E9, 0.0, 2025-02-14 09:12:12.949
48.0, -187500.02235174447, -146673.97995877027, -187500.02235174447, -187500.02235174447, -187500.02235174447, -187500.02235174447, -187500.02235174447, -187500.02235174447, 0.014, 0.8200000000000001, 0.55, 192.0, 0.0, 0.0, 0.0, 0.0, 0.0, 0.0, 0.0, 0.0, 0.0, 1.7395351329498298E9, 0.0, 2025-02-14 09:12:12.949
49.0, -187500.02235174447, -145901.05663550575, -187500.02235174447, -187500.02235174447, -187500.02235174447, -187500.02235174447, -187500.02235174447, -187500.02235174447, 0.014, 0.8200000000000001, 0.55, 192.0, 0.0, 0.0, 0.0, 0.0, 0.0, 0.0, 0.0, 0.0, 0.0, 1.739535132949842E9, 0.0, 2025-02-14 09:12:12.949
50.0, -187500.02235174447, -145364.77123078957, -187500.02235174447, -187500.02235174447, -187500.02235174447, -187500.02235174447, -187500.02235174447, -187500.02235174447, 0.014, 0.8200000000000001, 0.55, 192.0, 0.0, 0.0, 0.0, 0.0, 0.0, 0.0, 0.0, 0.0, 0.0, 1.739535132949854E9, 0.0, 2025-02-14 09:12:12.949
51.0, -187500.02235174447, -144841.85216925768, -187500.02235174447, -187500.02235174447, -187500.02235174447, -187500.02235174447, -187500.02235174447, -187500.02235174447, 0.026000000000000002, 0.796, 0.538, 192.0, 0.0, 208.0, 24.0, 224.0, 16.0, 208.0, 0.0, 0.0, 0.0, 1.739535132949866E9, 0.0, 2025-02-14 09:12:12.949
52.0, -187500.02235174447, -144153.95488190115, -187500.02235174447, -187500.02235174447, -187500.02235174447, -187500.02235174447, -187500.02235174447, -187500.02235174447, 0.026000000000000002, 0.796, 0.538, 192.0, 0.0, 0.0, 0.0, 0.0, 0.0, 0.0, 0.0, 0.0, 0.0, 1.7395351329498785E9, 0.0, 2025-02-14 09:12:12.949
53.0, -187500.02235174447, -143478.44046097284, -187500.02235174447, -187500.02235174447, -187500.02235174447, -187500.02235174447, -187500.02235174447, -187500.02235174447, 0.026000000000000002, 0.796, 0.538, 192.0, 0.0, 0.0, 0.0, 0.0, 0.0, 0.0, 0.0, 0.0, 0.0, 1.7395351329498904E9, 0.0, 2025-02-14 09:12:12.949
54.0, -187500.02235174447, -143075.46086018812, -187500.02235174447, -187500.02235174447, -187500.02235174447, -187500.02235174447, -187500.02235174447, -187500.02235174447, 0.026000000000000002, 0.796, 0.538, 192.0, 0.0, 0.0, 0.0, 0.0, 0.0, 0.0, 0.0, 0.0, 0.0, 1.7395351329499025E9, 0.0, 2025-02-14 09:12:12.949
55.0, -187500.02235174447, -142787.36922590368, -187500.02235174447, -187500.02235174447, -187500.02235174447, -187500.02235174447, -187500.02235174447, -187500.02235174447, 0.026000000000000002, 0.796, 0.538, 192.0, 0.0, 0.0, 0.0, 0.0, 0.0, 0.0, 0.0, 0.0, 0.0, 1.739535132949921E9, 0.0, 2025-02-14 09:12:12.949
56.0, -187500.02235174447, -141673.31357876226, -187500.02235174447, -187500.02235174447, -187500.02235174447, -187500.02235174447, -187500.02235174447, -187500.02235174447, 0.026000000000000002, 0.796, 0.538, 192.0, 0.0, 0.0, 0.0, 0.0, 0.0, 0.0, 0.0, 0.0, 0.0, 1.7395351329499328E9, 0.0, 2025-02-14 09:12:12.949
57.0, -187500.02235174447, -128615.96090983879, -187500.02235174447, -187500.02235174447, -187500.02235174447, -187500.02235174447, -187500.02235174447, -187500.02235174447, 0.026000000000000002, 0.796, 0.538, 192.0, 0.0, 0.0, 0.0, 0.0, 0.0, 0.0, 0.0, 0.0, 0.0, 1.7395351329499447E9, 0.0, 2025-02-14 09:12:12.949
58.0, -187500.02235174447, -111369.80192301297, -187500.02235174447, -187500.02235174447, -187500.02235174447, -187500.02235174447, -187500.02235174447, -187500.02235174447, 0.026000000000000002, 0.796, 0.538, 192.0, 0.0, 0.0, 0.0, 0.0, 0.0, 0.0, 0.0, 0.0, 0.0, 1.7395351329499567E9, 0.0, 2025-02-14 09:12:12.949
59.0, -187500.02235174447, -105160.04027843956, -187500.02235174447, -187500.02235174447, -187500.02235174447, -187500.02235174447, -187500.02235174447, -187500.02235174447, 0.026000000000000002, 0.796, 0.538, 192.0, 0.0, 0.0, 0.0, 0.0, 0.0, 0.0, 0.0, 0.0, 0.0, 1.7395351329499688E9, 0.0, 2025-02-14 09:12:12.949
60.0, -187500.02235174447, -99647.49659866055, -187500.02235174447, -187500.02235174447, -187500.02235174447, -187500.02235174447, -187500.02235174447, -187500.02235174447, 0.026000000000000002, 0.796, 0.538, 192.0, 0.0, 0.0, 0.0, 0.0, 0.0, 0.0, 0.0, 0.0, 0.0, 1.7395351329499805E9, 0.0, 2025-02-14 09:12:12.949
61.0, -187500.02235174447, -96088.27186683082, -187500.02235174447, -187500.02235174447, -187500.02235174447, -187500.02235174447, -187500.02235174447, -187500.02235174447, 0.036000000000000004, 0.796, 0.518, 192.0, 1.0, 32.0, 24.0, 224.0, 16.0, 48.0, 0.0, 0.0, 0.0, 1.7395351329499924E9, 0.0, 2025-02-14 09:12:12.949
62.0, -187500.02235174447, -94198.52128011243, -187500.02235174447, -187500.02235174447, -187500.02235174447, -187500.02235174447, -187500.02235174447, -187500.02235174447, 0.036000000000000004, 0.796, 0.518, 192.0, 0.0, 0.0, 0.0, 0.0, 0.0, 0.0, 0.0, 0.0, 0.0, 1.7395351329500053E9, 0.0, 2025-02-14 09:12:12.950
63.0, -187500.02235174447, -93310.06178975843, -187500.02235174447, -187500.02235174447, -187500.02235174447, -187500.02235174447, -187500.02235174447, -187500.02235174447, 0.036000000000000004, 0.796, 0.518, 192.0, 0.0, 0.0, 0.0, 0.0, 0.0, 0.0, 0.0, 0.0, 0.0, 1.7395351329500175E9, 0.0, 2025-02-14 09:12:12.950
64.0, -187500.02235174447, -92732.3362508221, -187500.02235174447, -187500.02235174447, -187500.02235174447, -187500.02235174447, -187500.02235174447, -187500.02235174447, 0.036000000000000004, 0.796, 0.518, 192.0, 0.0, 0.0, 0.0, 0.0, 0.0, 0.0, 0.0, 0.0, 0.0, 1.7395351329500294E9, 0.0, 2025-02-14 09:12:12.950
65.0, -187500.02235174447, -91886.25566795537, -187500.02235174447, -187500.02235174447, -187500.02235174447, -187500.02235174447, -187500.02235174447, -187500.02235174447, 0.036000000000000004, 0.796, 0.518, 192.0, 0.0, 0.0, 0.0, 0.0, 0.0, 0.0, 0.0, 0.0, 0.0, 1.7395351329500413E9, 0.0, 2025-02-14 09:12:12.950
66.0, -187500.02235174447, -91259.53510517301, -187500.02235174447, -187500.02235174447, -187500.02235174447, -187500.02235174447, -187500.02235174447, -187500.02235174447, 0.036000000000000004, 0.796, 0.518, 192.0, 0.0, 0.0, 0.0, 0.0, 0.0, 0.0, 0.0, 0.0, 0.0, 1.7395351329500535E9, 0.0, 2025-02-14 09:12:12.950
67.0, -187500.02235174447, -91102.69291433012, -187500.02235174447, -187500.02235174447, -187500.02235174447, -187500.02235174447, -187500.02235174447, -187500.02235174447, 0.036000000000000004, 0.796, 0.518, 192.0, 0.0, 0.0, 0.0, 0.0, 0.0, 0.0, 0.0, 0.0, 0.0, 1.7395351329500654E9, 0.0, 2025-02-14 09:12:12.950
68.0, -187500.02235174447, -91187.24956360455, -187500.02235174447, -187500.02235174447, -187500.02235174447, -187500.02235174447, -187500.02235174447, -187500.02235174447, 0.036000000000000004, 0.796, 0.518, 192.0, 0.0, 0.0, 0.0, 0.0, 0.0, 0.0, 0.0, 0.0, 0.0, 1.7395351329500773E9, 0.0, 2025-02-14 09:12:12.950
69.0, -187500.02235174447, -91336.29099563253, -187500.02235174447, -187500.02235174447, -187500.02235174447, -187500.02235174447, -187500.02235174447, -187500.02235174447, 0.036000000000000004, 0.796, 0.518, 192.0, 0.0, 0.0, 0.0, 0.0, 0.0, 0.0, 0.0, 0.0, 0.0, 1.7395351329500895E9, 0.0, 2025-02-14 09:12:12.950
70.0, -187500.02235174447, -91715.77891299473, -187500.02235174447, -187500.02235174447, -187500.02235174447, -187500.02235174447, -187500.02235174447, -187500.02235174447, 0.036000000000000004, 0.796, 0.518, 192.0, 0.0, 0.0, 0.0, 0.0, 0.0, 0.0, 0.0, 0.0, 0.0, 1.7395351329501076E9, 0.0, 2025-02-14 09:12:12.950
71.0, -187500.02235174447, -92404.50321489612, -187500.02235174447, -187500.02235174447, -187500.02235174447, -187500.02235174447, -187500.02235174447, -187500.02235174447, 0.034, 0.85, 0.54, 192.0, 1.0, 16.0, 26.0, 144.0, 16.0, 224.0, 0.0, 0.0, 0.0, 1.7395351329501195E9, 0.0, 2025-02-14 09:12:12.950
72.0, -187500.02235174447, -93121.74834272247, -187500.02235174447, -187500.02235174447, -187500.02235174447, -187500.02235174447, -187500.02235174447, -187500.02235174447, 0.034, 0.85, 0.54, 192.0, 0.0, 0.0, 0.0, 0.0, 0.0, 0.0, 0.0, 0.0, 0.0, 1.7395351329501324E9, 0.0, 2025-02-14 09:12:12.950
73.0, -187500.02235174447, -93678.73146280427, -187500.02235174447, -187500.02235174447, -187500.02235174447, -187500.02235174447, -187500.02235174447, -187500.02235174447, 0.034, 0.85, 0.54, 192.0, 0.0, 0.0, 0.0, 0.0, 0.0, 0.0, 0.0, 0.0, 0.0, 1.7395351329501443E9, 0.0, 2025-02-14 09:12:12.950
74.0, -187500.02235174447, -94281.42390029716, -187500.02235174447, -187500.02235174447, -187500.02235174447, -187500.02235174447, -187500.02235174447, -187500.02235174447, 0.034, 0.85, 0.54, 192.0, 0.0, 0.0, 0.0, 0.0, 0.0, 0.0, 0.0, 0.0, 0.0, 1.7395351329501565E9, 0.0, 2025-02-14 09:12:12.950
75.0, -187500.02235174447, -95115.92627953606, -187500.02235174447, -187500.02235174447, -187500.02235174447, -187500.02235174447, -187500.02235174447, -187500.02235174447, 0.034, 0.85, 0.54, 192.0, 0.0, 0.0, 0.0, 0.0, 0.0, 0.0, 0.0, 0.0, 0.0, 1.7395351329501753E9, 0.0, 2025-02-14 09:12:12.950
76.0, -187500.02235174447, -95980.31294111168, -187500.02235174447, -187500.02235174447, -187500.02235174447, -187500.02235174447, -187500.02235174447, -187500.02235174447, 0.034, 0.85, 0.54, 192.0, 0.0, 0.0, 0.0, 0.0, 0.0, 0.0, 0.0, 0.0, 0.0, 1.7395351329501874E9, 0.0, 2025-02-14 09:12:12.950
77.0, -187500.02235174447, -96649.4124113813, -187500.02235174447, -187500.02235174447, -187500.02235174447, -187500.02235174447, -187500.02235174447, -187500.02235174447, 0.034, 0.85, 0.54, 192.0, 0.0, 0.0, 0.0, 0.0, 0.0, 0.0, 0.0, 0.0, 0.0, 1.7395351329501996E9, 0.0, 2025-02-14 09:12:12.950
78.0, -187500.02235174447, -97287.55471558032, -187500.02235174447, -187500.02235174447, -187500.02235174447, -187500.02235174447, -187500.02235174447, -187500.02235174447, 0.034, 0.85, 0.54, 192.0, 0.0, 0.0, 0.0, 0.0, 0.0, 0.0, 0.0, 0.0, 0.0, 1.7395351329502115E9, 0.0, 2025-02-14 09:12:12.950
79.0, -187500.02235174447, -98133.4117810025, -187500.02235174447, -187500.02235174447, -187500.02235174447, -187500.02235174447, -187500.02235174447, -187500.02235174447, 0.034, 0.85, 0.54, 192.0, 0.0, 0.0, 0.0, 0.0, 0.0, 0.0, 0.0, 0.0, 0.0, 1.7395351329502237E9, 0.0, 2025-02-14 09:12:12.950
80.0, -187500.02235174447, -99050.16857983691, -187500.02235174447, -187500.02235174447, -187500.02235174447, -187500.02235174447, -187500.02235174447, -187500.02235174447, 0.034, 0.85, 0.54, 192.0, 0.0, 0.0, 0.0, 0.0, 0.0, 0.0, 0.0, 0.0, 0.0, 1.7395351329502356E9, 0.0, 2025-02-14 09:12:12.950
81.0, -187500.02235174447, -99777.4496409237, -187500.02235174447, -187500.02235174447, -187500.02235174447, -187500.02235174447, -187500.02235174447, -187500.02235174447, 0.028, 0.876, 0.554, 192.0, 0.0, 224.0, 27.0, 96.0, 17.0, 80.0, 0.0, 0.0, 0.0, 1.7395351329502475E9, 0.0, 2025-02-14 09:12:12.950
82.0, -187500.02235174447, -100412.30623868779, -187500.02235174447, -187500.02235174447, -187500.02235174447, -187500.02235174447, -187500.02235174447, -187500.02235174447, 0.028, 0.876, 0.554, 192.0, 0.0, 0.0, 0.0, 0.0, 0.0, 0.0, 0.0, 0.0, 0.0, 1.73953513295026E9, 0.0, 2025-02-14 09:12:12.950
83.0, -187500.02235174447, -101227.00497233927, -187500.02235174447, -187500.02235174447, -187500.02235174447, -187500.02235174447, -187500.02235174447, -187500.02235174447, 0.028, 0.876, 0.554, 192.0, 0.0, 0.0, 0.0, 0.0, 0.0, 0.0, 0.0, 0.0, 0.0, 1.7395351329502718E9, 0.0, 2025-02-14 09:12:12.950
84.0, -187500.02235174447, -102153.6635939674, -187500.02235174447, -187500.02235174447, -187500.02235174447, -187500.02235174447, -187500.02235174447, -187500.02235174447, 0.028, 0.876, 0.554, 192.0, 0.0, 0.0, 0.0, 0.0, 0.0, 0.0, 0.0, 0.0, 0.0, 1.7395351329502835E9, 0.0, 2025-02-14 09:12:12.950
85.0, -187500.02235174447, -102910.42660599072, -187500.02235174447, -187500.02235174447, -187500.02235174447, -187500.02235174447, -187500.02235174447, -187500.02235174447, 0.028, 0.876, 0.554, 192.0, 0.0, 0.0, 0.0, 0.0, 0.0, 0.0, 0.0, 0.0, 0.0, 1.739535132950302E9, 0.0, 2025-02-14 09:12:12.950
86.0, -187500.02235174447, -103528.42998843551, -187500.02235174447, -187500.02235174447, -187500.02235174447, -187500.02235174447, -187500.02235174447, -187500.02235174447, 0.028, 0.876, 0.554, 192.0, 0.0, 0.0, 0.0, 0.0, 0.0, 0.0, 0.0, 0.0, 0.0, 1.739535132950314E9, 0.0, 2025-02-14 09:12:12.950
87.0, -187500.02235174447, -104291.87617205098, -187500.02235174447, -187500.02235174447, -187500.02235174447, -187500.02235174447, -187500.02235174447, -187500.02235174447, 0.028, 0.876, 0.554, 192.0, 0.0, 0.0, 0.0, 0.0, 0.0, 0.0, 0.0, 0.0, 0.0, 1.7395351329503257E9, 0.0, 2025-02-14 09:12:12.950
88.0, -187500.02235174447, -105206.66601737334, -187500.02235174447, -187500.02235174447, -187500.02235174447, -187500.02235174447, -187500.02235174447, -187500.02235174447, 0.028, 0.876, 0.554, 192.0, 0.0, 0.0, 0.0, 0.0, 0.0, 0.0, 0.0, 0.0, 0.0, 1.739535132950338E9, 0.0, 2025-02-14 09:12:12.950
89.0, -187500.02235174447, -105988.59709365334, -187500.02235174447, -187500.02235174447, -187500.02235174447, -187500.02235174447, -187500.02235174447, -187500.02235174447, 0.028, 0.876, 0.554, 192.0, 0.0, 0.0, 0.0, 0.0, 0.0, 0.0, 0.0, 0.0, 0.0, 1.73953513295035E9, 0.0, 2025-02-14 09:12:12.950
90.0, -187500.02235174447, -106597.12333644908, -187500.02235174447, -187500.02235174447, -187500.02235174447, -187500.02235174447, -187500.02235174447, -187500.02235174447, 0.028, 0.876, 0.554, 192.0, 0.0, 0.0, 0.0, 0.0, 0.0, 0.0, 0.0, 0.0, 0.0, 1.7395351329503617E9, 0.0, 2025-02-14 09:12:12.950
91.0, -187500.02235174447, -107309.80870840653, -187500.02235174447, -187500.02235174447, -187500.02235174447, -187500.02235174447, -187500.02235174447, -187500.02235174447, 0.028, 0.86, 0.536, 192.0, 0.0, 224.0, 26.0, 224.0, 16.0, 192.0, 0.0, 0.0, 0.0, 1.7395351329503736E9, 0.0, 2025-02-14 09:12:12.950
92.0, -187500.02235174447, -108205.0407773305, -187500.02235174447, -187500.02235174447, -187500.02235174447, -187500.02235174447, -187500.02235174447, -187500.02235174447, 0.028, 0.86, 0.536, 192.0, 0.0, 0.0, 0.0, 0.0, 0.0, 0.0, 0.0, 0.0, 0.0, 1.7395351329503863E9, 0.0, 2025-02-14 09:12:12.950
93.0, -187500.02235174447, -109009.14478411018, -187500.02235174447, -187500.02235174447, -187500.02235174447, -187500.02235174447, -187500.02235174447, -187500.02235174447, 0.028, 0.86, 0.536, 192.0, 0.0, 0.0, 0.0, 0.0, 0.0, 0.0, 0.0, 0.0, 0.0, 1.7395351329503984E9, 0.0, 2025-02-14 09:12:12.950
94.0, -187500.02235174447, -109614.2735617487, -187500.02235174447, -187500.02235174447, -187500.02235174447, -187500.02235174447, -187500.02235174447, -187500.02235174447, 0.028, 0.86, 0.536, 192.0, 0.0, 0.0, 0.0, 0.0, 0.0, 0.0, 0.0, 0.0, 0.0, 1.7395351329504104E9, 0.0, 2025-02-14 09:12:12.950
95.0, -187500.02235174447, -110279.528531972, -187500.02235174447, -187500.02235174447, -187500.02235174447, -187500.02235174447, -187500.02235174447, -187500.02235174447, 0.028, 0.86, 0.536, 192.0, 0.0, 0.0, 0.0, 0.0, 0.0, 0.0, 0.0, 0.0, 0.0, 1.7395351329504223E9, 0.0, 2025-02-14 09:12:12.950
96.0, -187500.02235174447, -111151.11245526225, -187500.02235174447, -187500.02235174447, -187500.02235174447, -187500.02235174447, -187500.02235174447, -187500.02235174447, 0.028, 0.86, 0.536, 192.0, 0.0, 0.0, 0.0, 0.0, 0.0, 0.0, 0.0, 0.0, 0.0, 1.739535132950434E9, 0.0, 2025-02-14 09:12:12.950
97.0, -187500.02235174447, -111989.54874152527, -187500.02235174447, -187500.02235174447, -187500.02235174447, -187500.02235174447, -187500.02235174447, -187500.02235174447, 0.028, 0.86, 0.536, 192.0, 0.0, 0.0, 0.0, 0.0, 0.0, 0.0, 0.0, 0.0, 0.0, 1.739535132950446E9, 0.0, 2025-02-14 09:12:12.950
98.0, -187500.02235174447, -112617.4762985082, -187500.02235174447, -187500.02235174447, -187500.02235174447, -187500.02235174447, -187500.02235174447, -187500.02235174447, 0.028, 0.86, 0.536, 192.0, 0.0, 0.0, 0.0, 0.0, 0.0, 0.0, 0.0, 0.0, 0.0, 1.739535132950458E9, 0.0, 2025-02-14 09:12:12.950
99.0, -187500.02235174447, -113255.39508526267, -187500.02235174447, -187500.02235174447, -187500.02235174447, -187500.02235174447, -187500.02235174447, -187500.02235174447, 0.028, 0.86, 0.536, 192.0, 0.0, 0.0, 0.0, 0.0, 0.0, 0.0, 0.0, 0.0, 0.0, 1.7395351329504764E9, 0.0, 2025-02-14 09:12:12.950
100.0, -187500.02235174447, -114107.26476994334, -187500.02235174447, -187500.02235174447, -187500.02235174447, -187500.02235174447, -187500.02235174447, -187500.02235174447, 0.028, 0.86, 0.536, 192.0, 0.0, 0.0, 0.0, 0.0, 0.0, 0.0, 0.0, 0.0, 0.0, 1.7395351329504883E9, 0.0, 2025-02-14 09:12:12.950
101.0, -187500.02235174447, -114977.86521647754, -187500.02235174447, -187500.02235174447, -187500.02235174447, -187500.02235174447, -187500.02235174447, -187500.02235174447, 0.02, 0.862, 0.54, 192.0, 0.0, 160.0, 26.0, 240.0, 16.0, 224.0, 0.0, 0.0, 0.0, 1.7395351329505005E9, 0.0, 2025-02-14 09:12:12.950
102.0, -187500.02235174447, -115643.83544252341, -187500.02235174447, -187500.02235174447, -187500.02235174447, -187500.02235174447, -187500.02235174447, -187500.02235174447, 0.02, 0.862, 0.54, 192.0, 0.0, 0.0, 0.0, 0.0, 0.0, 0.0, 0.0, 0.0, 0.0, 1.739535132950513E9, 0.0, 2025-02-14 09:12:12.950
103.0, -187500.02235174447, -116274.06522918526, -187500.02235174447, -187500.02235174447, -187500.02235174447, -187500.02235174447, -187500.02235174447, -187500.02235174447, 0.02, 0.862, 0.54, 192.0, 0.0, 0.0, 0.0, 0.0, 0.0, 0.0, 0.0, 0.0, 0.0, 1.739535132950525E9, 0.0, 2025-02-14 09:12:12.950
104.0, -187500.02235174447, -117116.74834689479, -187500.02235174447, -187500.02235174447, -187500.02235174447, -187500.02235174447, -187500.02235174447, -187500.02235174447, 0.02, 0.862, 0.54, 192.0, 0.0, 0.0, 0.0, 0.0, 0.0, 0.0, 0.0, 0.0, 0.0, 1.739535133429808E9, 0.0, 2025-02-14 09:12:13.429
105.0, -187500.02235174447, -118036.43322425286, -187500.02235174447, -187500.02235174447, -187500.02235174447, -187500.02235174447, -187500.02235174447, -187500.02235174447, 0.02, 0.862, 0.54, 192.0, 0.0, 0.0, 0.0, 0.0, 0.0, 0.0, 0.0, 0.0, 0.0, 1.7395351334298563E9, 0.0, 2025-02-14 09:12:13.429
106.0, -187500.02235174447, -118770.0845325094, -187500.02235174447, -187500.02235174447, -187500.02235174447, -187500.02235174447, -187500.02235174447, -187500.02235174447, 0.02, 0.862, 0.54, 192.0, 0.0, 0.0, 0.0, 0.0, 0.0, 0.0, 0.0, 0.0, 0.0, 1.7395351334298785E9, 0.0, 2025-02-14 09:12:13.429
107.0, -187500.02235174447, -119423.1354502601, -187500.02235174447, -187500.02235174447, -187500.02235174447, -187500.02235174447, -187500.02235174447, -187500.02235174447, 0.02, 0.862, 0.54, 192.0, 0.0, 0.0, 0.0, 0.0, 0.0, 0.0, 0.0, 0.0, 0.0, 1.7395351334299035E9, 0.0, 2025-02-14 09:12:13.429
108.0, -187500.02235174447, -120279.63194604301, -187500.02235174447, -187500.02235174447, -187500.02235174447, -187500.02235174447, -187500.02235174447, -187500.02235174447, 0.02, 0.862, 0.54, 192.0, 0.0, 0.0, 0.0, 0.0, 0.0, 0.0, 0.0, 0.0, 0.0, 1.7395351334299264E9, 0.0, 2025-02-14 09:12:13.429
109.0, -187500.02235174447, -121279.35842029554, -187500.02235174447, -187500.02235174447, -187500.02235174447, -187500.02235174447, -187500.02235174447, -187500.02235174447, 0.02, 0.862, 0.54, 192.0, 0.0, 0.0, 0.0, 0.0, 0.0, 0.0, 0.0, 0.0, 0.0, 1.7395351334299393E9, 0.0, 2025-02-14 09:12:13.429
110.0, -187500.02235174447, -122135.34082595598, -187500.02235174447, -187500.02235174447, -187500.02235174447, -187500.02235174447, -187500.02235174447, -187500.02235174447, 0.02, 0.862, 0.54, 192.0, 0.0, 0.0, 0.0, 0.0, 0.0, 0.0, 0.0, 0.0, 0.0, 1.739535133429952E9, 0.0, 2025-02-14 09:12:13.429
111.0, -187500.02235174447, -122890.29334667843, -187500.02235174447, -187500.02235174447, -187500.02235174447, -187500.02235174447, -187500.02235174447, -187500.02235174447, 0.024, 0.856, 0.534, 192.0, 0.0, 192.0, 26.0, 192.0, 16.0, 176.0, 0.0, 0.0, 0.0, 1.7395351334299748E9, 0.0, 2025-02-14 09:12:13.429
112.0, -187500.02235174447, -123859.46498626054, -187500.02235174447, -187500.02235174447, -187500.02235174447, -187500.02235174447, -187500.02235174447, -187500.02235174447, 0.024, 0.856, 0.534, 192.0, 0.0, 0.0, 0.0, 0.0, 0.0, 0.0, 0.0, 0.0, 0.0, 1.7395351334299884E9, 0.0, 2025-02-14 09:12:13.429
113.0, -187500.02235174447, -125076.20454742963, -187500.02235174447, -187500.02235174447, -187500.02235174447, -187500.02235174447, -187500.02235174447, -187500.02235174447, 0.024, 0.856, 0.534, 192.0, 0.0, 0.0, 0.0, 0.0, 0.0, 0.0, 0.0, 0.0, 0.0, 1.7395351334300008E9, 0.0, 2025-02-14 09:12:13.430
114.0, -187500.02235174447, -126289.18901553024, -187500.02235174447, -187500.02235174447, -187500.02235174447, -187500.02235174447, -187500.02235174447, -187500.02235174447, 0.024, 0.856, 0.534, 192.0, 0.0, 0.0, 0.0, 0.0, 0.0, 0.0, 0.0, 0.0, 0.0, 1.7395351334300556E9, 0.0, 2025-02-14 09:12:13.430
115.0, -187500.02235174447, -127534.89643751341, -187500.02235174447, -187500.02235174447, -187500.02235174447, -187500.02235174447, -187500.02235174447, -187500.02235174447, 0.024, 0.856, 0.534, 192.0, 0.0, 0.0, 0.0, 0.0, 0.0, 0.0, 0.0, 0.0, 0.0, 1.7395351334300675E9, 0.0, 2025-02-14 09:12:13.430
116.0, -187500.02235174447, -128938.76480326234, -187500.02235174447, -187500.02235174447, -187500.02235174447, -187500.02235174447, -187500.02235174447, -187500.02235174447, 0.024, 0.856, 0.534, 192.0, 0.0, 0.0, 0.0, 0.0, 0.0, 0.0, 0.0, 0.0, 0.0, 1.7395351334300797E9, 0.0, 2025-02-14 09:12:13.430
117.0, -187500.02235174447, -130283.6469153937, -187500.02235174447, -187500.02235174447, -187500.02235174447, -187500.02235174447, -187500.02235174447, -187500.02235174447, 0.024, 0.856, 0.534, 192.0, 0.0, 0.0, 0.0, 0.0, 0.0, 0.0, 0.0, 0.0, 0.0, 1.7395351334300911E9, 0.0, 2025-02-14 09:12:13.430
118.0, -187500.02235174447, -131304.5404916454, -187500.02235174447, -187500.02235174447, -187500.02235174447, -187500.02235174447, -187500.02235174447, -187500.02235174447, 0.024, 0.856, 0.534, 192.0, 0.0, 0.0, 0.0, 0.0, 0.0, 0.0, 0.0, 0.0, 0.0, 1.7395351334301028E9, 0.0, 2025-02-14 09:12:13.430
119.0, -187500.02235174447, -132012.80021820072, -187500.02235174447, -187500.02235174447, -187500.02235174447, -187500.02235174447, -187500.02235174447, -187500.02235174447, 0.024, 0.856, 0.534, 192.0, 0.0, 0.0, 0.0, 0.0, 0.0, 0.0, 0.0, 0.0, 0.0, 1.7395351334301145E9, 0.0, 2025-02-14 09:12:13.430
120.0, -187500.02235174447, -132692.6732292978, -187500.02235174447, -187500.02235174447, -187500.02235174447, -187500.02235174447, -187500.02235174447, -187500.02235174447, 0.024, 0.856, 0.534, 192.0, 0.0, 0.0, 0.0, 0.0, 0.0, 0.0, 0.0, 0.0, 0.0, 1.739535133430126E9, 0.0, 2025-02-14 09:12:13.430
121.0, -187500.02235174447, -133422.72590669704, -187500.02235174447, -187500.02235174447, -187500.02235174447, -187500.02235174447, -187500.02235174447, -187500.02235174447, 0.028, 0.838, 0.532, 192.0, 0.0, 224.0, 26.0, 48.0, 16.0, 160.0, 0.0, 0.0, 0.0, 1.7395351334301376E9, 0.0, 2025-02-14 09:12:13.430
122.0, -187500.02235174447, -133922.42150573988, -187500.02235174447, -187500.02235174447, -187500.02235174447, -187500.02235174447, -187500.02235174447, -187500.02235174447, 0.028, 0.838, 0.532, 192.0, 0.0, 0.0, 0.0, 0.0, 0.0, 0.0, 0.0, 0.0, 0.0, 1.73953513343015E9, 0.0, 2025-02-14 09:12:13.430
123.0, -187500.02235174447, -134005.54764336915, -187500.02235174447, -187500.02235174447, -187500.02235174447, -187500.02235174447, -187500.02235174447, -187500.02235174447, 0.028, 0.838, 0.532, 192.0, 0.0, 0.0, 0.0, 0.0, 0.0, 0.0, 0.0, 0.0, 0.0, 1.7395351334301617E9, 0.0, 2025-02-14 09:12:13.430
124.0, -187500.02235174447, -133933.12799133398, -187500.02235174447, -187500.02235174447, -187500.02235174447, -187500.02235174447, -187500.02235174447, -187500.02235174447, 0.028, 0.838, 0.532, 192.0, 0.0, 0.0, 0.0, 0.0, 0.0, 0.0, 0.0, 0.0, 0.0, 1.739535133430173E9, 0.0, 2025-02-14 09:12:13.430
125.0, -187500.02235174447, -133762.42771892878, -187500.02235174447, -187500.02235174447, -187500.02235174447, -187500.02235174447, -187500.02235174447, -187500.02235174447, 0.028, 0.838, 0.532, 192.0, 0.0, 0.0, 0.0, 0.0, 0.0, 0.0, 0.0, 0.0, 0.0, 1.7395351334301846E9, 0.0, 2025-02-14 09:12:13.430
126.0, -187500.02235174447, -133286.82730040877, -187500.02235174447, -187500.02235174447, -187500.02235174447, -187500.02235174447, -187500.02235174447, -187500.02235174447, 0.028, 0.838, 0.532, 192.0, 0.0, 0.0, 0.0, 0.0, 0.0, 0.0, 0.0, 0.0, 0.0, 1.7395351334301963E9, 0.0, 2025-02-14 09:12:13.430
127.0, -187500.02235174447, -132558.2945416325, -187500.02235174447, -187500.02235174447, -187500.02235174447, -187500.02235174447, -187500.02235174447, -187500.02235174447, 0.028, 0.838, 0.532, 192.0, 0.0, 0.0, 0.0, 0.0, 0.0, 0.0, 0.0, 0.0, 0.0, 1.7395351334302075E9, 0.0, 2025-02-14 09:12:13.430
128.0, -187500.02235174447, -131847.0620330646, -187500.02235174447, -187500.02235174447, -187500.02235174447, -187500.02235174447, -187500.02235174447, -187500.02235174447, 0.028, 0.838, 0.532, 192.0, 0.0, 0.0, 0.0, 0.0, 0.0, 0.0, 0.0, 0.0, 0.0, 1.739535133430219E9, 0.0, 2025-02-14 09:12:13.430
129.0, -187500.02235174447, -131270.56584007334, -187500.02235174447, -187500.02235174447, -187500.02235174447, -187500.02235174447, -187500.02235174447, -187500.02235174447, 0.028, 0.838, 0.532, 192.0, 0.0, 0.0, 0.0, 0.0, 0.0, 0.0, 0.0, 0.0, 0.0, 1.7395351334302373E9, 0.0, 2025-02-14 09:12:13.430
130.0, -187500.02235174447, -130770.35615090802, -187500.02235174447, -187500.02235174447, -187500.02235174447, -187500.02235174447, -187500.02235174447, -187500.02235174447, 0.028, 0.838, 0.532, 192.0, 0.0, 0.0, 0.0, 0.0, 0.0, 0.0, 0.0, 0.0, 0.0, 1.7395351334302492E9, 0.0, 2025-02-14 09:12:13.430
131.0, -187500.02235174447, -130129.21871295199, -187500.02235174447, -187500.02235174447, -187500.02235174447, -187500.02235174447, -187500.02235174447, -187500.02235174447, 0.028, 0.846, 0.532, 192.0, 0.0, 224.0, 26.0, 112.0, 16.0, 160.0, 0.0, 0.0, 0.0, 1.739535133430261E9, 0.0, 2025-02-14 09:12:13.430
132.0, -187500.02235174447, -129440.18148662824, -187500.02235174447, -187500.02235174447, -187500.02235174447, -187500.02235174447, -187500.02235174447, -187500.02235174447, 0.028, 0.846, 0.532, 192.0, 0.0, 0.0, 0.0, 0.0, 0.0, 0.0, 0.0, 0.0, 0.0, 1.7395351334302723E9, 0.0, 2025-02-14 09:12:13.430
133.0, -187500.02235174447, -129063.71105476751, -187500.02235174447, -187500.02235174447, -187500.02235174447, -187500.02235174447, -187500.02235174447, -187500.02235174447, 0.028, 0.846, 0.532, 192.0, 0.0, 0.0, 0.0, 0.0, 0.0, 0.0, 0.0, 0.0, 0.0, 1.739535133430284E9, 0.0, 2025-02-14 09:12:13.430
134.0, -187500.02235174447, -128837.5114008798, -187500.02235174447, -187500.02235174447, -187500.02235174447, -187500.02235174447, -187500.02235174447, -187500.02235174447, 0.028, 0.846, 0.532, 192.0, 0.0, 0.0, 0.0, 0.0, 0.0, 0.0, 0.0, 0.0, 0.0, 1.7395351334302957E9, 0.0, 2025-02-14 09:12:13.430
135.0, -187500.02235174447, -128185.17573895166, -187500.02235174447, -187500.02235174447, -187500.02235174447, -187500.02235174447, -187500.02235174447, -187500.02235174447, 0.028, 0.846, 0.532, 192.0, 0.0, 0.0, 0.0, 0.0, 0.0, 0.0, 0.0, 0.0, 0.0, 1.739535133430307E9, 0.0, 2025-02-14 09:12:13.430
136.0, -187500.02235174447, -127325.39353673381, -187500.02235174447, -187500.02235174447, -187500.02235174447, -187500.02235174447, -187500.02235174447, -187500.02235174447, 0.028, 0.846, 0.532, 192.0, 0.0, 0.0, 0.0, 0.0, 0.0, 0.0, 0.0, 0.0, 0.0, 1.739535133430318E9, 0.0, 2025-02-14 09:12:13.430
137.0, -187500.02235174447, -126825.1838475685, -187500.02235174447, -187500.02235174447, -187500.02235174447, -187500.02235174447, -187500.02235174447, -187500.02235174447, 0.028, 0.846, 0.532, 192.0, 0.0, 0.0, 0.0, 0.0, 0.0, 0.0, 0.0, 0.0, 0.0, 1.7395351334303296E9, 0.0, 2025-02-14 09:12:13.430
138.0, -187500.02235174447, -126662.95488631188, -187500.02235174447, -187500.02235174447, -187500.02235174447, -187500.02235174447, -187500.02235174447, -187500.02235174447, 0.028, 0.846, 0.532, 192.0, 0.0, 0.0, 0.0, 0.0, 0.0, 0.0, 0.0, 0.0, 0.0, 1.739535133430341E9, 0.0, 2025-02-14 09:12:13.430
139.0, -187500.02235174447, -126342.18500163377, -187500.02235174447, -187500.02235174447, -187500.02235174447, -187500.02235174447, -187500.02235174447, -187500.02235174447, 0.028, 0.846, 0.532, 192.0, 0.0, 0.0, 0.0, 0.0, 0.0, 0.0, 0.0, 0.0, 0.0, 1.7395351334303524E9, 0.0, 2025-02-14 09:12:13.430
