%OpenBCI Raw EXG Data
%Number of channels = 8
%Sample Rate = 250 Hz
%Board = OpenBCI_GUI$BoardCytonSerial
Sample Index, EXG Channel 0, EXG Channel 1, EXG Channel 2, EXG Channel 3, EXG Channel 4, EXG Channel 5, EXG Channel 6, EXG Channel 7, Accel Channel 0, Accel Channel 1, Accel Channel 2, Not Used, Digital Channel 0 (D11), Digital Channel 1 (D12), Digital Channel 2 (D13), Digital Channel 3 (D17), Not Used, Digital Channel 4 (D18), Analog Channel 0, Analog Channel 1, Analog Channel 2, Timestamp, Marker Channel, Timestamp (Formatted)
0.0, 162061.63609762624, 149170.69216617252, -107853.53724402635, 141203.65872426733, 153533.8867943152, 159341.07116950408, 162953.80597755982, 162830.11142374415, 0.08, -0.028, 0.498, 192.0, 2.0, 128.0, 255.0, 32.0, 15.0, 144.0, 0.0, 0.0, 0.0, 1.7307417767178676E9, 0.0, 2024-11-04 14:36:16.717
1.0, 162063.64775462722, 149186.718366947, -107867.19415988853, 141195.4332823078, 153535.98785829401, 159342.23346021576, 162957.27049795038, 162832.4807086564, 0.08, -0.028, 0.498, 192.0, 0.0, 0.0, 0.0, 0.0, 0.0, 0.0, 0.0, 0.0, 0.0, 1.730741776718551E9, 0.0, 2024-11-04 14:36:16.718
2.0, 162063.46894067156, 149200.68820723155, -107884.3155961413, 141185.48675602517, 153536.25607922746, 159341.74172183772, 162959.19274797355, 162833.41948192354, 0.08, -0.028, 0.498, 192.0, 0.0, 0.0, 0.0, 0.0, 0.0, 0.0, 0.0, 0.0, 0.0, 1.7307417767185793E9, 0.0, 2024-11-04 14:36:16.718
3.0, 162067.15697850668, 149218.54725105135, -107902.91224752812, 141179.36237804443, 153540.34644846278, 159345.0497800171, 162964.959498043, 162838.1357000036, 0.08, -0.028, 0.498, 192.0, 0.0, 0.0, 0.0, 0.0, 0.0, 0.0, 0.0, 0.0, 0.0, 1.730741776718593E9, 0.0, 2024-11-04 14:36:16.718
4.0, 162067.42519944016, 149232.89707099166, -107921.08421577027, 141169.59466571745, 153540.68172462963, 159344.44628291682, 162966.72528585498, 162838.7839005928, 0.08, -0.028, 0.498, 192.0, 0.0, 0.0, 0.0, 0.0, 0.0, 0.0, 0.0, 0.0, 0.0, 1.730741776718606E9, 0.0, 2024-11-04 14:36:16.718
5.0, 162067.35814420678, 149246.64339383168, -107936.28340199988, 141159.31286326802, 153540.56996590734, 159343.44045441633, 162968.08874226676, 162839.00741803736, 0.08, -0.028, 0.498, 192.0, 0.0, 0.0, 0.0, 0.0, 0.0, 0.0, 0.0, 0.0, 0.0, 1.730741776718619E9, 0.0, 2024-11-04 14:36:16.718
6.0, 162069.3027459744, 149262.6919463506, -107953.4271899971, 141151.4674009642, 153542.93925081962, 159344.87096606148, 162971.93324231307, 162841.80138609427, 0.08, -0.028, 0.498, 192.0, 0.0, 0.0, 0.0, 0.0, 0.0, 0.0, 0.0, 0.0, 0.0, 1.7307417767186315E9, 0.0, 2024-11-04 14:36:16.718
7.0, 162069.81683609687, 149277.37704245772, -107972.38146929521, 141142.3702409709, 153544.07918978683, 159345.18389048387, 162974.6601551366, 162843.41071169506, 0.116, -0.036000000000000004, 0.748, 192.0, 3.0, 160.0, 254.0, 224.0, 23.0, 96.0, 0.0, 0.0, 0.0, 1.730741776718644E9, 0.0, 2024-11-04 14:36:16.718
8.0, 162072.87902508726, 149294.31966475485, -107987.9382834361, 141135.307089723, 153547.1413787772, 159347.44141667383, 162979.33166972778, 162846.89758383008, 0.116, -0.036000000000000004, 0.748, 192.0, 0.0, 0.0, 0.0, 0.0, 0.0, 0.0, 0.0, 0.0, 0.0, 1.730741776718657E9, 0.0, 2024-11-04 14:36:16.718
9.0, 162074.33188847685, 149309.49649924, -108001.59519929829, 141126.47815066317, 153548.48248344453, 159347.88845156293, 162982.0585825513, 162848.66337164206, 0.116, -0.036000000000000004, 0.748, 192.0, 0.0, 0.0, 0.0, 0.0, 0.0, 0.0, 0.0, 0.0, 0.0, 1.7307417767186694E9, 0.0, 2024-11-04 14:36:16.718
10.0, 162076.4553042001, 149325.72386571454, -108017.95667623958, 141118.811502315, 153550.89647184568, 159349.5648323971, 162986.19365527557, 162851.56909842123, 0.116, -0.036000000000000004, 0.748, 192.0, 0.0, 0.0, 0.0, 0.0, 0.0, 0.0, 0.0, 0.0, 0.0, 1.730741776718682E9, 0.0, 2024-11-04 14:36:16.718
11.0, 162078.71283039008, 149342.21945312255, -108037.82737706034, 141111.4577783892, 153553.6457364137, 159351.48708242024, 162990.6640041666, 162855.0336188118, 0.116, -0.036000000000000004, 0.748, 192.0, 0.0, 0.0, 0.0, 0.0, 0.0, 0.0, 0.0, 0.0, 0.0, 1.7307417767186947E9, 0.0, 2024-11-04 14:36:16.718
12.0, 162079.71865889058, 149357.32923237435, -108057.31809822537, 141102.58413584044, 153554.83037886984, 159351.8223585871, 162993.45797222352, 162856.62059266813, 0.116, -0.036000000000000004, 0.748, 192.0, 0.0, 0.0, 0.0, 0.0, 0.0, 0.0, 0.0, 0.0, 0.0, 1.7307417767187076E9, 0.0, 2024-11-04 14:36:16.718
13.0, 162082.244406014, 149373.82481978237, -108072.8078571329, 141095.051597959, 153557.31142250437, 159353.38698069894, 162997.2801205254, 162859.41456072504, 0.116, -0.036000000000000004, 0.748, 192.0, 0.0, 0.0, 0.0, 0.0, 0.0, 0.0, 0.0, 0.0, 0.0, 1.73074177671872E9, 0.0, 2024-11-04 14:36:16.718
14.0, 162082.08794380285, 149387.7052530891, -108088.49878174053, 141085.1050716764, 153557.51258820447, 159352.62702138748, 162998.9341496151, 162860.1521682921, 0.116, -0.036000000000000004, 0.748, 192.0, 0.0, 0.0, 0.0, 0.0, 0.0, 0.0, 0.0, 0.0, 0.0, 1.7307417767187328E9, 0.0, 2024-11-04 14:36:16.718
15.0, 162082.98201358106, 149402.68092187415, -108106.31312207141, 141076.4102430833, 153558.80898938287, 159353.1187597655, 163002.0186903499, 162862.0967700597, 0.116, -0.036000000000000004, 0.748, 192.0, 0.0, 0.0, 0.0, 0.0, 0.0, 0.0, 0.0, 0.0, 0.0, 1.7307417767187457E9, 0.0, 2024-11-04 14:36:16.718
16.0, 162086.49123746052, 149420.15998603823, -108123.09928215735, 141069.97294068016, 153562.5417307069, 159355.97978305578, 163007.2713502969, 162866.12008406164, 0.116, -0.036000000000000004, 0.748, 192.0, 0.0, 0.0, 0.0, 0.0, 0.0, 0.0, 0.0, 0.0, 0.0, 1.7307417767189643E9, 0.0, 2024-11-04 14:36:16.718
17.0, 162087.43001072766, 149434.93448912317, -108138.11965443131, 141060.80872545348, 153563.36874525176, 159355.9574313113, 163009.55122823134, 162867.3047265178, 0.138, -0.044, 0.874, 192.0, 4.0, 80.0, 254.0, 160.0, 27.0, 80.0, 0.0, 0.0, 0.0, 1.7307417767189803E9, 0.0, 2024-11-04 14:36:16.718
18.0, 162086.67005141618, 149448.21142532962, -108154.30231741695, 141050.34810904838, 153562.80995164037, 159354.59397489953, 163010.5794084763, 162867.26002302885, 0.138, -0.044, 0.874, 192.0, 0.0, 0.0, 0.0, 0.0, 0.0, 0.0, 0.0, 0.0, 0.0, 1.7307417767189963E9, 0.0, 2024-11-04 14:36:16.718
19.0, 162087.54176944992, 149463.1870941147, -108174.48594266009, 141041.72033568865, 153564.21811154106, 159355.1751202554, 163013.59689397775, 162869.15992130755, 0.138, -0.044, 0.874, 192.0, 0.0, 0.0, 0.0, 0.0, 0.0, 0.0, 0.0, 0.0, 0.0, 1.73074177671901E9, 0.0, 2024-11-04 14:36:16.719
20.0, 162087.78763863895, 149477.42515533272, -108195.16130628125, 141032.22084429514, 153564.73220166352, 159354.75043711072, 163015.6756062121, 162870.07634283023, 0.138, -0.044, 0.874, 192.0, 0.0, 0.0, 0.0, 0.0, 0.0, 0.0, 0.0, 0.0, 0.0, 1.7307417767190244E9, 0.0, 2024-11-04 14:36:16.719
21.0, 162089.12874330627, 149492.80315551796, -108210.98634135562, 141023.66012616875, 153566.1403615642, 159355.2645272332, 163018.49192601346, 162871.8421306422, 0.138, -0.044, 0.874, 192.0, 0.0, 0.0, 0.0, 0.0, 0.0, 0.0, 0.0, 0.0, 0.0, 1.7307417767190373E9, 0.0, 2024-11-04 14:36:16.719
22.0, 162091.22980728507, 149508.87405978134, -108226.56550724096, 141015.85936735384, 153568.26377728747, 159356.62798364498, 163022.1799638486, 162874.36787776565, 0.138, -0.044, 0.874, 192.0, 0.0, 0.0, 0.0, 0.0, 0.0, 0.0, 0.0, 0.0, 0.0, 1.7307417767190628E9, 0.0, 2024-11-04 14:36:16.719
23.0, 162091.11804856278, 149522.799196577, -108244.60336501639, 141006.24811723808, 153568.62140519876, 159356.0691900336, 163024.19162084957, 162875.28429928832, 0.138, -0.044, 0.874, 192.0, 0.0, 0.0, 0.0, 0.0, 0.0, 0.0, 0.0, 0.0, 0.0, 1.730741776719076E9, 0.0, 2024-11-04 14:36:16.719
24.0, 162093.0626503304, 149538.8477490959, -108262.03772569154, 140998.5814688899, 153570.96833836657, 159357.611460401, 163028.17023136263, 162878.36884002315, 0.138, -0.044, 0.874, 192.0, 0.0, 0.0, 0.0, 0.0, 0.0, 0.0, 0.0, 0.0, 0.0, 1.7307417767190893E9, 0.0, 2024-11-04 14:36:16.719
25.0, 162096.03543234296, 149555.7009644152, -108278.77918228856, 140991.65242810876, 153573.9411203791, 159359.77957961318, 163032.61822850924, 162881.58749122472, 0.138, -0.044, 0.874, 192.0, 0.0, 0.0, 0.0, 0.0, 0.0, 0.0, 0.0, 0.0, 0.0, 1.730741776719102E9, 0.0, 2024-11-04 14:36:16.719
26.0, 162096.72833642107, 149570.34135703344, -108293.57603711796, 140982.26469543754, 153574.5446174794, 159359.55606216862, 163034.74164423248, 162882.61567146966, 0.138, -0.044, 0.874, 192.0, 0.0, 0.0, 0.0, 0.0, 0.0, 0.0, 0.0, 0.0, 0.0, 1.7307417767191143E9, 0.0, 2024-11-04 14:36:16.719
27.0, 162097.6671096882, 149585.42878454077, -108311.65859838232, 140973.74868080005, 153575.9080738912, 159360.0701522911, 163037.71442624505, 162884.58262498173, 0.15, -0.044, 0.934, 192.0, 4.0, 176.0, 254.0, 160.0, 29.0, 48.0, 0.0, 0.0, 0.0, 1.7307417767191267E9, 0.0, 2024-11-04 14:36:16.719
28.0, 162098.44942074412, 149600.24799111462, -108333.58565969297, 140965.21031441813, 153577.13741983622, 159360.40542845792, 163040.5754495353, 162886.34841279368, 0.15, -0.044, 0.934, 192.0, 0.0, 0.0, 0.0, 0.0, 0.0, 0.0, 0.0, 0.0, 0.0, 1.73074177671914E9, 0.0, 2024-11-04 14:36:16.719
29.0, 162099.9693393671, 149615.69304653324, -108351.24353781267, 140957.00722420303, 153578.7020419481, 159361.14303602494, 163043.59293503678, 162888.27066281685, 0.15, -0.044, 0.934, 192.0, 0.0, 0.0, 0.0, 0.0, 0.0, 0.0, 0.0, 0.0, 0.0, 1.7307417767191522E9, 0.0, 2024-11-04 14:36:16.719
30.0, 162101.98099636807, 149631.62984032987, -108366.7780002091, 140949.20646538812, 153580.78075418243, 159362.23827150324, 163047.10215891627, 162890.68465121803, 0.15, -0.044, 0.934, 192.0, 0.0, 0.0, 0.0, 0.0, 0.0, 0.0, 0.0, 0.0, 0.0, 1.7307417767191644E9, 0.0, 2024-11-04 14:36:16.719
31.0, 162104.23852255804, 149648.03602076008, -108383.54180855058, 140941.9197966957, 153583.48531526153, 159364.0711145486, 163051.30428687387, 162893.83624718623, 0.15, -0.044, 0.934, 192.0, 0.0, 0.0, 0.0, 0.0, 0.0, 0.0, 0.0, 0.0, 0.0, 1.730741776719214E9, 0.0, 2024-11-04 14:36:16.719
32.0, 162105.37846152528, 149663.2799104786, -108402.02670121512, 140933.62729950278, 153585.1616960957, 159364.94283258234, 163054.61234505326, 162896.00436639838, 0.15, -0.044, 0.934, 192.0, 0.0, 0.0, 0.0, 0.0, 0.0, 0.0, 0.0, 0.0, 0.0, 1.730741776719227E9, 0.0, 2024-11-04 14:36:16.719
33.0, 162105.78079292548, 149677.56267518553, -108419.6398758459, 140924.12780810928, 153585.5640274959, 159364.4287424599, 163056.4451880986, 162896.78667745434, 0.15, -0.044, 0.934, 192.0, 0.0, 0.0, 0.0, 0.0, 0.0, 0.0, 0.0, 0.0, 0.0, 1.7307417767192419E9, 0.0, 2024-11-04 14:36:16.719
34.0, 162107.88185690425, 149693.49946898216, -108435.42020743135, 140916.43880801665, 153587.57568449684, 159365.68044014936, 163060.06617070033, 162899.2453693444, 0.15, -0.044, 0.934, 192.0, 0.0, 0.0, 0.0, 0.0, 0.0, 0.0, 0.0, 0.0, 0.0, 1.7307417767192547E9, 0.0, 2024-11-04 14:36:16.719
35.0, 162109.5582377384, 149709.2798005676, -108452.92162333985, 140908.6604009462, 153589.54263800892, 159366.8650826055, 163063.6871533021, 162901.7040612345, 0.15, -0.044, 0.934, 192.0, 0.0, 0.0, 0.0, 0.0, 0.0, 0.0, 0.0, 0.0, 0.0, 1.7307417767192671E9, 0.0, 2024-11-04 14:36:16.719
36.0, 162110.18408658315, 149723.9872484192, -108474.58046371705, 140899.94322060863, 153590.63787348723, 159367.17800702786, 163066.3917143812, 162903.33573857974, 0.15, -0.044, 0.934, 192.0, 0.0, 0.0, 0.0, 0.0, 0.0, 0.0, 0.0, 0.0, 0.0, 1.7307417767192795E9, 0.0, 2024-11-04 14:36:16.719
37.0, 162112.2627988175, 149740.01344919365, -108493.37828080395, 140892.4553862161, 153592.82834444384, 159368.5638151841, 163070.07975221632, 162905.9955961699, 0.152, -0.052000000000000005, 0.97, 192.0, 4.0, 192.0, 254.0, 96.0, 30.0, 80.0, 0.0, 0.0, 0.0, 1.7307417767192917E9, 0.0, 2024-11-04 14:36:16.719
38.0, 162113.93917965164, 149755.65967031237, -108509.24801936722, 140884.4087582122, 153594.504725278, 159369.3237744956, 163073.253699929, 162907.96254968198, 0.152, -0.052000000000000005, 0.97, 192.0, 0.0, 0.0, 0.0, 0.0, 0.0, 0.0, 0.0, 0.0, 0.0, 1.7307417767193055E9, 0.0, 2024-11-04 14:36:16.719
39.0, 162115.6602639747, 149771.28353968664, -108525.07305444159, 140876.47388893054, 153596.4046235567, 159370.30725125162, 163076.740572064, 162910.26477936088, 0.152, -0.052000000000000005, 0.97, 192.0, 0.0, 0.0, 0.0, 0.0, 0.0, 0.0, 0.0, 0.0, 0.0, 1.7307417767193184E9, 0.0, 2024-11-04 14:36:16.719
40.0, 162116.6660924752, 149786.3039119606, -108543.44618838385, 140868.13668824872, 153597.8574869463, 159370.95545184083, 163079.82511279883, 162912.36584333968, 0.152, -0.052000000000000005, 0.97, 192.0, 0.0, 0.0, 0.0, 0.0, 0.0, 0.0, 0.0, 0.0, 0.0, 1.7307417767193308E9, 0.0, 2024-11-04 14:36:16.719
41.0, 162116.93431340865, 149800.54197317862, -108562.44517117085, 140858.88306604422, 153598.41628055766, 159370.59782392954, 163081.9485285221, 162913.32696835126, 0.152, -0.052000000000000005, 0.97, 192.0, 0.0, 0.0, 0.0, 0.0, 0.0, 0.0, 0.0, 0.0, 0.0, 1.730741776719344E9, 0.0, 2024-11-04 14:36:16.719
42.0, 162116.263761075, 149813.88596461844, -108579.11957253452, 140848.60126359478, 153597.92454217965, 159369.05555356212, 163082.95435702257, 162913.1481543956, 0.152, -0.052000000000000005, 0.97, 192.0, 0.0, 0.0, 0.0, 0.0, 0.0, 0.0, 0.0, 0.0, 0.0, 1.7307417767193568E9, 0.0, 2024-11-04 14:36:16.719
43.0, 162117.94014190914, 149829.4651305038, -108595.05636633115, 140840.6887460576, 153599.73503348054, 159369.99432682924, 163086.24006345752, 162915.33862535222, 0.152, -0.052000000000000005, 0.97, 192.0, 0.0, 0.0, 0.0, 0.0, 0.0, 0.0, 0.0, 0.0, 0.0, 1.7307417767193716E9, 0.0, 2024-11-04 14:36:16.719
44.0, 162121.80699369992, 149847.39122955696, -108616.58109624161, 140835.32432738834, 153604.0042166715, 159373.50355070873, 163092.14092399372, 162920.27836087687, 0.152, -0.052000000000000005, 0.97, 192.0, 0.0, 0.0, 0.0, 0.0, 0.0, 0.0, 0.0, 0.0, 0.0, 1.730741776719384E9, 0.0, 2024-11-04 14:36:16.719
45.0, 162123.34926406734, 149862.94804369786, -108636.76472148475, 140827.45651334006, 153605.74765273902, 159374.55408269813, 163095.51603740646, 162922.6029423002, 0.152, -0.052000000000000005, 0.97, 192.0, 0.0, 0.0, 0.0, 0.0, 0.0, 0.0, 0.0, 0.0, 0.0, 1.7307417767193966E9, 0.0, 2024-11-04 14:36:16.719
46.0, 162125.9197146797, 149879.3765758725, -108653.64028854851, 140820.25925162545, 153608.18399288465, 159376.09635306554, 163099.4946479195, 162925.37455861268, 0.152, -0.052000000000000005, 0.97, 192.0, 0.0, 0.0, 0.0, 0.0, 0.0, 0.0, 0.0, 0.0, 0.0, 1.730741776719416E9, 0.0, 2024-11-04 14:36:16.719
47.0, 162125.78560421296, 149893.12289871252, -108668.50419861129, 140810.62564976522, 153608.18399288465, 159375.20228328733, 163100.99221479803, 162925.7098347795, 0.158, -0.048, 0.982, 192.0, 4.0, 240.0, 254.0, 128.0, 30.0, 176.0, 0.0, 0.0, 0.0, 1.730741776719438E9, 0.0, 2024-11-04 14:36:16.719
48.0, 162125.78560421296, 149907.24920120827, -108684.77626857476, 140801.34967581628, 153608.72043475157, 159374.84465537604, 163103.16033401017, 162926.69331153552, 0.158, -0.048, 0.982, 192.0, 0.0, 0.0, 0.0, 0.0, 0.0, 0.0, 0.0, 0.0, 0.0, 1.7307417767194517E9, 0.0, 2024-11-04 14:36:16.719
49.0, 162128.53486878096, 149923.96830606085, -108704.06582403969, 140794.6888559686, 153611.84967897533, 159377.07982982157, 163107.85420034578, 162930.33664588173, 0.158, -0.048, 0.982, 192.0, 0.0, 0.0, 0.0, 0.0, 0.0, 0.0, 0.0, 0.0, 0.0, 1.730741776719464E9, 0.0, 2024-11-04 14:36:16.719
50.0, 162131.46294730462, 149940.73211440232, -108721.45548122592, 140788.0727396098, 153614.82246098787, 159379.22559728927, 163112.3916044702, 162933.7117592945, 0.158, -0.048, 0.982, 192.0, 0.0, 0.0, 0.0, 0.0, 0.0, 0.0, 0.0, 0.0, 0.0, 1.7307417767194765E9, 0.0, 2024-11-04 14:36:16.719
51.0, 162132.78170022747, 149955.7971901652, -108737.63814421155, 140779.89200113917, 153616.14121391074, 159379.73968741175, 163115.18557252712, 162935.47754710645, 0.158, -0.048, 0.982, 192.0, 0.0, 0.0, 0.0, 0.0, 0.0, 0.0, 0.0, 0.0, 0.0, 1.730741776719489E9, 0.0, 2024-11-04 14:36:16.719
52.0, 162134.50278455054, 149971.66692872846, -108756.79358920976, 140772.4265184911, 153618.26462963398, 159381.14784731244, 163118.91831385117, 162938.24916341892, 0.158, -0.048, 0.982, 192.0, 0.0, 0.0, 0.0, 0.0, 0.0, 0.0, 0.0, 0.0, 0.0, 1.7307417767195015E9, 0.0, 2024-11-04 14:36:16.719
53.0, 162135.06157816193, 149986.21791436887, -108777.64776678655, 140763.82109687582, 153619.29280987894, 159381.19255080135, 163121.53346795242, 162939.72437855296, 0.158, -0.048, 0.982, 192.0, 0.0, 0.0, 0.0, 0.0, 0.0, 0.0, 0.0, 0.0, 0.0, 1.730741776719514E9, 0.0, 2024-11-04 14:36:16.719
54.0, 162137.20734562963, 150002.1994116544, -108796.06560421773, 140756.51207643893, 153621.61739130228, 159382.60071070204, 163125.243857532, 162942.42893963205, 0.158, -0.048, 0.982, 192.0, 0.0, 0.0, 0.0, 0.0, 0.0, 0.0, 0.0, 0.0, 0.0, 1.7307417767195263E9, 0.0, 2024-11-04 14:36:16.719
55.0, 162140.60481078684, 150019.5220136073, -108811.1306799806, 140750.41005020263, 153625.0595599484, 159385.17116131439, 163130.18359305663, 162946.20638444502, 0.158, -0.048, 0.982, 192.0, 0.0, 0.0, 0.0, 0.0, 0.0, 0.0, 0.0, 0.0, 0.0, 1.7307417767195387E9, 0.0, 2024-11-04 14:36:16.719
56.0, 162142.03532243197, 150034.83295855916, -108827.31334296624, 140742.5198844099, 153626.758292527, 159386.04287934816, 163133.5140029805, 162948.39685540163, 0.158, -0.048, 0.982, 192.0, 0.0, 0.0, 0.0, 0.0, 0.0, 0.0, 0.0, 0.0, 0.0, 1.730741776719551E9, 0.0, 2024-11-04 14:36:16.719
57.0, 162141.02949393148, 150047.77461859878, -108847.45226472047, 140732.4168959161, 153626.24420240454, 159384.67942293637, 163134.58688671433, 162948.30744842382, 0.158, -0.044, 0.992, 192.0, 4.0, 240.0, 254.0, 160.0, 31.0, 0.0, 0.0, 0.0, 0.0, 1.7307417767195635E9, 0.0, 2024-11-04 14:36:16.719
58.0, 162142.12472940978, 150062.88439785058, -108865.93715738502, 140724.03499174537, 153627.3617896273, 159385.03705084766, 163137.1126338378, 162949.89442228014, 0.158, -0.044, 0.992, 192.0, 0.0, 0.0, 0.0, 0.0, 0.0, 0.0, 0.0, 0.0, 0.0, 1.7307417767195768E9, 0.0, 2024-11-04 14:36:16.719
59.0, 162145.29867712245, 150080.05053759224, -108882.2539308374, 140717.6200410867, 153630.49103385105, 159387.22752180428, 163141.82885191785, 162953.44834964853, 0.158, -0.044, 0.992, 192.0, 0.0, 0.0, 0.0, 0.0, 0.0, 0.0, 0.0, 0.0, 0.0, 1.7307417767195892E9, 0.0, 2024-11-04 14:36:16.719
60.0, 162146.48331957858, 150095.33913079966, -108901.14115490213, 140709.6628200606, 153632.1003594518, 159387.98748111576, 163145.04750311942, 162955.54941362733, 0.158, -0.044, 0.992, 192.0, 0.0, 0.0, 0.0, 0.0, 0.0, 0.0, 0.0, 0.0, 0.0, 1.7307417767196016E9, 0.0, 2024-11-04 14:36:16.719
61.0, 162147.28798237897, 150110.24774435136, -108922.93410574606, 140701.7055990345, 153633.6649815637, 159388.72508868278, 163148.3555612988, 162957.78458807286, 0.158, -0.044, 0.992, 192.0, 0.0, 0.0, 0.0, 0.0, 0.0, 0.0, 0.0, 0.0, 0.0, 1.730741776719702E9, 0.0, 2024-11-04 14:36:16.719
62.0, 162148.1149969238, 150124.95519220296, -108942.38012342216, 140693.23428788595, 153634.58140308637, 159388.85919914953, 163150.83660493334, 162959.14804448464, 0.158, -0.044, 0.992, 192.0, 0.0, 0.0, 0.0, 0.0, 0.0, 0.0, 0.0, 0.0, 0.0, 1.7307417767197149E9, 0.0, 2024-11-04 14:36:16.719
63.0, 162151.89244173677, 150142.3895528781, -108956.12644626218, 140687.1099099052, 153637.9118130102, 159391.2731875507, 163155.48576778005, 162962.56786138628, 0.158, -0.044, 0.992, 192.0, 0.0, 0.0, 0.0, 0.0, 0.0, 0.0, 0.0, 0.0, 0.0, 1.7307417767197273E9, 0.0, 2024-11-04 14:36:16.719
64.0, 162152.2724213925, 150156.6499658406, -108970.3198039913, 140678.0574534008, 153638.42590313268, 159390.89320789496, 163157.56448001438, 162963.48428290896, 0.158, -0.044, 0.992, 192.0, 0.0, 0.0, 0.0, 0.0, 0.0, 0.0, 0.0, 0.0, 0.0, 1.730741776719742E9, 0.0, 2024-11-04 14:36:16.719
65.0, 162152.1606626702, 150170.77626833634, -108991.59866471276, 140669.27321782985, 153639.1635106997, 159390.91555963943, 163160.04552364894, 162964.98184978747, 0.158, -0.044, 0.992, 192.0, 0.0, 0.0, 0.0, 0.0, 0.0, 0.0, 0.0, 0.0, 0.0, 1.7307417767197547E9, 0.0, 2024-11-04 14:36:16.719
66.0, 162154.0605609489, 150186.6013034107, -109012.1846213561, 140662.0536043708, 153641.44338863413, 159392.27901605118, 163163.84532020634, 162967.82052133328, 0.158, -0.044, 0.992, 192.0, 0.0, 0.0, 0.0, 0.0, 0.0, 0.0, 0.0, 0.0, 0.0, 1.730741776719767E9, 0.0, 2024-11-04 14:36:16.719
67.0, 162157.4133226172, 150203.63333268563, -109027.89789770817, 140655.57159847877, 153644.32676366888, 159394.17891432988, 163168.20391037513, 162970.92741381258, 0.16, -0.048, 0.994, 192.0, 5.0, 0.0, 254.0, 128.0, 31.0, 16.0, 0.0, 0.0, 0.0, 1.7307417767197795E9, 0.0, 2024-11-04 14:36:16.719
68.0, 162159.76025578502, 150219.88305090464, -109044.61700256074, 140648.5531507198, 153646.69604858113, 159395.6764812084, 163172.09311391035, 162973.67667838058, 0.16, -0.048, 0.994, 192.0, 0.0, 0.0, 0.0, 0.0, 0.0, 0.0, 0.0, 0.0, 0.0, 1.7307417767197924E9, 0.0, 2024-11-04 14:36:16.719
69.0, 162158.1732819287, 150232.48943477744, -109066.94639527159, 140638.31605175926, 153645.98079275858, 159394.20126607435, 163173.05423892193, 162973.5649196583, 0.16, -0.048, 0.994, 192.0, 0.0, 0.0, 0.0, 0.0, 0.0, 0.0, 0.0, 0.0, 0.0, 1.730741776719805E9, 0.0, 2024-11-04 14:36:16.719
70.0, 162156.4745493501, 150244.93935643905, -109089.00756704899, 140627.78838012082, 153644.8632055358, 159392.25666430674, 163173.54597729995, 162972.93907081356, 0.16, -0.048, 0.994, 192.0, 0.0, 0.0, 0.0, 0.0, 0.0, 0.0, 0.0, 0.0, 0.0, 1.7307417767198172E9, 0.0, 2024-11-04 14:36:16.719
71.0, 162159.76025578502, 150261.9043304806, -109103.91618060067, 140621.44048469551, 153647.74658057053, 159394.20126607435, 163177.8151604909, 162976.1577220151, 0.16, -0.048, 0.994, 192.0, 0.0, 0.0, 0.0, 0.0, 0.0, 0.0, 0.0, 0.0, 0.0, 1.73074177671983E9, 0.0, 2024-11-04 14:36:16.719
72.0, 162161.8836715083, 150277.75171729943, -109116.88019238475, 140613.99735379187, 153649.7135340826, 159395.2741498082, 163181.23497739257, 162978.48230343848, 0.16, -0.048, 0.994, 192.0, 0.0, 0.0, 0.0, 0.0, 0.0, 0.0, 0.0, 0.0, 0.0, 1.7307417767198424E9, 0.0, 2024-11-04 14:36:16.719
73.0, 162163.0683139644, 150293.01795876242, -109135.90152691622, 140606.42011242153, 153651.5687288724, 159396.43644051987, 163184.9230152277, 162980.98569881747, 0.16, -0.048, 0.994, 192.0, 0.0, 0.0, 0.0, 0.0, 0.0, 0.0, 0.0, 0.0, 0.0, 1.7307417767198546E9, 0.0, 2024-11-04 14:36:16.719
74.0, 162161.4142848747, 150305.42317693512, -109157.67212601569, 140595.95949601644, 153650.54054862744, 159394.58124573008, 163185.5041605835, 162980.44925695055, 0.16, -0.048, 0.994, 192.0, 0.0, 0.0, 0.0, 0.0, 0.0, 0.0, 0.0, 0.0, 0.0, 1.7307417767198672E9, 0.0, 2024-11-04 14:36:16.719
75.0, 162163.33653489788, 150321.13645328718, -109174.99472796854, 140588.426958135, 153652.2169294616, 159395.34120504156, 163188.6110530628, 162982.55032092935, 0.16, -0.048, 0.994, 192.0, 0.0, 0.0, 0.0, 0.0, 0.0, 0.0, 0.0, 0.0, 0.0, 1.7307417767198796E9, 0.0, 2024-11-04 14:36:16.719
76.0, 162165.95168899916, 150337.52028197292, -109190.70800432062, 140581.4755656094, 153654.58621437388, 159396.86112366454, 163192.38849787577, 162985.2101785195, 0.16, -0.048, 0.994, 192.0, 0.0, 0.0, 0.0, 0.0, 0.0, 0.0, 0.0, 0.0, 0.0, 1.7307417767198985E9, 0.0, 2024-11-04 14:36:16.719
77.0, 162165.63876457678, 150351.35601179078, -109210.10931850784, 140572.3784056161, 153654.9661940296, 159396.45879226434, 163194.28839615447, 162986.19365527557, 0.158, -0.052000000000000005, 0.996, 192.0, 4.0, 240.0, 254.0, 96.0, 31.0, 32.0, 0.0, 0.0, 0.0, 1.7307417767199106E9, 0.0, 2024-11-04 14:36:16.719
78.0, 162164.4317703762, 150364.2529683415, -109233.35513274136, 140562.52128631133, 153654.60856611832, 159395.25179806375, 163195.58479733288, 162986.48422795348, 0.158, -0.052000000000000005, 0.996, 192.0, 0.0, 0.0, 0.0, 0.0, 0.0, 0.0, 0.0, 0.0, 0.0, 1.7307417767199242E9, 0.0, 2024-11-04 14:36:16.719
79.0, 162168.85741577833, 150382.53669530593, -109251.50474923906, 140557.55919904224, 153658.8777493093, 159398.76102194324, 163201.39625089124, 162991.13339080018, 0.158, -0.052000000000000005, 0.996, 192.0, 0.0, 0.0, 0.0, 0.0, 0.0, 0.0, 0.0, 0.0, 0.0, 1.7307417767199364E9, 0.0, 2024-11-04 14:36:16.719
80.0, 162172.97013675811, 150400.28398040344, -109263.26176682256, 140551.99361467286, 153662.6775458667, 159401.48793476677, 163206.5818556049, 162995.08964956878, 0.158, -0.052000000000000005, 0.996, 192.0, 0.0, 0.0, 0.0, 0.0, 0.0, 0.0, 0.0, 0.0, 0.0, 1.7307417767199483E9, 0.0, 2024-11-04 14:36:16.719
81.0, 162173.21600594712, 150414.4102828992, -109280.71847924215, 140543.20937910193, 153663.34809820034, 159401.2644173222, 163208.8840852838, 162996.1178298137, 0.158, -0.052000000000000005, 0.996, 192.0, 0.0, 0.0, 0.0, 0.0, 0.0, 0.0, 0.0, 0.0, 0.0, 1.7307417767199607E9, 0.0, 2024-11-04 14:36:16.719
82.0, 162173.55128211394, 150429.0506755174, -109303.74077603112, 140535.14039935355, 153664.51038891202, 159401.64439697796, 163211.78981206295, 162998.04007983688, 0.158, -0.052000000000000005, 0.996, 192.0, 0.0, 0.0, 0.0, 0.0, 0.0, 0.0, 0.0, 0.0, 0.0, 1.730741776719973E9, 0.0, 2024-11-04 14:36:16.719
83.0, 162177.50754088254, 150446.93207108165, -109324.21497395218, 140529.9324428955, 153668.53370291396, 159404.8183446906, 163217.28834119896, 163002.59983570574, 0.158, -0.052000000000000005, 0.996, 192.0, 0.0, 0.0, 0.0, 0.0, 0.0, 0.0, 0.0, 0.0, 0.0, 1.730741776719985E9, 0.0, 2024-11-04 14:36:16.719
84.0, 162177.5745961159, 150460.6113386883, -109339.74943634862, 140520.45530324642, 153668.15372325823, 159403.5219435122, 163218.31652144392, 163002.48807698349, 0.158, -0.052000000000000005, 0.996, 192.0, 0.0, 0.0, 0.0, 0.0, 0.0, 0.0, 0.0, 0.0, 0.0, 1.730741776719998E9, 0.0, 2024-11-04 14:36:16.719
85.0, 162180.01093626153, 150477.03987086297, -109356.93792783475, 140514.0180008433, 153671.08180178187, 159405.4665452798, 163222.78687033497, 163005.86319039622, 0.158, -0.052000000000000005, 0.996, 192.0, 0.0, 0.0, 0.0, 0.0, 0.0, 0.0, 0.0, 0.0, 0.0, 1.73074177672001E9, 0.0, 2024-11-04 14:36:16.720
86.0, 162180.30150893945, 150491.38969080328, -109381.3683845244, 140505.77020713929, 153672.13233377127, 159405.73476621328, 163225.60319013635, 163007.6736816971, 0.158, -0.052000000000000005, 0.996, 192.0, 0.0, 0.0, 0.0, 0.0, 0.0, 0.0, 0.0, 0.0, 0.0, 1.7307417767200236E9, 0.0, 2024-11-04 14:36:16.720
87.0, 162182.40257291825, 150507.39353983325, -109402.60254175695, 140498.79646286924, 153674.34515647235, 159407.18762960288, 163229.49239367156, 163010.35589103174, 0.158, -0.052000000000000005, 1.0, 192.0, 4.0, 240.0, 254.0, 96.0, 31.0, 64.0, 0.0, 0.0, 0.0, 1.7307417767200356E9, 0.0, 2024-11-04 14:36:16.720
88.0, 162184.90596829724, 150523.55385107445, -109414.2254488737, 140491.73331162136, 153676.46857219562, 159408.39462380347, 163232.86750708433, 163012.63576896617, 0.158, -0.052000000000000005, 1.0, 192.0, 0.0, 0.0, 0.0, 0.0, 0.0, 0.0, 0.0, 0.0, 0.0, 1.7307417767200487E9, 0.0, 2024-11-04 14:36:16.720
89.0, 162184.4365816637, 150536.94254600318, -109428.9328967253, 140482.18911673894, 153676.15564777324, 159407.2323330918, 163234.09685302936, 163012.70282419954, 0.158, -0.052000000000000005, 1.0, 192.0, 0.0, 0.0, 0.0, 0.0, 0.0, 0.0, 0.0, 0.0, 0.0, 1.7307417767200608E9, 0.0, 2024-11-04 14:36:16.720
90.0, 162185.7329828421, 150552.45465665517, -109451.55286211407, 140475.03655851324, 153678.27906349648, 159408.59578950357, 163237.89664958676, 163015.47444051201, 0.158, -0.052000000000000005, 1.0, 192.0, 0.0, 0.0, 0.0, 0.0, 0.0, 0.0, 0.0, 0.0, 0.0, 1.730741776720074E9, 0.0, 2024-11-04 14:36:16.720
91.0, 162186.44823866466, 150567.07269752893, -109474.73162111422, 140466.8111165537, 153679.19548501915, 159408.70754822582, 163240.46710019914, 163016.94965564605, 0.158, -0.052000000000000005, 1.0, 192.0, 0.0, 0.0, 0.0, 0.0, 0.0, 0.0, 0.0, 0.0, 0.0, 1.7307417767200923E9, 0.0, 2024-11-04 14:36:16.720
92.0, 162187.74463984306, 150582.04836631397, -109491.5401329446, 140458.74213680532, 153680.08955479736, 159408.64049299248, 163242.76932987804, 163018.08959461327, 0.158, -0.052000000000000005, 1.0, 192.0, 0.0, 0.0, 0.0, 0.0, 0.0, 0.0, 0.0, 0.0, 0.0, 1.730741776720104E9, 0.0, 2024-11-04 14:36:16.720
93.0, 162189.9351107997, 150598.00751185507, -109506.29228428511, 140451.79074427971, 153682.34708098735, 159410.00394940426, 163246.4797194576, 163020.68239697008, 0.158, -0.052000000000000005, 1.0, 192.0, 0.0, 0.0, 0.0, 0.0, 0.0, 0.0, 0.0, 0.0, 0.0, 1.730741776720116E9, 0.0, 2024-11-04 14:36:16.720
94.0, 162191.54443640047, 150613.63138122932, -109528.44286304031, 140444.7946482652, 153684.62695892178, 159411.54621977167, 163250.4806817151, 163023.61047549374, 0.158, -0.052000000000000005, 1.0, 192.0, 0.0, 0.0, 0.0, 0.0, 0.0, 0.0, 0.0, 0.0, 0.0, 1.7307417767201283E9, 0.0, 2024-11-04 14:36:16.720
95.0, 162194.24899747956, 150630.52930003754, -109552.31452611859, 140438.98319470685, 153687.93501710118, 159414.0719668951, 163255.3757137508, 163027.49967902896, 0.158, -0.052000000000000005, 1.0, 192.0, 0.0, 0.0, 0.0, 0.0, 0.0, 0.0, 0.0, 0.0, 0.0, 1.730741776720146E9, 0.0, 2024-11-04 14:36:16.720
96.0, 162194.67368062423, 150644.56619555547, -109566.73140129226, 140429.93073820244, 153687.97972059008, 159413.15554537243, 163256.7838736515, 163027.79025170687, 0.158, -0.052000000000000005, 1.0, 192.0, 0.0, 0.0, 0.0, 0.0, 0.0, 0.0, 0.0, 0.0, 0.0, 1.730741776720158E9, 0.0, 2024-11-04 14:36:16.720
97.0, 162194.89719806876, 150658.42427711777, -109579.22602644278, 140420.87828169804, 153688.04677582346, 159412.44028954988, 163258.4379027412, 163028.12552787372, 0.162, -0.052000000000000005, 0.998, 192.0, 5.0, 16.0, 254.0, 96.0, 31.0, 48.0, 0.0, 0.0, 0.0, 1.7307417767201707E9, 0.0, 2024-11-04 14:36:16.720
98.0, 162197.24413123657, 150674.74105057016, -109599.78963134166, 140414.68684848392, 153691.019557836, 159414.56370527312, 163263.15412082127, 163031.81356570884, 0.162, -0.052000000000000005, 0.998, 192.0, 0.0, 0.0, 0.0, 0.0, 0.0, 0.0, 0.0, 0.0, 0.0, 1.7307417767201834E9, 0.0, 2024-11-04 14:36:16.720
99.0, 162197.93703531468, 150689.4708501662, -109624.30949500913, 140406.88608966902, 153692.36066250334, 159415.10014714007, 163266.0821993449, 163033.82522270983, 0.162, -0.052000000000000005, 0.998, 192.0, 0.0, 0.0, 0.0, 0.0, 0.0, 0.0, 0.0, 0.0, 0.0, 1.7307417767201953E9, 0.0, 2024-11-04 14:36:16.720
100.0, 162198.87580858183, 150704.15594627333, -109643.48729175178, 140398.5935924761, 153693.1206218148, 159414.94368492888, 163268.1832633237, 163034.8757546992, 0.162, -0.052000000000000005, 0.998, 192.0, 0.0, 0.0, 0.0, 0.0, 0.0, 0.0, 0.0, 0.0, 0.0, 1.7307417767202072E9, 0.0, 2024-11-04 14:36:16.720
101.0, 162201.31214872745, 150720.40566449234, -109656.07132388013, 140391.8433656506, 153695.40049974926, 159416.2847895962, 163271.96070813664, 163037.44620531157, 0.162, -0.052000000000000005, 0.998, 192.0, 0.0, 0.0, 0.0, 0.0, 0.0, 0.0, 0.0, 0.0, 0.0, 1.7307417767202191E9, 0.0, 2024-11-04 14:36:16.720
102.0, 162203.63673015079, 150736.7224379447, -109674.6903270114, 140385.7413394143, 153698.28387478399, 159418.40820531943, 163276.52046400553, 163041.04483616888, 0.162, -0.052000000000000005, 0.998, 192.0, 0.0, 0.0, 0.0, 0.0, 0.0, 0.0, 0.0, 0.0, 0.0, 1.7307417767202313E9, 0.0, 2024-11-04 14:36:16.720
103.0, 162203.74848887307, 150750.8710921849, -109698.91961800095, 140377.31473175462, 153698.99913060656, 159418.36350183052, 163278.9344524067, 163042.40829258066, 0.162, -0.052000000000000005, 0.998, 192.0, 0.0, 0.0, 0.0, 0.0, 0.0, 0.0, 0.0, 0.0, 0.0, 1.7307417767202432E9, 0.0, 2024-11-04 14:36:16.720
104.0, 162203.54732317297, 150764.37154583592, -109715.79518506471, 140367.94935082787, 153698.70855792865, 159417.15650762993, 163280.1414466073, 163042.36358909175, 0.162, -0.052000000000000005, 0.998, 192.0, 0.0, 0.0, 0.0, 0.0, 0.0, 0.0, 0.0, 0.0, 0.0, 1.7307417767202554E9, 0.0, 2024-11-04 14:36:16.720
105.0, 162204.55315167346, 150778.83312449852, -109727.86512707057, 140359.63450189048, 153699.33440677339, 159416.7765279742, 163282.13075186382, 163043.25765886996, 0.162, -0.052000000000000005, 0.998, 192.0, 0.0, 0.0, 0.0, 0.0, 0.0, 0.0, 0.0, 0.0, 0.0, 1.7307417767202673E9, 0.0, 2024-11-04 14:36:16.720
106.0, 162206.78832611899, 150795.10519446197, -109746.08179880165, 140353.21955123183, 153701.9719126191, 159418.65407450843, 163286.35523156586, 163046.5210135604, 0.162, -0.052000000000000005, 0.998, 192.0, 0.0, 0.0, 0.0, 0.0, 0.0, 0.0, 0.0, 0.0, 0.0, 1.730741776720286E9, 0.0, 2024-11-04 14:36:16.720
107.0, 162207.34711973037, 150809.834994058, -109771.02634561376, 140345.39644067246, 153703.35772077536, 159419.25757160873, 163289.50682753406, 163048.51031881696, 0.158, -0.054, 0.994, 192.0, 4.0, 240.0, 254.0, 80.0, 31.0, 16.0, 0.0, 0.0, 0.0, 1.7307417767202995E9, 0.0, 2024-11-04 14:36:16.720
108.0, 162209.69405289818, 150826.06236053258, -109793.04281390224, 140338.93678652486, 153705.79406092098, 159420.8221937206, 163293.48543804712, 163051.34899036278, 0.158, -0.054, 0.994, 192.0, 0.0, 0.0, 0.0, 0.0, 0.0, 0.0, 0.0, 0.0, 0.0, 1.730741776720312E9, 0.0, 2024-11-04 14:36:16.720
109.0, 162210.96810233215, 150841.0156775732, -109806.3197501087, 140330.9348620099, 153706.71048244365, 159420.8221937206, 163295.76531598155, 163052.5336328189, 0.158, -0.054, 0.994, 192.0, 0.0, 0.0, 0.0, 0.0, 0.0, 0.0, 0.0, 0.0, 0.0, 1.730741776720324E9, 0.0, 2024-11-04 14:36:16.720
110.0, 162213.49384945558, 150857.48891323674, -109822.03302646078, 140324.74342879574, 153709.59385747838, 159422.6773885104, 163300.10155440588, 163055.8863944872, 0.158, -0.054, 0.994, 192.0, 0.0, 0.0, 0.0, 0.0, 0.0, 0.0, 0.0, 0.0, 0.0, 1.7307417767203364E9, 0.0, 2024-11-04 14:36:16.720
111.0, 162213.11386979985, 150871.2128843323, -109846.35172442815, 140316.1603589249, 153709.99618887858, 159422.36446408802, 163302.31437710696, 163057.0933886878, 0.158, -0.054, 0.994, 192.0, 0.0, 0.0, 0.0, 0.0, 0.0, 0.0, 0.0, 0.0, 0.0, 1.7307417767203484E9, 0.0, 2024-11-04 14:36:16.720
112.0, 162215.281989012, 150887.2614368512, -109866.15537001555, 140309.5665943106, 153712.3878255353, 159424.01849317772, 163306.31533936446, 163059.9320602336, 0.158, -0.054, 0.994, 192.0, 0.0, 0.0, 0.0, 0.0, 0.0, 0.0, 0.0, 0.0, 0.0, 1.7307417767203605E9, 0.0, 2024-11-04 14:36:16.720
113.0, 162217.36070124636, 150902.7288440143, -109878.96291958845, 140302.2575738737, 153713.9300959027, 159424.66669376692, 163309.28812137703, 163061.7425515345, 0.158, -0.054, 0.994, 192.0, 0.0, 0.0, 0.0, 0.0, 0.0, 0.0, 0.0, 0.0, 0.0, 1.7307417767203722E9, 0.0, 2024-11-04 14:36:16.720
114.0, 162218.6794541692, 150917.9727337328, -109893.35744301767, 140294.74738773674, 153715.4276627812, 159425.27019086722, 163312.37266211185, 163063.5306910909, 0.158, -0.054, 0.994, 192.0, 0.0, 0.0, 0.0, 0.0, 0.0, 0.0, 0.0, 0.0, 0.0, 1.730741776720384E9, 0.0, 2024-11-04 14:36:16.720
115.0, 162219.1935442917, 150932.70253332885, -109917.63143749612, 140287.0583876441, 153716.81347093743, 159425.91839145642, 163315.5019063356, 163065.60940332527, 0.158, -0.054, 0.994, 192.0, 0.0, 0.0, 0.0, 0.0, 0.0, 0.0, 0.0, 0.0, 0.0, 1.730741776720396E9, 0.0, 2024-11-04 14:36:16.720
116.0, 162219.41706173625, 150946.85118756906, -109942.68774303053, 140278.74353870674, 153717.4393197822, 159425.7395775008, 163317.6923772922, 163066.8834527592, 0.158, -0.054, 0.994, 192.0, 0.0, 0.0, 0.0, 0.0, 0.0, 0.0, 0.0, 0.0, 0.0, 1.7307417767204077E9, 0.0, 2024-11-04 14:36:16.720
117.0, 162220.86992512585, 150961.84920809857, -109955.94232749252, 140271.0098351252, 153718.4898517716, 159425.8289844786, 163320.1510691823, 163068.11279870424, 0.164, -0.05, 0.998, 192.0, 5.0, 32.0, 254.0, 112.0, 31.0, 48.0, 0.0, 0.0, 0.0, 1.73074177672042E9, 0.0, 2024-11-04 14:36:16.720
118.0, 162223.038044338, 150977.7860018952, -109969.26396718789, 140264.28196004414, 153720.61326749483, 159426.96892344582, 163323.66029306178, 163070.5491388499, 0.164, -0.05, 0.998, 192.0, 0.0, 0.0, 0.0, 0.0, 0.0, 0.0, 0.0, 0.0, 0.0, 1.7307417767204325E9, 0.0, 2024-11-04 14:36:16.720
119.0, 162225.07205308345, 150993.85690615856, -109991.8615808322, 140258.04582334112, 153723.4295872962, 159429.0252839357, 163328.13064195283, 163073.9466040071, 0.164, -0.05, 0.998, 192.0, 0.0, 0.0, 0.0, 0.0, 0.0, 0.0, 0.0, 0.0, 0.0, 1.7307417767204444E9, 0.0, 2024-11-04 14:36:16.720
120.0, 162225.295570528, 151008.1396708655, -110015.6661886771, 140249.9097883594, 153724.1895466077, 159429.1817461469, 163330.6563890763, 163075.42181914113, 0.164, -0.05, 0.998, 192.0, 0.0, 0.0, 0.0, 0.0, 0.0, 0.0, 0.0, 0.0, 0.0, 1.7307417771970801E9, 0.0, 2024-11-04 14:36:17.197
121.0, 162228.536573474, 151024.9481826959, -110030.46304350652, 140244.03127956763, 153727.0952733869, 159431.14869965895, 163335.01497924508, 163078.6404703427, 0.164, -0.05, 0.998, 192.0, 0.0, 0.0, 0.0, 0.0, 0.0, 0.0, 0.0, 0.0, 0.0, 1.7307417771972897E9, 0.0, 2024-11-04 14:36:17.197
122.0, 162230.25765779708, 151040.1026654366, -110041.59421224525, 140236.588148664, 153728.5481367765, 159431.61808629252, 163337.8536507909, 163080.36155466575, 0.164, -0.05, 0.998, 192.0, 0.0, 0.0, 0.0, 0.0, 0.0, 0.0, 0.0, 0.0, 0.0, 1.7307417771973116E9, 0.0, 2024-11-04 14:36:17.197
123.0, 162231.8446316534, 151055.63712783303, -110063.25305262246, 140229.90497707188, 153730.80566296645, 159433.04859793765, 163341.78755781503, 163083.31198493385, 0.164, -0.05, 0.998, 192.0, 0.0, 0.0, 0.0, 0.0, 0.0, 0.0, 0.0, 0.0, 0.0, 1.7307417771973276E9, 0.0, 2024-11-04 14:36:17.197
124.0, 162230.92821013072, 151068.89171229504, -110091.95269250307, 140220.87487231195, 153730.60449726635, 159432.10982467054, 163343.28512469353, 163083.75901982296, 0.164, -0.05, 0.998, 192.0, 0.0, 0.0, 0.0, 0.0, 0.0, 0.0, 0.0, 0.0, 0.0, 1.7307417771973464E9, 0.0, 2024-11-04 14:36:17.197
125.0, 162232.8951636428, 151084.42617469147, -110110.10230900078, 140213.81172106406, 153732.3479333339, 159432.9815427043, 163346.4590724062, 163085.68126984613, 0.164, -0.05, 0.998, 192.0, 0.0, 0.0, 0.0, 0.0, 0.0, 0.0, 0.0, 0.0, 0.0, 1.730741777197363E9, 0.0, 2024-11-04 14:36:17.197
126.0, 162234.37037877683, 151099.49125045436, -110120.87584982823, 140206.10036922697, 153733.4878723011, 159433.11565317103, 163349.07422650745, 163087.13413323573, 0.164, -0.05, 0.998, 192.0, 0.0, 0.0, 0.0, 0.0, 0.0, 0.0, 0.0, 0.0, 0.0, 1.7307417771973782E9, 0.0, 2024-11-04 14:36:17.197
127.0, 162234.12450958783, 151113.19286980544, -110138.69019015912, 140197.47259586724, 153733.80079672346, 159432.62391479302, 163350.99647653062, 163088.05055475837, 0.166, -0.042, 1.0, 192.0, 5.0, 48.0, 254.0, 176.0, 31.0, 64.0, 0.0, 0.0, 0.0, 1.7307417771973946E9, 0.0, 2024-11-04 14:36:17.197
128.0, 162235.5997247219, 151128.7720356908, -110164.23823407153, 140190.834127764, 153736.05832291345, 159434.12148167152, 163355.04214227703, 163090.97863328204, 0.166, -0.042, 1.0, 192.0, 0.0, 0.0, 0.0, 0.0, 0.0, 0.0, 0.0, 0.0, 0.0, 1.7307417771974092E9, 0.0, 2024-11-04 14:36:17.197
129.0, 162238.48309975662, 151145.26762309883, -110183.28192034745, 140184.86621199443, 153738.82993922592, 159435.97667646132, 163359.33367721245, 163094.08552576133, 0.166, -0.042, 1.0, 192.0, 0.0, 0.0, 0.0, 0.0, 0.0, 0.0, 0.0, 0.0, 0.0, 1.7307417771974213E9, 0.0, 2024-11-04 14:36:17.197
130.0, 162240.83003292442, 151161.15971340655, -110192.1108594073, 140178.16068865787, 153740.81924448244, 159436.9825049618, 163362.68643888074, 163096.27599671794, 0.166, -0.042, 1.0, 192.0, 0.0, 0.0, 0.0, 0.0, 0.0, 0.0, 0.0, 0.0, 0.0, 1.730741777197436E9, 0.0, 2024-11-04 14:36:17.197
131.0, 162241.00884688008, 151175.21896066892, -110209.38875787125, 140170.0246536761, 153741.46744507164, 159436.75898751724, 163364.83220634845, 163097.34888045178, 0.166, -0.042, 1.0, 192.0, 0.0, 0.0, 0.0, 0.0, 0.0, 0.0, 0.0, 0.0, 0.0, 1.7307417771974502E9, 0.0, 2024-11-04 14:36:17.197
132.0, 162240.38299803532, 151188.71941431993, -110240.07770300838, 140161.2851215941, 153741.62390728283, 159436.26724913923, 163366.75445637162, 163098.33235720784, 0.166, -0.042, 1.0, 192.0, 0.0, 0.0, 0.0, 0.0, 0.0, 0.0, 0.0, 0.0, 0.0, 1.7307417771974633E9, 0.0, 2024-11-04 14:36:17.197
133.0, 162242.52876550303, 151204.67855986103, -110262.36239223032, 140154.8254674465, 153743.92613696173, 159437.69776078436, 163370.75541862912, 163101.1486770092, 0.166, -0.042, 1.0, 192.0, 0.0, 0.0, 0.0, 0.0, 0.0, 0.0, 0.0, 0.0, 0.0, 1.7307417771974783E9, 0.0, 2024-11-04 14:36:17.197
134.0, 162245.56860274894, 151221.15179552458, -110270.78899988998, 140148.81284818804, 153746.56364280745, 159439.32943812961, 163374.62227041987, 163103.85323808828, 0.166, -0.042, 1.0, 192.0, 0.0, 0.0, 0.0, 0.0, 0.0, 0.0, 0.0, 0.0, 0.0, 1.7307417771974907E9, 0.0, 2024-11-04 14:36:17.197
135.0, 162247.6920184722, 151237.13329281012, -110284.24475005208, 140142.39789752936, 153748.91057597526, 159440.89406024147, 163378.53382569956, 163106.6025026563, 0.166, -0.042, 1.0, 192.0, 0.0, 0.0, 0.0, 0.0, 0.0, 0.0, 0.0, 0.0, 0.0, 1.7307417771975253E9, 0.0, 2024-11-04 14:36:17.197
136.0, 162246.12739636033, 151249.694973194, -110311.04449165399, 140132.89840613585, 153748.10591317486, 159439.55295557415, 163379.67376466678, 163106.73661312304, 0.166, -0.042, 1.0, 192.0, 0.0, 0.0, 0.0, 0.0, 0.0, 0.0, 0.0, 0.0, 0.0, 1.7307417771975417E9, 0.0, 2024-11-04 14:36:17.197
137.0, 162248.0943498724, 151265.54236001283, -110335.16202392126, 140126.4834554772, 153750.45284634267, 159440.9387637304, 163383.562968202, 163109.50822943548, 0.162, -0.044, 0.994, 192.0, 5.0, 16.0, 254.0, 160.0, 31.0, 16.0, 0.0, 0.0, 0.0, 1.7307417771975727E9, 0.0, 2024-11-04 14:36:17.197
138.0, 162250.53069001803, 151281.43445032055, -110344.37094263684, 140119.64382167385, 153752.41979985475, 159441.92224048643, 163386.73691591466, 163111.60929341428, 0.162, -0.044, 0.994, 192.0, 0.0, 0.0, 0.0, 0.0, 0.0, 0.0, 0.0, 0.0, 0.0, 1.7307417771975882E9, 0.0, 2024-11-04 14:36:17.197
139.0, 162252.43058829673, 151296.94656097252, -110355.05507648649, 140112.7818361261, 153754.23029115563, 159442.883365498, 163390.02262234958, 163113.82211611536, 0.162, -0.044, 0.994, 192.0, 0.0, 0.0, 0.0, 0.0, 0.0, 0.0, 0.0, 0.0, 0.0, 1.7307417771976004E9, 0.0, 2024-11-04 14:36:17.197
140.0, 162254.24107959762, 151312.95041000252, -110384.82760010095, 140106.90332733432, 153757.04661095698, 159444.89502249897, 163394.58237821847, 163117.37604348376, 0.162, -0.044, 0.994, 192.0, 0.0, 0.0, 0.0, 0.0, 0.0, 0.0, 0.0, 0.0, 0.0, 1.7307417771976132E9, 0.0, 2024-11-04 14:36:17.197
141.0, 162255.8057017095, 151328.5295758879, -110414.04133010404, 140100.33191446448, 153759.17002668025, 159446.19142367737, 163398.42687826479, 163120.2594185185, 0.162, -0.044, 0.994, 192.0, 0.0, 0.0, 0.0, 0.0, 0.0, 0.0, 0.0, 0.0, 0.0, 1.7307417771976259E9, 0.0, 2024-11-04 14:36:17.197
142.0, 162257.16915812125, 151343.30407897284, -110423.89844940884, 140092.55350739404, 153760.01939296955, 159446.05731321065, 163400.59499747693, 163121.22054353007, 0.162, -0.044, 0.994, 192.0, 0.0, 0.0, 0.0, 0.0, 0.0, 0.0, 0.0, 0.0, 0.0, 1.7307417771976392E9, 0.0, 2024-11-04 14:36:17.197
143.0, 162259.42668431124, 151359.218521025, -110430.44751053424, 140086.00444626863, 153762.07575345944, 159447.26430741124, 163404.1265731009, 163123.56747669788, 0.162, -0.044, 0.994, 192.0, 0.0, 0.0, 0.0, 0.0, 0.0, 0.0, 0.0, 0.0, 0.0, 1.7307417771976528E9, 0.0, 2024-11-04 14:36:17.197
144.0, 162258.97964942214, 151372.74132642048, -110454.9226707128, 140077.39902465334, 153762.29927090398, 159446.86197601105, 163406.1605818463, 163124.5956569428, 0.162, -0.044, 0.994, 192.0, 0.0, 0.0, 0.0, 0.0, 0.0, 0.0, 0.0, 0.0, 0.0, 1.7307417771976647E9, 0.0, 2024-11-04 14:36:17.197
145.0, 162259.98547792263, 151387.76169869443, -110485.9245402723, 140070.53703910555, 153764.02035522705, 159447.86780451154, 163409.55804700352, 163126.96494185508, 0.162, -0.044, 0.994, 192.0, 0.0, 0.0, 0.0, 0.0, 0.0, 0.0, 0.0, 0.0, 0.0, 1.7307417771976771E9, 0.0, 2024-11-04 14:36:17.197
146.0, 162263.09237040192, 151404.41374831364, -110498.19564797827, 140064.6585303138, 153766.70256456168, 159449.56653709014, 163413.73782321668, 163129.82596514537, 0.162, -0.044, 0.994, 192.0, 0.0, 0.0, 0.0, 0.0, 0.0, 0.0, 0.0, 0.0, 0.0, 1.73074177719769E9, 0.0, 2024-11-04 14:36:17.197
147.0, 162262.71239074616, 151417.60127754227, -110502.62129338042, 140055.49431508713, 153766.05436397248, 159447.86780451154, 163414.4307272948, 163129.3565785118, 0.16, -0.05, 1.002, 192.0, 5.0, 0.0, 254.0, 112.0, 31.0, 80.0, 0.0, 0.0, 0.0, 1.730741777197703E9, 0.0, 2024-11-04 14:36:17.197
148.0, 162263.40529482428, 151432.15226318268, -110526.56001169205, 140048.0511841835, 153767.35076515088, 159448.38189463402, 163417.35880581843, 163131.36823551278, 0.16, -0.05, 1.002, 192.0, 0.0, 0.0, 0.0, 0.0, 0.0, 0.0, 0.0, 0.0, 0.0, 1.730741777197716E9, 0.0, 2024-11-04 14:36:17.197
149.0, 162265.88633845883, 151448.78196105742, -110561.02640164214, 140042.68676551423, 153770.61411984137, 159451.04175222418, 163422.49970704314, 163135.4586047481, 0.16, -0.05, 1.002, 192.0, 0.0, 0.0, 0.0, 0.0, 0.0, 0.0, 0.0, 0.0, 0.0, 1.730741777197729E9, 0.0, 2024-11-04 14:36:17.197
150.0, 162269.14969314932, 151465.63517637673, -110577.07495416106, 140037.2105881227, 153773.72101232066, 159453.16516794745, 163426.97005593422, 163138.8113664164, 0.16, -0.05, 1.002, 192.0, 0.0, 0.0, 0.0, 0.0, 0.0, 0.0, 0.0, 0.0, 0.0, 1.7307417771977422E9, 0.0, 2024-11-04 14:36:17.197
151.0, 162269.95435594968, 151479.89558933923, -110578.48311406173, 140029.07455314096, 153774.033936743, 159452.53931910268, 163428.64643676835, 163139.28075304994, 0.16, -0.05, 1.002, 192.0, 0.0, 0.0, 0.0, 0.0, 0.0, 0.0, 0.0, 0.0, 0.0, 1.7307417771978455E9, 0.0, 2024-11-04 14:36:17.197
152.0, 162272.41304783977, 151496.16765930268, -110594.352852625, 140023.26309958257, 153776.82790479992, 159454.55097610367, 163433.13913740386, 163142.6558664627, 0.16, -0.05, 1.002, 192.0, 0.0, 0.0, 0.0, 0.0, 0.0, 0.0, 0.0, 0.0, 0.0, 1.7307417771978705E9, 0.0, 2024-11-04 14:36:17.197
153.0, 162271.80955073948, 151509.6010577203, -110628.10398675251, 140014.88119541184, 153777.11847747787, 159454.01453423675, 163435.17314614932, 163143.68404670764, 0.16, -0.05, 1.002, 192.0, 0.0, 0.0, 0.0, 0.0, 0.0, 0.0, 0.0, 0.0, 0.0, 1.730741777197883E9, 0.0, 2024-11-04 14:36:17.197
154.0, 162273.19535889573, 151524.68848522764, -110647.32648698408, 140007.84039590842, 153778.57134086746, 159454.57332784813, 163438.07887292848, 163145.4051310307, 0.16, -0.05, 1.002, 192.0, 0.0, 0.0, 0.0, 0.0, 0.0, 0.0, 0.0, 0.0, 0.0, 1.730741777197896E9, 0.0, 2024-11-04 14:36:17.197
155.0, 162275.22936764115, 151540.20059587964, -110649.13697828497, 140000.79959640498, 153780.11361123488, 159455.04271448168, 163440.78343400758, 163146.94740139812, 0.16, -0.05, 1.002, 192.0, 0.0, 0.0, 0.0, 0.0, 0.0, 0.0, 0.0, 0.0, 0.0, 1.730741777197909E9, 0.0, 2024-11-04 14:36:17.197
156.0, 162275.6540507858, 151554.50571233104, -110664.60438544804, 139993.06589282345, 153780.98532926862, 159455.0874179706, 163443.15271891985, 163148.3108578099, 0.16, -0.05, 1.002, 192.0, 0.0, 0.0, 0.0, 0.0, 0.0, 0.0, 0.0, 0.0, 0.0, 1.7307417771979225E9, 0.0, 2024-11-04 14:36:17.197
157.0, 162278.09039093144, 151571.00129973906, -110698.93666493139, 139987.83558462092, 153784.33809093692, 159457.88138602753, 163448.4277306113, 163152.60239274532, 0.154, -0.044, 1.0, 192.0, 4.0, 208.0, 254.0, 160.0, 31.0, 64.0, 0.0, 0.0, 0.0, 1.7307417771979353E9, 0.0, 2024-11-04 14:36:17.197
158.0, 162279.67736478776, 151586.26754120202, -110723.34476987658, 139981.06300605094, 153786.08152700443, 159458.84251103908, 163451.69108530178, 163154.83756719084, 0.154, -0.044, 1.0, 192.0, 0.0, 0.0, 0.0, 0.0, 0.0, 0.0, 0.0, 0.0, 0.0, 1.7307417771979487E9, 0.0, 2024-11-04 14:36:17.197
159.0, 162281.3537456219, 151601.4443756872, -110725.64699955548, 139973.75398561408, 153787.13205899383, 159458.82015929464, 163454.1274254474, 163156.02220964697, 0.154, -0.044, 1.0, 192.0, 0.0, 0.0, 0.0, 0.0, 0.0, 0.0, 0.0, 0.0, 0.0, 1.7307417771979618E9, 0.0, 2024-11-04 14:36:17.197
160.0, 162281.3537456219, 151615.10129154936, -110733.69362755939, 139965.34972969888, 153787.17676248273, 159457.99314474978, 163455.69204755928, 163156.513948025, 0.154, -0.044, 1.0, 192.0, 0.0, 0.0, 0.0, 0.0, 0.0, 0.0, 0.0, 0.0, 0.0, 1.7307417771979747E9, 0.0, 2024-11-04 14:36:17.197
161.0, 162281.77842876656, 151629.60757370087, -110766.10365701959, 139958.1301162398, 153788.58492238342, 159458.73075231683, 163458.821291783, 163158.74912247053, 0.154, -0.044, 1.0, 192.0, 0.0, 0.0, 0.0, 0.0, 0.0, 0.0, 0.0, 0.0, 0.0, 1.7307417771979873E9, 0.0, 2024-11-04 14:36:17.197
162.0, 162284.37123112337, 151646.0361058755, -110795.2950352782, 139952.6762905927, 153791.6024078849, 159460.9882785068, 163463.44810288528, 163162.23599460555, 0.154, -0.044, 1.0, 192.0, 0.0, 0.0, 0.0, 0.0, 0.0, 0.0, 0.0, 0.0, 0.0, 1.7307417771979995E9, 0.0, 2024-11-04 14:36:17.197
163.0, 162284.9970799681, 151660.02829790453, -110800.9053231365, 139944.45084863316, 153791.73651835162, 159460.00480175077, 163464.8786145304, 163162.45951205012, 0.154, -0.044, 1.0, 192.0, 0.0, 0.0, 0.0, 0.0, 0.0, 0.0, 0.0, 0.0, 0.0, 1.7307417771980133E9, 0.0, 2024-11-04 14:36:17.198
164.0, 162287.32166139147, 151675.98744344563, -110808.34845404011, 139938.30411890795, 153793.9940445416, 159461.27885118473, 163468.54430062108, 163165.05231440693, 0.154, -0.044, 1.0, 192.0, 0.0, 0.0, 0.0, 0.0, 0.0, 0.0, 0.0, 0.0, 0.0, 1.7307417771980257E9, 0.0, 2024-11-04 14:36:17.198
165.0, 162288.32748989196, 151691.20898141968, -110839.17150964399, 139931.71035429364, 153795.9609980537, 159462.50819712976, 163472.36644892293, 163167.86863420828, 0.154, -0.044, 1.0, 192.0, 0.0, 0.0, 0.0, 0.0, 0.0, 0.0, 0.0, 0.0, 0.0, 1.7307417771980376E9, 0.0, 2024-11-04 14:36:17.198
166.0, 162289.26626315908, 151706.11759497138, -110872.7661815603, 139924.75896176804, 153797.4138614433, 159463.3352116746, 163475.65215535788, 163170.10380865383, 0.154, -0.044, 1.0, 192.0, 0.0, 0.0, 0.0, 0.0, 0.0, 0.0, 0.0, 0.0, 0.0, 1.7307417771980505E9, 0.0, 2024-11-04 14:36:17.198
167.0, 162292.57432133847, 151722.8143480795, -110881.14808573105, 139919.30513612094, 153800.297236478, 159465.32451693114, 163479.80957982654, 163173.05423892193, 0.156, -0.046, 0.996, 192.0, 4.0, 224.0, 254.0, 144.0, 31.0, 32.0, 0.0, 0.0, 0.0, 1.7307417771980772E9, 0.0, 2024-11-04 14:36:17.198
168.0, 162294.42951612826, 151738.23705175365, -110882.17626597598, 139912.51020580652, 153801.9512655677, 159466.0397727537, 163482.80471358355, 163174.97648894507, 0.156, -0.046, 0.996, 192.0, 0.0, 0.0, 0.0, 0.0, 0.0, 0.0, 0.0, 0.0, 0.0, 1.7307417771980927E9, 0.0, 2024-11-04 14:36:17.198
169.0, 162294.34010915042, 151752.11748506041, -110909.177173278, 139904.84355745837, 153802.66652139026, 159466.01742100925, 163485.30810896255, 163176.4070005902, 0.156, -0.046, 0.996, 192.0, 0.0, 0.0, 0.0, 0.0, 0.0, 0.0, 0.0, 0.0, 0.0, 1.7307417771981053E9, 0.0, 2024-11-04 14:36:17.198
170.0, 162296.5976353404, 151768.23309281268, -110946.07990337371, 139899.30032483343, 153805.61695165836, 159468.20789196587, 163490.00197529816, 163180.1173901698, 0.156, -0.046, 0.996, 192.0, 0.0, 0.0, 0.0, 0.0, 0.0, 0.0, 0.0, 0.0, 0.0, 1.7307417771981184E9, 0.0, 2024-11-04 14:36:17.198
171.0, 162297.6034638409, 151782.6723197308, -110959.84857795818, 139891.70073171865, 153806.3098557365, 159468.05142975468, 163492.08068753252, 163181.0561634369, 0.156, -0.046, 0.996, 192.0, 0.0, 0.0, 0.0, 0.0, 0.0, 0.0, 0.0, 0.0, 0.0, 1.7307417771981316E9, 0.0, 2024-11-04 14:36:17.198
172.0, 162301.0009289981, 151799.3914245834, -110962.75430473738, 139886.22455432708, 153809.19323077123, 159469.95132803338, 163496.3945742124, 163184.18540766067, 0.156, -0.046, 0.996, 192.0, 0.0, 0.0, 0.0, 0.0, 0.0, 0.0, 0.0, 0.0, 0.0, 1.730741777198145E9, 0.0, 2024-11-04 14:36:17.198
173.0, 162302.1185162209, 151814.45650034625, -110985.15075268158, 139879.5190309905, 153810.9590185832, 159470.9348047894, 163499.81439111405, 163186.53234082847, 0.156, -0.046, 0.996, 192.0, 0.0, 0.0, 0.0, 0.0, 0.0, 0.0, 0.0, 0.0, 0.0, 1.730741777198158E9, 0.0, 2024-11-04 14:36:17.198
174.0, 162302.4537923877, 151828.87337551994, -111022.09818626622, 139872.38882450925, 153812.23306801714, 159471.44889491188, 163502.85422835997, 163188.521646085, 0.156, -0.046, 0.996, 192.0, 0.0, 0.0, 0.0, 0.0, 0.0, 0.0, 0.0, 0.0, 0.0, 1.730741777198173E9, 0.0, 2024-11-04 14:36:17.198
175.0, 162303.5043243771, 151843.60317511598, -111039.46549170799, 139865.12450756127, 153813.28360000654, 159471.51595014526, 163505.22351327224, 163189.84039900787, 0.156, -0.046, 0.996, 192.0, 0.0, 0.0, 0.0, 0.0, 0.0, 0.0, 0.0, 0.0, 0.0, 1.7307417771981852E9, 0.0, 2024-11-04 14:36:17.198
176.0, 162304.08546973293, 151857.4836084227, -111039.1078637967, 139856.94376909063, 153813.32830349545, 159470.59952862258, 163506.65402491737, 163189.9745094746, 0.156, -0.046, 0.996, 192.0, 0.0, 0.0, 0.0, 0.0, 0.0, 0.0, 0.0, 0.0, 0.0, 1.7307417771981976E9, 0.0, 2024-11-04 14:36:17.198
177.0, 162304.7113185777, 151871.92283534084, -111056.74339017193, 139849.59004516483, 153814.40118722932, 159470.8453978116, 163509.31388250756, 163191.58383507538, 0.156, -0.048, 0.992, 192.0, 4.0, 224.0, 254.0, 128.0, 31.0, 0.0, 0.0, 0.0, 0.0, 1.73074177719821E9, 0.0, 2024-11-04 14:36:17.198
178.0, 162306.83473430094, 151888.06079483757, -111093.42260282309, 139844.2703299845, 153817.50807970858, 159473.21468272386, 163514.20891454327, 163195.58479733288, 0.156, -0.048, 0.992, 192.0, 0.0, 0.0, 0.0, 0.0, 0.0, 0.0, 0.0, 0.0, 0.0, 1.7307417771982229E9, 0.0, 2024-11-04 14:36:17.198
179.0, 162307.12530697888, 151902.07533861106, -111116.46725135652, 139836.4025159362, 153817.88805936434, 159472.7899995792, 163516.15351631088, 163196.34475664436, 0.156, -0.048, 0.992, 192.0, 0.0, 0.0, 0.0, 0.0, 0.0, 0.0, 0.0, 0.0, 0.0, 1.730741777198236E9, 0.0, 2024-11-04 14:36:17.198
180.0, 162310.4110134138, 151918.79444346362, -111119.88706825818, 139830.81457982238, 153820.57026869897, 159474.35462169108, 163520.13212682394, 163199.1163729568, 0.156, -0.048, 0.992, 192.0, 0.0, 0.0, 0.0, 0.0, 0.0, 0.0, 0.0, 0.0, 0.0, 1.7307417771982486E9, 0.0, 2024-11-04 14:36:17.198
181.0, 162311.28273144754, 151933.3230773596, -111133.76750156493, 139823.66202159668, 153821.57609719946, 159474.51108390227, 163522.7472809252, 163200.54688460194, 0.156, -0.048, 0.992, 192.0, 0.0, 0.0, 0.0, 0.0, 0.0, 0.0, 0.0, 0.0, 0.0, 1.730741777198262E9, 0.0, 2024-11-04 14:36:17.198
182.0, 162310.4110134138, 151946.53295833265, -111168.32329849283, 139815.43657963714, 153821.55374545502, 159473.9299385464, 163524.66953094836, 163201.44095438017, 0.156, -0.048, 0.992, 192.0, 0.0, 0.0, 0.0, 0.0, 0.0, 0.0, 0.0, 0.0, 0.0, 1.7307417771983058E9, 0.0, 2024-11-04 14:36:17.198
183.0, 162313.3614436819, 151963.31911841859, -111194.58659822782, 139810.40743713468, 153824.92885886776, 159476.41098218097, 163529.5869147285, 163205.24075093758, 0.156, -0.048, 0.992, 192.0, 0.0, 0.0, 0.0, 0.0, 0.0, 0.0, 0.0, 0.0, 0.0, 1.73074177719832E9, 0.0, 2024-11-04 14:36:17.198
184.0, 162315.99894952762, 151979.3229674486, -111196.84412441781, 139804.39481787622, 153827.0075711021, 159477.4391624259, 163532.96202814128, 163207.45357363863, 0.156, -0.048, 0.992, 192.0, 0.0, 0.0, 0.0, 0.0, 0.0, 0.0, 0.0, 0.0, 0.0, 1.7307417771983333E9, 0.0, 2024-11-04 14:36:17.198
185.0, 162316.84831581693, 151993.80689785563, -111205.09191812182, 139796.90698348367, 153827.81223390248, 159477.32740370362, 163535.26425782018, 163208.59351260585, 0.156, -0.048, 0.992, 192.0, 0.0, 0.0, 0.0, 0.0, 0.0, 0.0, 0.0, 0.0, 0.0, 1.7307417771983457E9, 0.0, 2024-11-04 14:36:17.198
186.0, 162316.98242628365, 152008.0226073292, -111237.39018885973, 139789.5979630468, 153828.92982112526, 159477.7967903372, 163538.21468808828, 163210.4263556512, 0.156, -0.048, 0.992, 192.0, 0.0, 0.0, 0.0, 0.0, 0.0, 0.0, 0.0, 0.0, 0.0, 1.7307417771983578E9, 0.0, 2024-11-04 14:36:17.198
187.0, 162317.65297861732, 152022.50653773625, -111268.23559620806, 139782.55716354336, 153830.18151881476, 159478.2438252263, 163541.0533596341, 163212.2368469521, 0.168, -0.054, 0.992, 192.0, 5.0, 64.0, 254.0, 80.0, 31.0, 0.0, 0.0, 0.0, 0.0, 1.7307417771983716E9, 0.0, 2024-11-04 14:36:17.198
188.0, 162319.79874608503, 152038.04100013268, -111276.90807305671, 139776.03045416242, 153831.74614092664, 159478.82497058212, 163543.9590864133, 163214.0249865085, 0.168, -0.054, 0.992, 192.0, 0.0, 0.0, 0.0, 0.0, 0.0, 0.0, 0.0, 0.0, 0.0, 1.730741777198387E9, 0.0, 2024-11-04 14:36:17.198
189.0, 162322.30214146402, 152054.00014567378, -111282.07132602589, 139770.10724188178, 153834.02601886107, 159480.00961303827, 163547.69182773732, 163216.55073363194, 0.168, -0.054, 0.992, 192.0, 0.0, 0.0, 0.0, 0.0, 0.0, 0.0, 0.0, 0.0, 0.0, 1.7307417771984017E9, 0.0, 2024-11-04 14:36:17.198
190.0, 162324.53731590955, 152070.27221563723, -111310.03335833948, 139765.05574763488, 153837.1552630848, 159482.4459531839, 163552.58685977303, 163220.46228891163, 0.168, -0.054, 0.992, 192.0, 0.0, 0.0, 0.0, 0.0, 0.0, 0.0, 0.0, 0.0, 0.0, 1.730741777198414E9, 0.0, 2024-11-04 14:36:17.198
191.0, 162324.8725920764, 152084.37616638854, -111342.44338779968, 139757.94789289808, 153838.13873984086, 159482.75887760628, 163555.2020138743, 163222.18337323467, 0.168, -0.054, 0.992, 192.0, 0.0, 0.0, 0.0, 0.0, 0.0, 0.0, 0.0, 0.0, 0.0, 1.7307417771984265E9, 0.0, 2024-11-04 14:36:17.198
192.0, 162327.51009792212, 152100.53647762974, -111351.56289953744, 139751.95762538406, 153840.2621555641, 159483.9882235513, 163558.7112377538, 163224.64206512476, 0.168, -0.054, 0.992, 192.0, 0.0, 0.0, 0.0, 0.0, 0.0, 0.0, 0.0, 0.0, 0.0, 1.7307417771984396E9, 0.0, 2024-11-04 14:36:17.198
193.0, 162328.7170921227, 152115.22157373687, -111354.69214376119, 139744.69330843608, 153841.1115218534, 159483.80940959568, 163560.94641219932, 163225.67024536972, 0.168, -0.054, 0.992, 192.0, 0.0, 0.0, 0.0, 0.0, 0.0, 0.0, 0.0, 0.0, 0.0, 1.7307417771984532E9, 0.0, 2024-11-04 14:36:17.198
194.0, 162329.34294096744, 152129.906669844, -111379.86020801785, 139737.87602637723, 153842.6090887319, 159484.5917206516, 163564.16506340087, 163227.77130934852, 0.168, -0.054, 0.992, 192.0, 0.0, 0.0, 0.0, 0.0, 0.0, 0.0, 0.0, 0.0, 0.0, 1.730741777198466E9, 0.0, 2024-11-04 14:36:17.198
195.0, 162330.28171423456, 152144.9717456069, -111414.5948189014, 139731.55048269636, 153844.44193177726, 159485.82106659663, 163567.76369425817, 163230.36411170533, 0.168, -0.054, 0.992, 192.0, 0.0, 0.0, 0.0, 0.0, 0.0, 0.0, 0.0, 0.0, 0.0, 1.7307417771984785E9, 0.0, 2024-11-04 14:36:17.198
196.0, 162330.95226656823, 152159.03099286926, -111431.22451677616, 139723.79442737036, 153844.79955968852, 159485.150514263, 163569.46242683678, 163230.92290531672, 0.168, -0.054, 0.992, 192.0, 0.0, 0.0, 0.0, 0.0, 0.0, 0.0, 0.0, 0.0, 0.0, 1.730741777198491E9, 0.0, 2024-11-04 14:36:17.198
197.0, 162332.42748170227, 152173.87255118758, -111434.28670576653, 139716.70892437804, 153845.69362946672, 159485.12816251852, 163571.78700826014, 163231.97343730612, 0.162, -0.05, 0.992, 192.0, 5.0, 16.0, 254.0, 112.0, 31.0, 0.0, 0.0, 0.0, 0.0, 1.7307417771985235E9, 0.0, 2024-11-04 14:36:17.198
198.0, 162333.65682764733, 152189.04938567276, -111453.03981936454, 139710.31632546382, 153847.39236204533, 159486.2010462524, 163575.22917690626, 163234.43212919618, 0.162, -0.05, 0.992, 192.0, 0.0, 0.0, 0.0, 0.0, 0.0, 0.0, 0.0, 0.0, 0.0, 1.7307417771985369E9, 0.0, 2024-11-04 14:36:17.198
199.0, 162333.63447590286, 152203.06392944622, -111486.85800872541, 139702.9849532825, 153848.3534870569, 159486.4022119525, 163577.95608972982, 163236.10851003035, 0.162, -0.05, 0.992, 192.0, 0.0, 0.0, 0.0, 0.0, 0.0, 0.0, 0.0, 0.0, 0.0, 1.7307417771985495E9, 0.0, 2024-11-04 14:36:17.198
200.0, 162335.91435383732, 152218.9336680095, -111505.61112232342, 139697.15114797963, 153850.6110132469, 159487.6986131309, 163581.66647930938, 163238.6789606427, 0.162, -0.05, 0.992, 192.0, 0.0, 0.0, 0.0, 0.0, 0.0, 0.0, 0.0, 0.0, 0.0, 1.730741777198562E9, 0.0, 2024-11-04 14:36:17.198
201.0, 162339.62474341688, 152236.0327525178, -111508.51684910261, 139692.25611594392, 153853.85201619292, 159489.8890840875, 163586.13682820046, 163241.94231533317, 0.162, -0.05, 0.992, 192.0, 0.0, 0.0, 0.0, 0.0, 0.0, 0.0, 0.0, 0.0, 0.0, 1.7307417771985748E9, 0.0, 2024-11-04 14:36:17.198
202.0, 162339.62474341688, 152249.68966838, -111523.6713318433, 139684.38830189567, 153854.09788538193, 159489.26323524278, 163588.1037817125, 163242.76932987804, 0.162, -0.05, 0.992, 192.0, 0.0, 0.0, 0.0, 0.0, 0.0, 0.0, 0.0, 0.0, 0.0, 1.7307417771985896E9, 0.0, 2024-11-04 14:36:17.198
203.0, 162340.80938587303, 152264.79944763178, -111557.82479737101, 139678.33097914828, 153856.24365284963, 159490.7384503768, 163592.0153369922, 163245.74211189058, 0.162, -0.05, 0.992, 192.0, 0.0, 0.0, 0.0, 0.0, 0.0, 0.0, 0.0, 0.0, 0.0, 1.7307417771986017E9, 0.0, 2024-11-04 14:36:17.198
204.0, 162342.30695275153, 152280.06568909474, -111583.46224826125, 139672.02778721187, 153857.9200336838, 159491.56546492167, 163595.1669329604, 163247.86552761385, 0.162, -0.05, 0.992, 192.0, 0.0, 0.0, 0.0, 0.0, 0.0, 0.0, 0.0, 0.0, 0.0, 1.7307417771986158E9, 0.0, 2024-11-04 14:36:17.198
205.0, 162343.69276090775, 152294.70608171297, -111587.75378319668, 139664.83052549727, 153858.63528950638, 159491.27489224373, 163597.17858996138, 163248.51372820305, 0.162, -0.05, 0.992, 192.0, 0.0, 0.0, 0.0, 0.0, 0.0, 0.0, 0.0, 0.0, 0.0, 1.730741777198628E9, 0.0, 2024-11-04 14:36:17.198
206.0, 162347.73842665416, 152312.4980702994, -111598.9967106577, 139660.87426672867, 153862.79271397504, 159494.58295042312, 163602.94534003086, 163253.11818756082, 0.162, -0.05, 0.992, 192.0, 0.0, 0.0, 0.0, 0.0, 0.0, 0.0, 0.0, 0.0, 0.0, 1.7307417771986406E9, 0.0, 2024-11-04 14:36:17.198
207.0, 162348.7219034102, 152327.56314606228, -111630.4009116174, 139654.74988874793, 153864.78201923158, 159495.87935160153, 163606.78984007717, 163255.9792108511, 0.16, -0.044, 0.99, 192.0, 5.0, 0.0, 254.0, 160.0, 30.0, 240.0, 0.0, 0.0, 0.0, 1.7307417771986532E9, 0.0, 2024-11-04 14:36:17.198
208.0, 162348.99012434366, 152341.62239332468, -111657.13359798594, 139647.44086831104, 153865.58668203195, 159495.7452411348, 163609.1144215005, 163257.2309085406, 0.16, -0.044, 0.99, 192.0, 0.0, 0.0, 0.0, 0.0, 0.0, 0.0, 0.0, 0.0, 0.0, 1.730741777198666E9, 0.0, 2024-11-04 14:36:17.198
209.0, 162350.7112086667, 152356.59806210973, -111663.21327247779, 139640.4224205521, 153866.59251053244, 159495.7452411348, 163611.43900292387, 163258.37084750782, 0.16, -0.044, 0.99, 192.0, 0.0, 0.0, 0.0, 0.0, 0.0, 0.0, 0.0, 0.0, 0.0, 1.7307417771986785E9, 0.0, 2024-11-04 14:36:17.198
210.0, 162352.5664034565, 152371.97606229497, -111670.76816210368, 139634.1192286157, 153868.3806500889, 159496.57225567964, 163614.6129506365, 163260.56131846446, 0.16, -0.044, 0.99, 192.0, 0.0, 0.0, 0.0, 0.0, 0.0, 0.0, 0.0, 0.0, 0.0, 1.7307417771986916E9, 0.0, 2024-11-04 14:36:17.198
211.0, 162353.39341800136, 152386.83997235776, -111700.49598222924, 139627.950147146, 153870.3699553454, 159497.77924988023, 163618.2786367272, 163263.1764725657, 0.16, -0.044, 0.99, 192.0, 0.0, 0.0, 0.0, 0.0, 0.0, 0.0, 0.0, 0.0, 0.0, 1.7307417771987038E9, 0.0, 2024-11-04 14:36:17.198
212.0, 162352.70051392325, 152400.09455681976, -111733.12952913399, 139619.8588156532, 153870.1687896453, 159496.9522353354, 163619.88796232795, 163263.80232141048, 0.16, -0.044, 0.99, 192.0, 0.0, 0.0, 0.0, 0.0, 0.0, 0.0, 0.0, 0.0, 0.0, 1.7307417771987388E9, 0.0, 2024-11-04 14:36:17.198
213.0, 162355.6732959358, 152416.45603376103, -111742.96429669432, 139614.31558302828, 153872.7168885132, 159498.47215395834, 163623.75481411873, 163266.35042027838, 0.16, -0.044, 0.99, 192.0, 0.0, 0.0, 0.0, 0.0, 0.0, 0.0, 0.0, 0.0, 0.0, 1.730741777198758E9, 0.0, 2024-11-04 14:36:17.198
214.0, 162358.80254015955, 152432.90691768014, -111747.99343919677, 139608.97351610346, 153875.3767461034, 159500.23794177032, 163627.80047986514, 163269.2337953131, 0.16, -0.044, 0.99, 192.0, 0.0, 0.0, 0.0, 0.0, 0.0, 0.0, 0.0, 0.0, 0.0, 1.7307417771987708E9, 0.0, 2024-11-04 14:36:17.198
215.0, 162360.1212930824, 152448.44138007658, -111774.05557323166, 139603.2514695229, 153877.74603101565, 159501.8025638822, 163631.7790903782, 163272.25128081458, 0.16, -0.044, 0.99, 192.0, 0.0, 0.0, 0.0, 0.0, 0.0, 0.0, 0.0, 0.0, 0.0, 1.7307417771987836E9, 0.0, 2024-11-04 14:36:17.198
216.0, 162358.53431922608, 152460.7795430159, -111805.97386431383, 139594.46723395196, 153876.96371995972, 159500.32734874813, 163632.85197411204, 163272.1842255812, 0.16, -0.044, 0.99, 192.0, 0.0, 0.0, 0.0, 0.0, 0.0, 0.0, 0.0, 0.0, 0.0, 1.730741777198796E9, 0.0, 2024-11-04 14:36:17.198
217.0, 162360.34481052696, 152475.86697052323, -111819.11669005355, 139587.82876584874, 153878.30482462703, 159500.7967353817, 163635.5788869356, 163273.7488476931, 0.158, -0.05, 0.992, 192.0, 4.0, 240.0, 254.0, 112.0, 31.0, 0.0, 0.0, 0.0, 0.0, 1.7307417771988084E9, 0.0, 2024-11-04 14:36:17.198
218.0, 162362.15530182785, 152491.06615675284, -111821.41891973244, 139581.25735297886, 153879.51181882762, 159501.02025282625, 163638.21639278132, 163275.1346558493, 0.158, -0.05, 0.992, 192.0, 0.0, 0.0, 0.0, 0.0, 0.0, 0.0, 0.0, 0.0, 0.0, 1.7307417771988213E9, 0.0, 2024-11-04 14:36:17.198
219.0, 162363.4740547507, 152506.26534298246, -111844.19534733241, 139575.26708546485, 153881.61288280642, 159502.33900574912, 163641.94913410535, 163277.90627216175, 0.158, -0.05, 0.992, 192.0, 0.0, 0.0, 0.0, 0.0, 0.0, 0.0, 0.0, 0.0, 0.0, 1.7307417771988342E9, 0.0, 2024-11-04 14:36:17.198
220.0, 162364.63634546238, 152521.46452921207, -111881.63451929505, 139569.5003353954, 153883.69159504076, 159503.7471656498, 163645.92774461838, 163280.96846115214, 0.158, -0.05, 0.992, 192.0, 0.0, 0.0, 0.0, 0.0, 0.0, 0.0, 0.0, 0.0, 0.0, 1.7307417771988463E9, 0.0, 2024-11-04 14:36:17.198
221.0, 162366.89387165237, 152537.22250905307, -111899.3147491592, 139563.6441783481, 153885.74795553065, 159504.77534589474, 163649.34756152006, 163283.20363559766, 0.158, -0.05, 0.992, 192.0, 0.0, 0.0, 0.0, 0.0, 0.0, 0.0, 0.0, 0.0, 0.0, 1.7307417771988585E9, 0.0, 2024-11-04 14:36:17.198
222.0, 162368.7714181866, 152552.28758481593, -111902.08636547165, 139556.91630326706, 153886.91024624233, 159504.97651159484, 163651.76154992124, 163284.43298154272, 0.158, -0.05, 0.992, 192.0, 0.0, 0.0, 0.0, 0.0, 0.0, 0.0, 0.0, 0.0, 0.0, 1.7307417771988716E9, 0.0, 2024-11-04 14:36:17.198
223.0, 162368.6149559754, 152565.94450067813, -111919.78894708026, 139549.3390618967, 153887.35728113144, 159504.52947670573, 163653.90731738895, 163285.46116178765, 0.158, -0.05, 0.992, 192.0, 0.0, 0.0, 0.0, 0.0, 0.0, 0.0, 0.0, 0.0, 0.0, 1.730741777198884E9, 0.0, 2024-11-04 14:36:17.198
224.0, 162367.78794143058, 152579.33319560686, -111953.22715678539, 139541.67241354854, 153887.75961253163, 159504.23890402782, 163656.14249183447, 163286.75756296606, 0.158, -0.05, 0.992, 192.0, 0.0, 0.0, 0.0, 0.0, 0.0, 0.0, 0.0, 0.0, 0.0, 1.730741777198896E9, 0.0, 2024-11-04 14:36:17.198
225.0, 162367.7208861972, 152592.8112975134, -111975.84712217416, 139533.75989601135, 153887.64785380935, 159503.38953773852, 163657.64005871298, 163287.11519087735, 0.158, -0.05, 0.992, 192.0, 0.0, 0.0, 0.0, 0.0, 0.0, 0.0, 0.0, 0.0, 0.0, 1.7307417771989083E9, 0.0, 2024-11-04 14:36:17.198
226.0, 162372.10182811043, 152610.24565818856, -111978.86460767563, 139529.35660235366, 153891.06767071103, 159505.82587788414, 163662.28922155968, 163290.53500777902, 0.158, -0.05, 0.992, 192.0, 0.0, 0.0, 0.0, 0.0, 0.0, 0.0, 0.0, 0.0, 0.0, 1.7307417771989207E9, 0.0, 2024-11-04 14:36:17.198
227.0, 162374.6722787228, 152626.33891419639, -111992.49917179337, 139524.17099764003, 153893.74988004565, 159507.6587209295, 163666.51370126175, 163293.5971967694, 0.158, -0.05, 0.992, 192.0, 4.0, 240.0, 254.0, 112.0, 31.0, 0.0, 0.0, 0.0, 0.0, 1.7307417771989448E9, 0.0, 2024-11-04 14:36:17.198
228.0, 162374.20289208923, 152639.81701610293, -112029.80423328928, 139516.54905278076, 153894.15221144585, 159507.2563895293, 163668.6818204739, 163294.75948748106, 0.158, -0.05, 0.992, 192.0, 0.0, 0.0, 0.0, 0.0, 0.0, 0.0, 0.0, 0.0, 0.0, 1.7307417771989577E9, 0.0, 2024-11-04 14:36:17.198
229.0, 162376.84039793498, 152655.7314581551, -112059.33088771474, 139510.91641317803, 153896.40973763584, 159508.57514245214, 163672.2804513312, 163297.19582762668, 0.158, -0.05, 0.992, 192.0, 0.0, 0.0, 0.0, 0.0, 0.0, 0.0, 0.0, 0.0, 0.0, 1.7307417771989703E9, 0.0, 2024-11-04 14:36:17.198
230.0, 162387.6362905069, 152678.4855340106, -112070.88673959814, 139511.05052364475, 153904.05403423955, 159514.76657566626, 163680.5953002686, 163304.14722015228, 0.158, -0.05, 0.992, 192.0, 0.0, 0.0, 0.0, 0.0, 0.0, 0.0, 0.0, 0.0, 0.0, 1.73074177719899E9, 0.0, 2024-11-04 14:36:17.198
231.0, 162396.24171212217, 152699.47382205413, -112080.8556176252, 139509.7764742108, 153910.60309536496, 159519.90747689098, 163688.10548640555, 163310.31630162196, 0.158, -0.05, 0.992, 192.0, 0.0, 0.0, 0.0, 0.0, 0.0, 0.0, 0.0, 0.0, 0.0, 1.7307417771990032E9, 0.0, 2024-11-04 14:36:17.199
232.0, 162392.30780509804, 152710.20265939267, -112102.7603271914, 139499.91935490601, 153908.85965929745, 159517.69465418992, 163688.37370733902, 163309.75750801057, 0.158, -0.05, 0.992, 192.0, 0.0, 0.0, 0.0, 0.0, 0.0, 0.0, 0.0, 0.0, 0.0, 1.7307417771990159E9, 0.0, 2024-11-04 14:36:17.199
233.0, 162386.2728340951, 152718.80808100797, -112129.44831007103, 139488.09528208917, 153905.03751099558, 159513.47017448785, 163686.65262301598, 163307.18705739823, 0.158, -0.05, 0.992, 192.0, 0.0, 0.0, 0.0, 0.0, 0.0, 0.0, 0.0, 0.0, 0.0, 1.730741777199028E9, 0.0, 2024-11-04 14:36:17.199
234.0, 162393.1348196429, 152738.3435056619, -112145.45215910104, 139485.5248314768, 153910.066653498, 159517.31467453417, 163692.75464925225, 163311.90327547828, 0.158, -0.05, 0.992, 192.0, 0.0, 0.0, 0.0, 0.0, 0.0, 0.0, 0.0, 0.0, 0.0, 1.730741777199041E9, 0.0, 2024-11-04 14:36:17.199
235.0, 162402.70136626976, 152760.1141047614, -112158.05854297383, 139484.9660378654, 153917.19685997927, 159523.10377634809, 163700.73422202282, 163318.51939183706, 0.158, -0.05, 0.992, 192.0, 0.0, 0.0, 0.0, 0.0, 0.0, 0.0, 0.0, 0.0, 0.0, 1.7307417771990535E9, 0.0, 2024-11-04 14:36:17.199
236.0, 162398.81216273454, 152770.84294209993, -112181.95255779655, 139475.175973794, 153915.2299064672, 159520.73449143584, 163700.86833248954, 163317.82648775895, 0.158, -0.05, 0.992, 192.0, 0.0, 0.0, 0.0, 0.0, 0.0, 0.0, 0.0, 0.0, 0.0, 1.7307417771990657E9, 0.0, 2024-11-04 14:36:17.199
237.0, 162393.04541266506, 152780.11891604887, -112209.19933428756, 139464.2683224998, 153912.25712445466, 159517.40408151198, 163700.10837317805, 163316.2395139026, 0.158, -0.044, 1.004, 192.0, 4.0, 240.0, 254.0, 160.0, 31.0, 96.0, 0.0, 0.0, 0.0, 1.730741777199078E9, 0.0, 2024-11-04 14:36:17.199
238.0, 162394.72179349922, 152795.38515751186, -112226.92426764063, 139458.14394451905, 153913.84409831098, 159518.14168907903, 163703.12585867953, 163318.18411567024, 0.158, -0.044, 1.004, 192.0, 0.0, 0.0, 0.0, 0.0, 0.0, 0.0, 0.0, 0.0, 0.0, 1.7307417771990907E9, 0.0, 2024-11-04 14:36:17.199
239.0, 162398.1863138898, 152811.94780015326, -112240.46942478055, 139453.04774678324, 153916.61571462342, 159519.79571816872, 163707.14917268147, 163321.02278721606, 0.158, -0.044, 1.004, 192.0, 0.0, 0.0, 0.0, 0.0, 0.0, 0.0, 0.0, 0.0, 0.0, 1.730741777199103E9, 0.0, 2024-11-04 14:36:17.199
240.0, 162399.0356801791, 152826.61054451592, -112261.54711980191, 139446.58809263565, 153918.1356332464, 159520.51097399127, 163710.34547213858, 163323.25796166158, 0.158, -0.044, 1.004, 192.0, 0.0, 0.0, 0.0, 0.0, 0.0, 0.0, 0.0, 0.0, 0.0, 1.7307417771991155E9, 0.0, 2024-11-04 14:36:17.199
241.0, 162400.35443310195, 152841.98854470116, -112287.49749511451, 139441.00015652183, 153920.4378629253, 159522.12029959206, 163714.48054486283, 163326.27544716306, 0.158, -0.044, 1.004, 192.0, 0.0, 0.0, 0.0, 0.0, 0.0, 0.0, 0.0, 0.0, 0.0, 1.7307417776778436E9, 0.0, 2024-11-04 14:36:17.677
242.0, 162404.22128489273, 152859.31114665404, -112303.14371623323, 139436.99919426432, 153924.1259007604, 159524.91426764897, 163719.55439085417, 163330.27640942056, 0.158, -0.044, 1.004, 192.0, 0.0, 0.0, 0.0, 0.0, 0.0, 0.0, 0.0, 0.0, 0.0, 1.7307417776781306E9, 0.0, 2024-11-04 14:36:17.678
243.0, 162404.60126454846, 152873.10217298297, -112314.29723671642, 139429.3101941717, 153924.0811972715, 159524.04254961523, 163721.05195773268, 163330.544630354, 0.158, -0.044, 1.004, 192.0, 0.0, 0.0, 0.0, 0.0, 0.0, 0.0, 0.0, 0.0, 0.0, 1.7307417776781552E9, 0.0, 2024-11-04 14:36:17.678
244.0, 162403.19310464777, 152885.6862051113, -112336.1125393048, 139420.8165312787, 153923.4777001712, 159522.58968622563, 163722.14719321099, 163330.544630354, 0.158, -0.044, 1.004, 192.0, 0.0, 0.0, 0.0, 0.0, 0.0, 0.0, 0.0, 0.0, 0.0, 1.73074177767817E9, 0.0, 2024-11-04 14:36:17.678
245.0, 162404.78007850412, 152901.2877227411, -112364.45455127413, 139415.5638713317, 153926.0928542725, 159524.44488101543, 163726.46107989087, 163333.83033678893, 0.158, -0.044, 1.004, 192.0, 0.0, 0.0, 0.0, 0.0, 0.0, 0.0, 0.0, 0.0, 0.0, 1.7307417776781833E9, 0.0, 2024-11-04 14:36:17.678
246.0, 162405.58474130448, 152915.45872872576, -112382.24653986056, 139408.47836833936, 153926.69635137278, 159524.19901182642, 163728.4503851474, 163334.88086877833, 0.158, -0.044, 1.004, 192.0, 0.0, 0.0, 0.0, 0.0, 0.0, 0.0, 0.0, 0.0, 0.0, 1.7307417776782095E9, 0.0, 2024-11-04 14:36:17.678
247.0, 162410.27860764012, 152933.40717952338, -112393.28830162148, 139404.92444097096, 153930.76436886363, 159527.32825605015, 163733.85950730558, 163339.1053484804, 0.17200000000000001, -0.04, 0.998, 192.0, 5.0, 96.0, 254.0, 192.0, 31.0, 48.0, 0.0, 0.0, 0.0, 1.730741777678223E9, 0.0, 2024-11-04 14:36:17.678
248.0, 162411.88793324088, 152948.67342098636, -112410.2756274075, 139398.95652520139, 153932.6866188868, 159528.31173280618, 163737.3463794406, 163341.42992990374, 0.17200000000000001, -0.04, 0.998, 192.0, 0.0, 0.0, 0.0, 0.0, 0.0, 0.0, 0.0, 0.0, 0.0, 1.7307417776782415E9, 0.0, 2024-11-04 14:36:17.678
249.0, 162410.52447682913, 152961.19039788132, -112436.80714807597, 139390.59697277512, 153932.10547353094, 159527.01533162777, 163738.46396666337, 163341.54168862602, 0.17200000000000001, -0.04, 0.998, 192.0, 0.0, 0.0, 0.0, 0.0, 0.0, 0.0, 0.0, 0.0, 0.0, 1.73074177767826E9, 0.0, 2024-11-04 14:36:17.678
250.0, 162412.15615417436, 152976.43428759984, -112457.48251169712, 139384.69611223892, 153933.80420610955, 159527.97645663936, 163741.77202484276, 163343.7098078382, 0.17200000000000001, -0.04, 0.998, 192.0, 0.0, 0.0, 0.0, 0.0, 0.0, 0.0, 0.0, 0.0, 0.0, 1.7307417776782725E9, 0.0, 2024-11-04 14:36:17.678
251.0, 162416.44768910977, 152994.09216571954, -112468.99366009161, 139380.96337091486, 153937.6934096448, 159530.85983167408, 163747.1587952565, 163347.84488056242, 0.17200000000000001, -0.04, 0.998, 192.0, 0.0, 0.0, 0.0, 0.0, 0.0, 0.0, 0.0, 0.0, 0.0, 1.730741777678285E9, 0.0, 2024-11-04 14:36:17.678
252.0, 162417.2300001657, 153008.44198565985, -112487.9032359008, 139374.16844060045, 153938.6321829119, 159530.904535163, 163749.63983889102, 163349.29774395202, 0.17200000000000001, -0.04, 0.998, 192.0, 0.0, 0.0, 0.0, 0.0, 0.0, 0.0, 0.0, 0.0, 0.0, 1.7307417776782973E9, 0.0, 2024-11-04 14:36:17.678
253.0, 162417.34175888798, 153022.45652943332, -112513.51833504658, 139367.3958620305, 153939.6827149013, 159531.44097702994, 163752.47851043683, 163351.1529387418, 0.17200000000000001, -0.04, 0.998, 192.0, 0.0, 0.0, 0.0, 0.0, 0.0, 0.0, 0.0, 0.0, 0.0, 1.7307417776783123E9, 0.0, 2024-11-04 14:36:17.678
254.0, 162419.30871240006, 153038.46037846332, -112534.68543704576, 139362.2996642947, 153942.25316551366, 159533.2067648419, 163756.5465279277, 163354.34923819892, 0.17200000000000001, -0.04, 0.998, 192.0, 0.0, 0.0, 0.0, 0.0, 0.0, 0.0, 0.0, 0.0, 0.0, 1.730741777678331E9, 0.0, 2024-11-04 14:36:17.678
255.0, 162419.4875263557, 153051.98318385877, -112547.04595172954, 139354.65536769098, 153942.29786900256, 159532.2009363414, 163757.97703957284, 163354.59510738793, 0.17200000000000001, -0.04, 0.998, 192.0, 0.0, 0.0, 0.0, 0.0, 0.0, 0.0, 0.0, 0.0, 0.0, 1.7307417776783493E9, 0.0, 2024-11-04 14:36:17.678
0.0, 162420.15807868936, 153066.1765415879, -112560.7699228251, 139347.77103039873, 153943.12488354743, 159532.22328808586, 163760.4133797185, 163355.84680507742, 0.17200000000000001, -0.04, 0.998, 192.0, 0.0, 0.0, 0.0, 0.0, 0.0, 0.0, 0.0, 0.0, 0.0, 1.7307417776783671E9, 0.0, 2024-11-04 14:36:17.678
1.0, 162420.60511357847, 153080.41460280595, -112584.6192341589, 139341.1772657844, 153944.37658123692, 159532.71502646388, 163763.38616173103, 163357.8584620784, 0.154, -0.048, 1.002, 192.0, 4.0, 208.0, 254.0, 128.0, 31.0, 80.0, 0.0, 0.0, 0.0, 1.7307417776784916E9, 0.0, 2024-11-04 14:36:17.678
2.0, 162420.87333451194, 153094.51855355722, -112608.46854549272, 139334.31528023665, 153945.11418880394, 159532.73737820835, 163765.8001501322, 163359.24427023463, 0.154, -0.048, 1.002, 192.0, 0.0, 0.0, 0.0, 0.0, 0.0, 0.0, 0.0, 0.0, 0.0, 1.730741777678512E9, 0.0, 2024-11-04 14:36:17.678
3.0, 162422.7285293017, 153109.76244327574, -112622.8854206664, 139328.30266097817, 153946.72351440473, 159533.38557879755, 163768.83998737813, 163361.09946502442, 0.154, -0.048, 1.002, 192.0, 0.0, 0.0, 0.0, 0.0, 0.0, 0.0, 0.0, 0.0, 0.0, 1.7307417776785305E9, 0.0, 2024-11-04 14:36:17.678
4.0, 162423.26497116865, 153123.73228356033, -112638.24106910719, 139321.06069577465, 153946.96938359374, 159532.82678518616, 163770.67283042346, 163361.77001735807, 0.154, -0.048, 1.002, 192.0, 0.0, 0.0, 0.0, 0.0, 0.0, 0.0, 0.0, 0.0, 0.0, 1.7307417776785483E9, 0.0, 2024-11-04 14:36:17.678
5.0, 162425.589552592, 153139.8478913126, -112662.2915461411, 139316.27742246122, 153949.96451735075, 159535.03960788724, 163775.32199327016, 163365.41335170428, 0.154, -0.048, 1.002, 192.0, 0.0, 0.0, 0.0, 0.0, 0.0, 0.0, 0.0, 0.0, 0.0, 1.7307417776785667E9, 0.0, 2024-11-04 14:36:17.678
6.0, 162426.99771249268, 153155.06942928667, -112687.9513487758, 139310.62243111402, 153951.99852609617, 159536.26895383227, 163778.96532761637, 163368.07320929447, 0.154, -0.048, 1.002, 192.0, 0.0, 0.0, 0.0, 0.0, 0.0, 0.0, 0.0, 0.0, 0.0, 1.7307417776785848E9, 0.0, 2024-11-04 14:36:17.678
7.0, 162428.31646541556, 153169.7098219049, -112700.64713962641, 139304.07336998862, 153952.87024412994, 159536.31365732118, 163781.26755729527, 163369.19079651724, 0.154, -0.048, 1.002, 192.0, 0.0, 0.0, 0.0, 0.0, 0.0, 0.0, 0.0, 0.0, 0.0, 1.7307417776786027E9, 0.0, 2024-11-04 14:36:17.678
8.0, 162432.7421108177, 153187.34534828013, -112707.37501470746, 139300.3853321535, 153956.82650289853, 159539.1970323559, 163786.56492073118, 163373.12470354137, 0.154, -0.048, 1.002, 192.0, 0.0, 0.0, 0.0, 0.0, 0.0, 0.0, 0.0, 0.0, 0.0, 1.7307417776786184E9, 0.0, 2024-11-04 14:36:17.678
9.0, 162434.17262246282, 153202.83510718765, -112730.86669812999, 139295.06561697312, 153959.19578781078, 159540.82870970116, 163790.8564556666, 163376.25394776513, 0.154, -0.048, 1.002, 192.0, 0.0, 0.0, 0.0, 0.0, 0.0, 0.0, 0.0, 0.0, 0.0, 1.7307417776786406E9, 0.0, 2024-11-04 14:36:17.678
10.0, 162431.9821515062, 153214.83799396016, -112763.67905899037, 139286.59430582458, 153958.32406977704, 159539.3087910782, 163791.77287718927, 163376.32100299848, 0.154, -0.048, 1.002, 192.0, 0.0, 0.0, 0.0, 0.0, 0.0, 0.0, 0.0, 0.0, 0.0, 1.7307417776786597E9, 0.0, 2024-11-04 14:36:17.678
11.0, 162433.21149745127, 153229.54544181173, -112780.37581209849, 139280.13465167698, 153959.35225002197, 159539.5546602672, 163794.2539208238, 163377.7068111547, 0.162, -0.046, 1.004, 192.0, 5.0, 16.0, 254.0, 144.0, 31.0, 96.0, 0.0, 0.0, 0.0, 1.7307417776786747E9, 0.0, 2024-11-04 14:36:17.678
12.0, 162436.25133469718, 153245.70575305293, -112787.01428020172, 139274.90434347445, 153961.69918318978, 159540.8063579567, 163797.78549644776, 163380.05374432253, 0.162, -0.046, 1.004, 192.0, 0.0, 0.0, 0.0, 0.0, 0.0, 0.0, 0.0, 0.0, 0.0, 1.73074177767869E9, 0.0, 2024-11-04 14:36:17.678
13.0, 162437.3465701755, 153260.59201486016, -112807.68964382287, 139269.00348293825, 153963.46497100175, 159541.7451312238, 163801.2053133494, 163382.49008446815, 0.162, -0.046, 1.004, 192.0, 0.0, 0.0, 0.0, 0.0, 0.0, 0.0, 0.0, 0.0, 0.0, 1.7307417776787093E9, 0.0, 2024-11-04 14:36:17.678
14.0, 162437.5477358756, 153275.05359352275, -112841.12785352801, 139262.83440146857, 153965.07429660254, 159542.7062562354, 163804.6027785066, 163384.99347984715, 0.162, -0.046, 1.004, 192.0, 0.0, 0.0, 0.0, 0.0, 0.0, 0.0, 0.0, 0.0, 0.0, 1.7307417776787295E9, 0.0, 2024-11-04 14:36:17.678
15.0, 162436.87718354192, 153287.90584658456, -112860.2832985262, 139254.60895950903, 153964.44844775778, 159541.2533928458, 163805.54155177376, 163384.68055542477, 0.162, -0.046, 1.004, 192.0, 0.0, 0.0, 0.0, 0.0, 0.0, 0.0, 0.0, 0.0, 0.0, 1.7307417776787453E9, 0.0, 2024-11-04 14:36:17.678
16.0, 162439.31352368757, 153303.30619851427, -112863.61370845005, 139248.52928501717, 153965.81190416956, 159541.58866901265, 163808.08965064166, 163386.08871532546, 0.162, -0.046, 1.004, 192.0, 0.0, 0.0, 0.0, 0.0, 0.0, 0.0, 0.0, 0.0, 0.0, 1.7307417776788146E9, 0.0, 2024-11-04 14:36:17.678
17.0, 162439.87231729893, 153317.45485275445, -112879.01406037976, 139241.84611342504, 153966.66127045886, 159541.52161377927, 163810.54834253172, 163387.4074682483, 0.162, -0.046, 1.004, 192.0, 0.0, 0.0, 0.0, 0.0, 0.0, 0.0, 0.0, 0.0, 0.0, 1.730741777678836E9, 0.0, 2024-11-04 14:36:17.678
18.0, 162439.82761381002, 153331.51410001685, -112911.42408983996, 139235.43116276636, 153967.95767163727, 159542.12511087957, 163813.7222902444, 163389.6649944383, 0.162, -0.046, 1.004, 192.0, 0.0, 0.0, 0.0, 0.0, 0.0, 0.0, 0.0, 0.0, 0.0, 1.7307417776788535E9, 0.0, 2024-11-04 14:36:17.678
19.0, 162442.33100918902, 153347.62970776914, -112935.18399419595, 139230.6255377085, 153970.75163969418, 159544.13676788055, 163818.03617692427, 163392.9730526177, 0.162, -0.046, 1.004, 192.0, 0.0, 0.0, 0.0, 0.0, 0.0, 0.0, 0.0, 0.0, 0.0, 1.730741777678871E9, 0.0, 2024-11-04 14:36:17.678
20.0, 162446.13080574642, 153364.46057134398, -112943.49884313332, 139226.13283707295, 153973.6350147289, 159545.88020394807, 163822.1712496485, 163395.8564276524, 0.162, -0.046, 1.004, 192.0, 0.0, 0.0, 0.0, 0.0, 0.0, 0.0, 0.0, 0.0, 0.0, 1.7307417776788895E9, 0.0, 2024-11-04 14:36:17.678
21.0, 162446.91311680237, 153378.72098430648, -112957.42397992898, 139219.2708515252, 153974.30556706258, 159545.72374173687, 163824.40642409402, 163396.99636661966, 0.162, -0.048, 1.0, 192.0, 5.0, 16.0, 254.0, 128.0, 31.0, 64.0, 0.0, 0.0, 0.0, 1.7307417776789074E9, 0.0, 2024-11-04 14:36:17.678
22.0, 162448.1424627474, 153394.0542810028, -112988.00116634383, 139214.28641251163, 153976.85366593048, 159547.7130469934, 163828.9661799629, 163400.55029398802, 0.162, -0.048, 1.0, 192.0, 0.0, 0.0, 0.0, 0.0, 0.0, 0.0, 0.0, 0.0, 0.0, 1.7307417776789253E9, 0.0, 2024-11-04 14:36:17.678
23.0, 162451.67403837133, 153411.35453121123, -113015.11383236812, 139210.97835433227, 153981.0334421436, 159551.22227087288, 163834.79998526574, 163405.3782707904, 0.162, -0.048, 1.0, 192.0, 0.0, 0.0, 0.0, 0.0, 0.0, 0.0, 0.0, 0.0, 0.0, 1.7307417776789415E9, 0.0, 2024-11-04 14:36:17.678
24.0, 162452.5010529162, 153425.3690749847, -113022.33344582719, 139203.53522342865, 153981.100497377, 159550.19409062792, 163836.0293312108, 163405.4229742793, 0.162, -0.048, 1.0, 192.0, 0.0, 0.0, 0.0, 0.0, 0.0, 0.0, 0.0, 0.0, 0.0, 1.7307417776789584E9, 0.0, 2024-11-04 14:36:17.678
25.0, 162453.5962883945, 153439.718894925, -113031.0282744203, 139196.8073483476, 153981.838104944, 159549.99292492782, 163838.13039518957, 163406.40645103532, 0.162, -0.048, 1.0, 192.0, 0.0, 0.0, 0.0, 0.0, 0.0, 0.0, 0.0, 0.0, 0.0, 1.730741777678974E9, 0.0, 2024-11-04 14:36:17.678
26.0, 162453.9986197947, 153454.1804735876, -113058.1856439335, 139190.7053221113, 153983.42507880033, 159550.8646429616, 163841.50550860233, 163408.8651429254, 0.162, -0.048, 1.0, 192.0, 0.0, 0.0, 0.0, 0.0, 0.0, 0.0, 0.0, 0.0, 0.0, 1.7307417776789863E9, 0.0, 2024-11-04 14:36:17.678
27.0, 162452.1434250049, 153466.16100861563, -113087.75700184787, 139182.21165921827, 153982.41925029986, 159549.165910383, 163842.26546791382, 163408.5298667586, 0.162, -0.048, 1.0, 192.0, 0.0, 0.0, 0.0, 0.0, 0.0, 0.0, 0.0, 0.0, 0.0, 1.730741777679002E9, 0.0, 2024-11-04 14:36:17.679
28.0, 162454.17743375033, 153481.29313961187, -113100.96688282095, 139176.28844693763, 153983.849761945, 159549.68000050547, 163845.01473248182, 163409.9827301482, 0.162, -0.048, 1.0, 192.0, 0.0, 0.0, 0.0, 0.0, 0.0, 0.0, 0.0, 0.0, 0.0, 1.7307417776790287E9, 0.0, 2024-11-04 14:36:17.679
29.0, 162459.2065762528, 153499.39805262067, -113108.78999338031, 139173.4050719029, 153988.2977590916, 159553.14452089602, 163850.82618604018, 163414.5648377615, 0.162, -0.048, 1.0, 192.0, 0.0, 0.0, 0.0, 0.0, 0.0, 0.0, 0.0, 0.0, 0.0, 1.7307417776790469E9, 0.0, 2024-11-04 14:36:17.679
30.0, 162459.81007335306, 153513.94903826108, -113133.33220879224, 139167.45950787776, 153989.92943643683, 159553.99388718532, 163854.29070643077, 163417.0235296516, 0.162, -0.048, 1.0, 192.0, 0.0, 0.0, 0.0, 0.0, 0.0, 0.0, 0.0, 0.0, 0.0, 1.7307417776790624E9, 0.0, 2024-11-04 14:36:17.679
31.0, 162458.91600357485, 153527.11421574524, -113163.97645044047, 139160.1951909298, 153990.2423608592, 159553.52450055178, 163856.28001168728, 163418.074061641, 0.162, -0.048, 1.0, 192.0, 0.0, 0.0, 0.0, 0.0, 0.0, 0.0, 0.0, 0.0, 0.0, 1.73074177767914E9, 0.0, 2024-11-04 14:36:17.679
32.0, 162460.43592219782, 153541.77696010793, -113175.9122819796, 139153.71318503778, 153991.18113412632, 159553.54685229622, 163858.55988962174, 163419.21400060822, 0.158, -0.046, 0.998, 192.0, 4.0, 240.0, 254.0, 144.0, 31.0, 48.0, 0.0, 0.0, 0.0, 1.7307417776791584E9, 0.0, 2024-11-04 14:36:17.679
33.0, 162463.67692514384, 153558.11608530476, -113181.09788669323, 139148.81815300204, 153993.7068812498, 159555.04441917472, 163862.40438966805, 163421.85150645394, 0.158, -0.046, 0.998, 192.0, 0.0, 0.0, 0.0, 0.0, 0.0, 0.0, 0.0, 0.0, 0.0, 1.7307417776791756E9, 0.0, 2024-11-04 14:36:17.679
34.0, 162465.8003408671, 153574.0975825903, -113203.09200323725, 139144.1466384109, 153996.61260802898, 159557.2125383869, 163867.00884902585, 163425.49484080015, 0.158, -0.046, 0.998, 192.0, 0.0, 0.0, 0.0, 0.0, 0.0, 0.0, 0.0, 0.0, 0.0, 1.730741777679191E9, 0.0, 2024-11-04 14:36:17.679
35.0, 162465.46506470026, 153587.82155368585, -113235.34557048626, 139137.50817030767, 153997.5066778072, 159557.5031110648, 163869.73576184938, 163427.3276838455, 0.158, -0.046, 0.998, 192.0, 0.0, 0.0, 0.0, 0.0, 0.0, 0.0, 0.0, 0.0, 0.0, 1.730741777679207E9, 0.0, 2024-11-04 14:36:17.679
36.0, 162466.82852111204, 153602.59605677082, -113255.61860270723, 139131.40614407137, 153998.66896851885, 159557.72662850938, 163872.44032292848, 163428.7805472351, 0.158, -0.046, 0.998, 192.0, 0.0, 0.0, 0.0, 0.0, 0.0, 0.0, 0.0, 0.0, 0.0, 1.7307417776792216E9, 0.0, 2024-11-04 14:36:17.679
37.0, 162469.48837870223, 153618.3093331229, -113261.98884987699, 139125.86291144646, 154000.36770109745, 159558.44188433193, 163875.45780842996, 163430.56868679152, 0.158, -0.046, 0.998, 192.0, 0.0, 0.0, 0.0, 0.0, 0.0, 0.0, 0.0, 0.0, 0.0, 1.730741777679237E9, 0.0, 2024-11-04 14:36:17.679
38.0, 162472.19293978132, 153634.53669959746, -113279.7361349745, 139121.4819695332, 154003.54164881012, 159560.8111692442, 163880.21872999892, 163434.30142811555, 0.158, -0.046, 0.998, 192.0, 0.0, 0.0, 0.0, 0.0, 0.0, 0.0, 0.0, 0.0, 0.0, 1.7307417776792543E9, 0.0, 2024-11-04 14:36:17.679
39.0, 162470.80713162507, 153647.25484219252, -113310.51448708946, 139113.94943165177, 154003.47459357674, 159560.14061691053, 163882.09627653318, 163435.10609091594, 0.158, -0.046, 0.998, 192.0, 0.0, 0.0, 0.0, 0.0, 0.0, 0.0, 0.0, 0.0, 0.0, 1.7307417776792753E9, 0.0, 2024-11-04 14:36:17.679
40.0, 162470.80713162507, 153660.84470282134, -113329.87109778776, 139106.72981819272, 154003.63105578793, 159559.4030093435, 163883.70560213397, 163435.70958801624, 0.158, -0.046, 0.998, 192.0, 0.0, 0.0, 0.0, 0.0, 0.0, 0.0, 0.0, 0.0, 0.0, 1.7307417776792912E9, 0.0, 2024-11-04 14:36:17.679
41.0, 162474.02578282665, 153677.07206929591, -113335.72725483504, 139101.74537917916, 154005.9109337224, 159560.654707033, 163887.192474269, 163437.98946595067, 0.158, -0.046, 0.998, 192.0, 0.0, 0.0, 0.0, 0.0, 0.0, 0.0, 0.0, 0.0, 0.0, 1.730741777679306E9, 0.0, 2024-11-04 14:36:17.679
42.0, 162477.51265496167, 153694.03704333748, -113351.41817944267, 139097.94558262176, 154009.57661981304, 159563.44867508992, 163892.35572723814, 163442.19159390827, 0.156, -0.04, 0.998, 192.0, 4.0, 224.0, 254.0, 192.0, 31.0, 48.0, 0.0, 0.0, 0.0, 1.7307417776793213E9, 0.0, 2024-11-04 14:36:17.679
43.0, 162475.50099796068, 153706.0846335989, -113379.73783966755, 139089.60838193994, 154008.6601982904, 159561.9064047225, 163893.2945005053, 163442.05748344155, 0.156, -0.04, 0.998, 192.0, 0.0, 0.0, 0.0, 0.0, 0.0, 0.0, 0.0, 0.0, 0.0, 1.730741777679345E9, 0.0, 2024-11-04 14:36:17.679
44.0, 162476.57388169455, 153720.70267447268, -113402.78248820097, 139083.573410937, 154009.9565994688, 159562.33108786718, 163896.15552379555, 163443.80091950906, 0.156, -0.04, 0.998, 192.0, 0.0, 0.0, 0.0, 0.0, 0.0, 0.0, 0.0, 0.0, 0.0, 1.730741777679361E9, 0.0, 2024-11-04 14:36:17.679
45.0, 162480.50778871868, 153737.98057293662, -113415.21005811811, 139079.79596612407, 154013.599933815, 159564.8568349906, 163901.11761106463, 163447.55601257755, 0.156, -0.04, 0.998, 192.0, 0.0, 0.0, 0.0, 0.0, 0.0, 0.0, 0.0, 0.0, 0.0, 1.730741777679377E9, 0.0, 2024-11-04 14:36:17.679
46.0, 162481.37950675245, 153752.26333764356, -113431.61623854832, 139073.4704224432, 154014.6057623155, 159565.03564894624, 163903.66570993254, 163449.12063468943, 0.156, -0.04, 0.998, 192.0, 0.0, 0.0, 0.0, 0.0, 0.0, 0.0, 0.0, 0.0, 0.0, 1.73074177767939E9, 0.0, 2024-11-04 14:36:17.679
47.0, 162482.34063176403, 153767.0825442174, -113456.784302805, 139067.7707276071, 154016.21508791627, 159566.04147744674, 163907.19728555647, 163451.5793265795, 0.156, -0.04, 0.998, 192.0, 0.0, 0.0, 0.0, 0.0, 0.0, 0.0, 0.0, 0.0, 0.0, 1.7307417776794765E9, 0.0, 2024-11-04 14:36:17.679
48.0, 162483.18999805333, 153781.47706764663, -113478.17492224873, 139061.55694264855, 154017.39973037242, 159566.33205012465, 163909.9912536134, 163453.30041090256, 0.156, -0.04, 0.998, 192.0, 0.0, 0.0, 0.0, 0.0, 0.0, 0.0, 0.0, 0.0, 0.0, 1.7307417776794949E9, 0.0, 2024-11-04 14:36:17.679
49.0, 162486.0957248325, 153797.52562016554, -113489.50725668756, 139056.818372824, 154019.88077400695, 159567.82961700315, 163913.65693970406, 163455.91556500384, 0.156, -0.04, 0.998, 192.0, 0.0, 0.0, 0.0, 0.0, 0.0, 0.0, 0.0, 0.0, 0.0, 1.730741777679513E9, 0.0, 2024-11-04 14:36:17.679
50.0, 162487.48153298875, 153812.2554197616, -113500.01257658156, 139050.7163465877, 154021.02071297416, 159568.1201896811, 163916.20503857196, 163457.34607664897, 0.156, -0.04, 0.998, 192.0, 0.0, 0.0, 0.0, 0.0, 0.0, 0.0, 0.0, 0.0, 0.0, 1.7307417776795318E9, 0.0, 2024-11-04 14:36:17.679
51.0, 162487.07920158855, 153825.77822515706, -113527.1475943503, 139043.80965755103, 154021.64656181892, 159567.94137572544, 163918.61902697315, 163458.75423654966, 0.156, -0.04, 0.998, 192.0, 0.0, 0.0, 0.0, 0.0, 0.0, 0.0, 0.0, 0.0, 0.0, 1.7307417776795518E9, 0.0, 2024-11-04 14:36:17.679
52.0, 162488.21914055577, 153840.9103561533, -113558.060056932, 139038.57934934847, 154023.61351533097, 159569.30483213722, 163922.37412004164, 163461.61525983992, 0.162, -0.046, 0.996, 192.0, 5.0, 16.0, 254.0, 144.0, 31.0, 32.0, 0.0, 0.0, 0.0, 1.7307417776795647E9, 0.0, 2024-11-04 14:36:17.679
53.0, 162489.73905917874, 153855.52839702708, -113571.53815883854, 139032.38791613435, 154024.61934383147, 159569.28248039275, 163924.63164623163, 163462.66579182932, 0.162, -0.046, 0.996, 192.0, 0.0, 0.0, 0.0, 0.0, 0.0, 0.0, 0.0, 0.0, 0.0, 1.730741777679578E9, 0.0, 2024-11-04 14:36:17.679
54.0, 162492.82359991356, 153871.88987396835, -113579.71889730918, 139027.7611050321, 154027.2568496772, 159570.84710250463, 163928.65496023357, 163465.39270465288, 0.162, -0.046, 0.996, 192.0, 0.0, 0.0, 0.0, 0.0, 0.0, 0.0, 0.0, 0.0, 0.0, 1.7307417776795905E9, 0.0, 2024-11-04 14:36:17.679
55.0, 162492.62243421347, 153885.56914157502, -113603.00941503161, 139021.05558169552, 154027.92740201086, 159570.80239901572, 163931.06894863475, 163466.823216298, 0.162, -0.046, 0.996, 192.0, 0.0, 0.0, 0.0, 0.0, 0.0, 0.0, 0.0, 0.0, 0.0, 1.7307417776796098E9, 0.0, 2024-11-04 14:36:17.679
56.0, 162493.51650399168, 153900.3212929155, -113631.66435142331, 139015.64645953733, 154029.8049485451, 159572.03174496075, 163934.80168995878, 163469.50542563267, 0.162, -0.046, 0.996, 192.0, 0.0, 0.0, 0.0, 0.0, 0.0, 0.0, 0.0, 0.0, 0.0, 1.7307417776796257E9, 0.0, 2024-11-04 14:36:17.679
57.0, 162495.7069749483, 153915.81105182302, -113646.3717992749, 139010.28204086807, 154031.74955031273, 159573.03757346125, 163938.02034116036, 163471.65119310038, 0.162, -0.046, 0.996, 192.0, 0.0, 0.0, 0.0, 0.0, 0.0, 0.0, 0.0, 0.0, 0.0, 1.7307417776796453E9, 0.0, 2024-11-04 14:36:17.679
58.0, 162497.91979764937, 153931.12199677492, -113652.54088074456, 139004.4482355652, 154033.2024137023, 159573.55166358373, 163940.70255049499, 163473.17111172332, 0.162, -0.046, 0.996, 192.0, 0.0, 0.0, 0.0, 0.0, 0.0, 0.0, 0.0, 0.0, 0.0, 1.7307417776796606E9, 0.0, 2024-11-04 14:36:17.679
59.0, 162498.61270172748, 153945.47181671523, -113672.81391296553, 138998.36856107338, 154034.43175964736, 159573.99869847283, 163943.697684252, 163475.11571349093, 0.162, -0.046, 0.996, 192.0, 0.0, 0.0, 0.0, 0.0, 0.0, 0.0, 0.0, 0.0, 0.0, 1.730741777679679E9, 0.0, 2024-11-04 14:36:17.679
60.0, 162497.76333543818, 153958.79345641058, -113706.72150930423, 138991.5512790145, 154034.76703581418, 159573.70812579492, 163946.0446174198, 163476.32270769152, 0.162, -0.046, 0.996, 192.0, 0.0, 0.0, 0.0, 0.0, 0.0, 0.0, 0.0, 0.0, 0.0, 1.7307417776796963E9, 0.0, 2024-11-04 14:36:17.679
61.0, 162500.356137795, 153974.77495369615, -113726.1451752359, 138986.92446791226, 154037.29278293764, 159575.2727479068, 163950.06793142177, 163479.22843447072, 0.162, -0.046, 0.996, 192.0, 0.0, 0.0, 0.0, 0.0, 0.0, 0.0, 0.0, 0.0, 0.0, 1.7307417776797116E9, 0.0, 2024-11-04 14:36:17.679
62.0, 162504.73707970823, 153992.03050041563, -113733.02951252813, 138983.12467135486, 154040.7125998393, 159577.6196810746, 163954.67239077957, 163482.71530660574, 0.16, -0.054, 0.994, 192.0, 5.0, 0.0, 254.0, 80.0, 31.0, 16.0, 0.0, 0.0, 0.0, 1.7307417776797447E9, 0.0, 2024-11-04 14:36:17.679
63.0, 162505.362928553, 154006.22385814475, -113750.62033541445, 138976.91088639628, 154041.8078353176, 159577.84319851914, 163957.33224836973, 163484.30228046209, 0.16, -0.054, 0.994, 192.0, 0.0, 0.0, 0.0, 0.0, 0.0, 0.0, 0.0, 0.0, 0.0, 1.730741777679765E9, 0.0, 2024-11-04 14:36:17.679
64.0, 162503.68654771883, 154018.67377980636, -113780.63872821793, 138969.19953455921, 154041.49491089524, 159576.88207350756, 163958.82981524823, 163484.86107407344, 0.16, -0.054, 0.994, 192.0, 0.0, 0.0, 0.0, 0.0, 0.0, 0.0, 0.0, 0.0, 0.0, 1.7307417776797814E9, 0.0, 2024-11-04 14:36:17.679
65.0, 162507.1063646205, 154035.4599398923, -113801.82818196157, 138965.46679323516, 154044.9594312858, 159579.58663458665, 163963.9036612396, 163488.8396845865, 0.16, -0.054, 0.994, 192.0, 0.0, 0.0, 0.0, 0.0, 0.0, 0.0, 0.0, 0.0, 0.0, 1.7307417776798077E9, 0.0, 2024-11-04 14:36:17.679
66.0, 162510.16855361089, 154051.3073267111, -113807.77374598668, 138960.63881643282, 154047.17225398688, 159580.8159805317, 163967.36818163015, 163490.91839682084, 0.16, -0.054, 0.994, 192.0, 0.0, 0.0, 0.0, 0.0, 0.0, 0.0, 0.0, 0.0, 0.0, 1.7307417776798396E9, 0.0, 2024-11-04 14:36:17.679
67.0, 162511.24143734472, 154065.83596060704, -113822.12356592699, 138954.4920867076, 154048.28984120965, 159581.03949797625, 163970.0056874759, 163492.41596369934, 0.16, -0.054, 0.994, 192.0, 0.0, 0.0, 0.0, 0.0, 0.0, 0.0, 0.0, 0.0, 0.0, 1.730741777679864E9, 0.0, 2024-11-04 14:36:17.679
68.0, 162511.8002309561, 154080.49870496974, -113854.57829887609, 138949.08296454942, 154050.07798076607, 159582.2688439213, 163973.8054840333, 163495.344042223, 0.16, -0.054, 0.994, 192.0, 0.0, 0.0, 0.0, 0.0, 0.0, 0.0, 0.0, 0.0, 0.0, 1.7307417776798935E9, 0.0, 2024-11-04 14:36:17.679
69.0, 162512.02374840068, 154094.28973129866, -113880.84159861108, 138942.66801389077, 154050.6591261219, 159582.15708519903, 163976.17476894555, 163496.5957399125, 0.16, -0.054, 0.994, 192.0, 0.0, 0.0, 0.0, 0.0, 0.0, 0.0, 0.0, 0.0, 0.0, 1.730741777679912E9, 0.0, 2024-11-04 14:36:17.679
70.0, 162513.29779783462, 154108.5277925167, -113888.03886032569, 138935.87308357633, 154051.0614575221, 159581.46418112091, 163977.73939105743, 163497.06512654605, 0.16, -0.054, 0.994, 192.0, 0.0, 0.0, 0.0, 0.0, 0.0, 0.0, 0.0, 0.0, 0.0, 1.7307417776799283E9, 0.0, 2024-11-04 14:36:17.679
71.0, 162516.7623182252, 154125.31395260262, -113898.92415987542, 138932.00623178558, 154054.39186744593, 159583.85581777763, 163982.50031262642, 163500.61905391444, 0.16, -0.054, 0.994, 192.0, 0.0, 0.0, 0.0, 0.0, 0.0, 0.0, 0.0, 0.0, 0.0, 1.7307417776799483E9, 0.0, 2024-11-04 14:36:17.679
72.0, 162515.4212135579, 154138.0320951977, -113926.08152938861, 138924.5407491375, 154054.2577569792, 159583.05115497723, 163984.15434171612, 163501.28960624812, 0.154, -0.054, 0.996, 192.0, 4.0, 208.0, 254.0, 80.0, 31.0, 32.0, 0.0, 0.0, 0.0, 1.7307417776799676E9, 0.0, 2024-11-04 14:36:17.679
73.0, 162515.98000716924, 154152.31485990464, -113954.80352101369, 138918.59518511238, 154055.5094546687, 159583.54289335525, 163987.12712372866, 163503.18950452682, 0.154, -0.054, 0.996, 192.0, 0.0, 0.0, 0.0, 0.0, 0.0, 0.0, 0.0, 0.0, 0.0, 1.7307417776799862E9, 0.0, 2024-11-04 14:36:17.679
74.0, 162517.6563880034, 154167.06701124515, -113965.3535443966, 138912.51551062055, 154056.53763491366, 159583.60994858862, 163989.47405689646, 163504.30709174956, 0.154, -0.054, 0.996, 192.0, 0.0, 0.0, 0.0, 0.0, 0.0, 0.0, 0.0, 0.0, 0.0, 1.7307417776800096E9, 0.0, 2024-11-04 14:36:17.680
75.0, 162521.4561845608, 154184.21079924237, -113973.17665495595, 138908.91687976324, 154060.09156228203, 159586.13569571206, 163994.34673718773, 163508.01748132915, 0.154, -0.054, 0.996, 192.0, 0.0, 0.0, 0.0, 0.0, 0.0, 0.0, 0.0, 0.0, 0.0, 1.7307417776800272E9, 0.0, 2024-11-04 14:36:17.680
76.0, 162522.08203340555, 154198.87354360503, -113999.93169306895, 138903.4854058606, 154061.857350094, 159587.16387595702, 163997.83360932276, 163510.63263543043, 0.154, -0.054, 0.996, 192.0, 0.0, 0.0, 0.0, 0.0, 0.0, 0.0, 0.0, 0.0, 0.0, 1.7307417776800456E9, 0.0, 2024-11-04 14:36:17.680
77.0, 162518.371643826, 154209.4012152435, -114027.33493177115, 138894.20943191164, 154059.80098960412, 159584.59342534465, 163997.78890583385, 163509.73856565222, 0.154, -0.054, 0.996, 192.0, 0.0, 0.0, 0.0, 0.0, 0.0, 0.0, 0.0, 0.0, 0.0, 1.730741777680163E9, 0.0, 2024-11-04 14:36:17.680
78.0, 162520.58446652704, 154225.09213985113, -114042.55646974522, 138889.40380685375, 154061.99146056073, 159586.02393698978, 164001.52164715788, 163512.4431267313, 0.154, -0.054, 0.996, 192.0, 0.0, 0.0, 0.0, 0.0, 0.0, 0.0, 0.0, 0.0, 0.0, 1.7307417776801903E9, 0.0, 2024-11-04 14:36:17.680
79.0, 162526.88765846344, 154243.93466042695, -114053.28530708377, 138887.0345219415, 154066.75238212972, 159589.39905040254, 164007.2660454829, 163516.77936515564, 0.154, -0.054, 0.996, 192.0, 0.0, 0.0, 0.0, 0.0, 0.0, 0.0, 0.0, 0.0, 0.0, 1.7307417776802099E9, 0.0, 2024-11-04 14:36:17.680
80.0, 162527.2676381192, 154258.03861117826, -114071.39022009257, 138881.02190268302, 154067.84761760803, 159589.80138180274, 164010.1047170287, 163518.63455994544, 0.154, -0.054, 0.996, 192.0, 0.0, 0.0, 0.0, 0.0, 0.0, 0.0, 0.0, 0.0, 0.0, 1.730741777680228E9, 0.0, 2024-11-04 14:36:17.680
81.0, 162521.8138124721, 154267.33693687164, -114098.90521751705, 138870.6283415113, 154064.85248385102, 159586.47097187888, 164009.27770248387, 163517.06993783356, 0.154, -0.054, 0.996, 192.0, 0.0, 0.0, 0.0, 0.0, 0.0, 0.0, 0.0, 0.0, 0.0, 1.730741777680246E9, 0.0, 2024-11-04 14:36:17.680
82.0, 162523.78076598415, 154282.58082659016, -114119.20060148247, 138865.3756815643, 154066.73003038528, 159587.38739340156, 164012.63046415217, 163519.17100181236, 0.02, -0.002, 0.9560000000000001, 192.0, 0.0, 160.0, 255.0, 240.0, 29.0, 224.0, 0.0, 0.0, 0.0, 1.7307417776802592E9, 0.0, 2024-11-04 14:36:17.680
83.0, 162530.79921374313, 154301.82567856618, -114129.8400318432, 138863.25226584106, 154071.53565544315, 159590.94132076995, 164018.4195659661, 163523.66370244787, 0.02, -0.002, 0.9560000000000001, 192.0, 0.0, 0.0, 0.0, 0.0, 0.0, 0.0, 0.0, 0.0, 0.0, 1.7307417776802752E9, 0.0, 2024-11-04 14:36:17.680
84.0, 162534.0625684336, 154318.54478341877, -114148.81666288576, 138859.58657975038, 154074.95547234482, 159593.53412312677, 164023.44870846852, 163527.53055423865, 0.02, -0.002, 0.9560000000000001, 192.0, 0.0, 0.0, 0.0, 0.0, 0.0, 0.0, 0.0, 0.0, 0.0, 1.730741777680293E9, 0.0, 2024-11-04 14:36:17.680
85.0, 162530.19571664283, 154329.1842137795, -114177.04691613281, 138850.53412324598, 154073.05557406612, 159591.25424519234, 164023.64987416862, 163526.9941123717, 0.02, -0.002, 0.9560000000000001, 192.0, 0.0, 0.0, 0.0, 0.0, 0.0, 0.0, 0.0, 0.0, 0.0, 1.73074177768031E9, 0.0, 2024-11-04 14:36:17.680
86.0, 162528.38522534195, 154340.941231363, -114199.1080879102, 138841.79459116395, 154071.379193232, 159588.79555330225, 164023.5604671908, 163525.92122863786, 0.02, -0.002, 0.9560000000000001, 192.0, 0.0, 0.0, 0.0, 0.0, 0.0, 0.0, 0.0, 0.0, 0.0, 1.7307417776803288E9, 0.0, 2024-11-04 14:36:17.680
87.0, 162534.2637341337, 154359.31436530524, -114209.83692524875, 138839.02297485148, 154075.4695624673, 159591.61187310363, 164028.63431318218, 163529.63161821742, 0.02, -0.002, 0.9560000000000001, 192.0, 0.0, 0.0, 0.0, 0.0, 0.0, 0.0, 0.0, 0.0, 0.0, 1.7307417776803517E9, 0.0, 2024-11-04 14:36:17.680
88.0, 162535.29191437864, 154373.46301954545, -114223.87382076668, 138832.60802419283, 154076.09541131204, 159591.29894868124, 164030.80243239432, 163530.592743229, 0.02, -0.002, 0.9560000000000001, 192.0, 0.0, 0.0, 0.0, 0.0, 0.0, 0.0, 0.0, 0.0, 0.0, 1.7307417776803713E9, 0.0, 2024-11-04 14:36:17.680
89.0, 162531.35800735452, 154383.70011850598, -114250.36063794621, 138823.15323628823, 154073.7708298887, 159588.61673934662, 164030.44480448304, 163529.47515600626, 0.02, -0.002, 0.9560000000000001, 192.0, 0.0, 0.0, 0.0, 0.0, 0.0, 0.0, 0.0, 0.0, 0.0, 1.730741777680387E9, 0.0, 2024-11-04 14:36:17.680
90.0, 162533.5708300556, 154399.77102276933, -114273.85232136874, 138818.95110833063, 154076.6765566679, 159590.67309983648, 164034.9151533741, 163532.8949729079, 0.02, -0.002, 0.9560000000000001, 192.0, 0.0, 0.0, 0.0, 0.0, 0.0, 0.0, 0.0, 0.0, 0.0, 1.7307417776803997E9, 0.0, 2024-11-04 14:36:17.680
91.0, 162541.52805108167, 154420.46873813495, -114286.68222268608, 138818.5711286749, 154083.24796953774, 159596.08222199467, 164042.55944997782, 163539.2428683332, 0.02, -0.002, 0.9560000000000001, 192.0, 0.0, 0.0, 0.0, 0.0, 0.0, 0.0, 0.0, 0.0, 0.0, 1.7307417776804218E9, 0.0, 2024-11-04 14:36:17.680
92.0, 162545.97604822827, 154438.03720927684, -114301.59083623778, 138815.53129142898, 154087.20422830633, 159599.07735575168, 164047.9238686471, 163543.37794105744, -0.002, -0.014, 0.808, 192.0, 255.0, 240.0, 255.0, 144.0, 25.0, 64.0, 0.0, 0.0, 0.0, 1.7307417776804588E9, 0.0, 2024-11-04 14:36:17.680
93.0, 162544.65729530543, 154450.7553518719, -114326.78125223891, 138808.4234366922, 154087.20422830633, 159598.49621039585, 164049.91317390362, 163544.4508247913, -0.002, -0.014, 0.808, 192.0, 0.0, 0.0, 0.0, 0.0, 0.0, 0.0, 0.0, 0.0, 0.0, 1.7307417776804736E9, 0.0, 2024-11-04 14:36:17.680
94.0, 162542.48917609325, 154462.37825898867, -114351.36817113975, 138799.99682903252, 154085.79606840565, 159596.4174981615, 164050.2708018149, 163543.78027245763, -0.002, -0.014, 0.808, 192.0, 0.0, 0.0, 0.0, 0.0, 0.0, 0.0, 0.0, 0.0, 0.0, 1.7307417776804876E9, 0.0, 2024-11-04 14:36:17.680
95.0, 162546.93717323986, 154479.5667504748, -114365.06979049084, 138796.42054991968, 154089.19353356285, 159598.67502435148, 164054.74115070596, 163546.9542201703, -0.002, -0.014, 0.808, 192.0, 0.0, 0.0, 0.0, 0.0, 0.0, 0.0, 0.0, 0.0, 0.0, 1.7307417776805024E9, 0.0, 2024-11-04 14:36:17.680
96.0, 162550.04406571915, 154495.68235822706, -114376.35742144079, 138791.7490353285, 154091.56281847513, 159599.90437029654, 164058.40683679664, 163549.4129120604, -0.002, -0.014, 0.808, 192.0, 0.0, 0.0, 0.0, 0.0, 0.0, 0.0, 0.0, 0.0, 0.0, 1.7307417776805165E9, 0.0, 2024-11-04 14:36:17.680
97.0, 162548.50179535174, 154508.08757639976, -114398.97738682955, 138784.23884919155, 154091.20519056384, 159598.89854179605, 164059.85970018624, 163549.97170567175, -0.002, -0.014, 0.808, 192.0, 0.0, 0.0, 0.0, 0.0, 0.0, 0.0, 0.0, 0.0, 0.0, 1.7307417776805303E9, 0.0, 2024-11-04 14:36:17.680
98.0, 162548.25592616273, 154521.7221405175, -114423.81017491939, 138777.91330551068, 154091.78633591966, 159598.9655970294, 164062.34074382077, 163551.5586795281, -0.002, -0.014, 0.808, 192.0, 0.0, 0.0, 0.0, 0.0, 0.0, 0.0, 0.0, 0.0, 0.0, 1.7307417776805437E9, 0.0, 2024-11-04 14:36:17.680
99.0, 162551.94396399785, 154538.39654188117, -114440.39516930524, 138773.88999150874, 154094.66971095442, 159600.88784705257, 164066.475816545, 163554.48675805173, -0.002, -0.014, 0.808, 192.0, 0.0, 0.0, 0.0, 0.0, 0.0, 0.0, 0.0, 0.0, 0.0, 1.730741777680564E9, 0.0, 2024-11-04 14:36:17.680
100.0, 162557.19662394485, 154556.56851012332, -114454.81204447891, 138771.4536513631, 154099.25181856775, 159604.1735534875, 164072.24256661447, 163558.89005170943, -0.002, -0.014, 0.808, 192.0, 0.0, 0.0, 0.0, 0.0, 0.0, 0.0, 0.0, 0.0, 0.0, 1.7307417776805835E9, 0.0, 2024-11-04 14:36:17.680
101.0, 162557.64365883396, 154570.96303355254, -114478.14726569025, 138765.84336350483, 154100.54821974615, 159604.70999535444, 164075.3718108382, 163561.03581917714, -0.002, -0.014, 0.808, 192.0, 0.0, 0.0, 0.0, 0.0, 0.0, 0.0, 0.0, 0.0, 0.0, 1.7307417776806011E9, 0.0, 2024-11-04 14:36:17.680
102.0, 162557.84482453406, 154584.86581860375, -114509.0820800164, 138759.78604075743, 154101.48699301327, 159605.04527152126, 164078.1210754062, 163562.77925524465, 0.14400000000000002, -0.006, 0.74, 192.0, 4.0, 128.0, 255.0, 208.0, 23.0, 32.0, 0.0, 0.0, 0.0, 1.7307417776806333E9, 0.0, 2024-11-04 14:36:17.680
103.0, 162558.89535652346, 154599.0368245884, -114524.32596973491, 138753.5052005655, 154102.13519360247, 159604.8217540767, 164080.19978764057, 163563.74038025623, 0.14400000000000002, -0.006, 0.74, 192.0, 0.0, 0.0, 0.0, 0.0, 0.0, 0.0, 0.0, 0.0, 0.0, 1.7307417776806583E9, 0.0, 2024-11-04 14:36:17.680
104.0, 162563.8574437925, 154617.0970341083, -114529.71274014864, 138751.1582673977, 154106.873763427, 159608.5097919118, 164086.2347586435, 163568.54600531413, 0.14400000000000002, -0.006, 0.74, 192.0, 0.0, 0.0, 0.0, 0.0, 0.0, 0.0, 0.0, 0.0, 0.0, 1.73074177768069E9, 0.0, 2024-11-04 14:36:17.680
105.0, 162564.75151357075, 154631.58096451533, -114551.8409671594, 138745.6597382617, 154108.46073728334, 159609.3591582011, 164089.5875203118, 163570.78117975965, 0.14400000000000002, -0.006, 0.74, 192.0, 0.0, 0.0, 0.0, 0.0, 0.0, 0.0, 0.0, 0.0, 0.0, 1.7307417781572824E9, 0.0, 2024-11-04 14:36:18.157
106.0, 162563.3657054145, 154644.18734838814, -114584.8991972088, 138738.41777305817, 154108.1254611165, 159608.4650884229, 164091.10743893473, 163571.27291813766, 0.14400000000000002, -0.006, 0.74, 192.0, 0.0, 0.0, 0.0, 0.0, 0.0, 0.0, 0.0, 0.0, 0.0, 1.7307417781573615E9, 0.0, 2024-11-04 14:36:18.157
107.0, 162564.48329263728, 154658.71598228408, -114603.47349685115, 138732.7851334554, 154109.39951055046, 159608.93447505648, 164093.8790552472, 163572.90459548292, 0.14400000000000002, -0.006, 0.74, 192.0, 0.0, 0.0, 0.0, 0.0, 0.0, 0.0, 0.0, 0.0, 0.0, 1.7307417781574206E9, 0.0, 2024-11-04 14:36:18.157
108.0, 162565.55617637112, 154673.1552092022, -114610.2460754211, 138726.86192117477, 154110.53944951767, 159608.97917854539, 164096.3824506262, 163574.26805189467, 0.14400000000000002, -0.006, 0.74, 192.0, 0.0, 0.0, 0.0, 0.0, 0.0, 0.0, 0.0, 0.0, 0.0, 1.730741778157434E9, 0.0, 2024-11-04 14:36:18.157
109.0, 162565.98085951578, 154687.5050291425, -114629.24505820812, 138721.4304472721, 154112.126423374, 159609.8732483236, 164099.66815706113, 163576.57028157357, 0.14400000000000002, -0.006, 0.74, 192.0, 0.0, 0.0, 0.0, 0.0, 0.0, 0.0, 0.0, 0.0, 0.0, 1.7307417781574464E9, 0.0, 2024-11-04 14:36:18.157
110.0, 162561.3093449246, 154697.42920368066, -114666.97480284868, 138711.93095587863, 154109.2654000837, 159606.63224537758, 164098.70703204954, 163574.89390073944, 0.14400000000000002, -0.006, 0.74, 192.0, 0.0, 0.0, 0.0, 0.0, 0.0, 0.0, 0.0, 0.0, 0.0, 1.73074177815746E9, 0.0, 2024-11-04 14:36:18.157
111.0, 162564.10331298155, 154713.61186666632, -114688.45482927024, 138707.95234536557, 154112.126423374, 159608.666254123, 164103.1326774517, 163578.20195891883, 0.14400000000000002, -0.006, 0.74, 192.0, 0.0, 0.0, 0.0, 0.0, 0.0, 0.0, 0.0, 0.0, 0.0, 1.7307417781574721E9, 0.0, 2024-11-04 14:36:18.157
112.0, 162568.93128978388, 154731.3591517638, -114693.66278572832, 138705.00191509747, 154115.94857167586, 159611.3261117132, 164108.22887518752, 163582.04645896514, 0.088, 0.04, 0.75, 192.0, 2.0, 192.0, 1.0, 64.0, 23.0, 112.0, 0.0, 0.0, 0.0, 1.7307417781574955E9, 0.0, 2024-11-04 14:36:18.157
113.0, 162569.40067641746, 154745.26193681502, -114707.94555043525, 138698.67637141663, 154116.6638274984, 159611.03553903528, 164110.4864013775, 163583.23110142126, 0.088, 0.04, 0.75, 192.0, 0.0, 0.0, 0.0, 0.0, 0.0, 0.0, 0.0, 0.0, 0.0, 1.7307417781575098E9, 0.0, 2024-11-04 14:36:18.157
114.0, 162570.5629671291, 154760.39406781126, -114738.90271650587, 138694.09426380327, 154119.21192636632, 159612.89073382507, 164114.91204677965, 163586.69562181184, 0.088, 0.04, 0.75, 192.0, 0.0, 0.0, 0.0, 0.0, 0.0, 0.0, 0.0, 0.0, 0.0, 1.730741778157522E9, 0.0, 2024-11-04 14:36:18.157
115.0, 162572.64167936347, 154775.59325404087, -114761.20975747226, 138689.1321765342, 154121.4247490674, 159614.1200797701, 164118.71184333705, 163589.24372067975, 0.088, 0.04, 0.75, 192.0, 0.0, 0.0, 0.0, 0.0, 0.0, 0.0, 0.0, 0.0, 0.0, 1.730741778157534E9, 0.0, 2024-11-04 14:36:18.157
116.0, 162578.25196722173, 154793.96638798315, -114771.29039422159, 138686.7405398775, 154125.64922876947, 159617.33873097168, 164124.00920677296, 163593.4682003818, 0.088, 0.04, 0.75, 192.0, 0.0, 0.0, 0.0, 0.0, 0.0, 0.0, 0.0, 0.0, 0.0, 1.730741778157546E9, 0.0, 2024-11-04 14:36:18.157
117.0, 162579.90599631143, 154808.8302980459, -114785.97549032874, 138681.21965899703, 154126.6774090144, 159617.6293036496, 164126.53495389642, 163594.83165679357, 0.088, 0.04, 0.75, 192.0, 0.0, 0.0, 0.0, 0.0, 0.0, 0.0, 0.0, 0.0, 0.0, 1.7307417781575584E9, 0.0, 2024-11-04 14:36:18.157
118.0, 162580.15186550043, 154822.6436761193, -114815.52449649865, 138675.1399845052, 154127.66088577043, 159617.78576586078, 164129.2395149755, 163596.53038937217, 0.088, 0.04, 0.75, 192.0, 0.0, 0.0, 0.0, 0.0, 0.0, 0.0, 0.0, 0.0, 0.0, 1.7307417781575701E9, 0.0, 2024-11-04 14:36:18.157
119.0, 162581.4259149344, 154837.52993792653, -114844.31354335709, 138669.95437979154, 154129.11374916002, 159618.59042866118, 164132.27935222143, 163598.63145335097, 0.088, 0.04, 0.75, 192.0, 0.0, 0.0, 0.0, 0.0, 0.0, 0.0, 0.0, 0.0, 0.0, 1.7307417781575823E9, 0.0, 2024-11-04 14:36:18.157
120.0, 162583.8846068245, 154852.86323462287, -114850.57203180458, 138664.76877507792, 154130.76777824972, 159619.23862925038, 164135.31918946735, 163600.2631306962, 0.088, 0.04, 0.75, 192.0, 0.0, 0.0, 0.0, 0.0, 0.0, 0.0, 0.0, 0.0, 0.0, 1.730741778157595E9, 0.0, 2024-11-04 14:36:18.157
121.0, 162586.05272603664, 154868.1518278303, -114859.89270924244, 138659.80668780886, 154132.66767652842, 159620.1326990286, 164138.64959939118, 163602.38654641947, 0.088, 0.04, 0.75, 192.0, 0.0, 0.0, 0.0, 0.0, 0.0, 0.0, 0.0, 0.0, 0.0, 1.730741778157607E9, 0.0, 2024-11-04 14:36:18.157
122.0, 162585.69509812538, 154881.58522624793, -114887.83238981156, 138653.3693854057, 154133.07000792862, 159619.9762368174, 164140.7953668589, 163603.75000283122, -0.012, 0.0, 0.488, 192.0, 255.0, 160.0, 0.0, 0.0, 15.0, 64.0, 0.0, 0.0, 0.0, 1.7307417781576266E9, 0.0, 2024-11-04 14:36:18.157
123.0, 162585.09160102508, 154894.48218279865, -114918.36487273753, 138646.3732893912, 154132.91354571743, 159619.05981529472, 164142.31528548186, 163604.19703772033, -0.012, 0.0, 0.488, 192.0, 0.0, 0.0, 0.0, 0.0, 0.0, 0.0, 0.0, 0.0, 0.0, 1.7307417781576393E9, 0.0, 2024-11-04 14:36:18.157
124.0, 162589.1372667715, 154911.69302602924, -114931.9770851108, 138643.3781556342, 154136.6909905304, 159621.7196728849, 164147.41148321767, 163608.0191860222, -0.012, 0.0, 0.488, 192.0, 0.0, 0.0, 0.0, 0.0, 0.0, 0.0, 0.0, 0.0, 0.0, 1.730741778157652E9, 0.0, 2024-11-04 14:36:18.157
125.0, 162591.95358657284, 154927.87568901488, -114940.58250672609, 138639.33248988778, 154139.4402550984, 159623.50781244133, 164151.501852453, 163610.99196803474, -0.012, 0.0, 0.488, 192.0, 0.0, 0.0, 0.0, 0.0, 0.0, 0.0, 0.0, 0.0, 0.0, 1.7307417781576636E9, 0.0, 2024-11-04 14:36:18.157
126.0, 162591.61831040602, 154941.24203219917, -114965.79527447167, 138632.96224271803, 154139.86493824303, 159623.26194325232, 164153.8040821319, 163612.40012793543, -0.012, 0.0, 0.488, 192.0, 0.0, 0.0, 0.0, 0.0, 0.0, 0.0, 0.0, 0.0, 0.0, 1.7307417781576753E9, 0.0, 2024-11-04 14:36:18.157
127.0, 162591.126572028, 154954.56367189452, -114997.35593764257, 138626.43553333706, 154140.3343248766, 159623.03842580778, 164156.0392565774, 163613.60712213602, -0.012, 0.0, 0.488, 192.0, 0.0, 0.0, 0.0, 0.0, 0.0, 0.0, 0.0, 0.0, 0.0, 1.7307417781576872E9, 0.0, 2024-11-04 14:36:18.157
128.0, 162591.90888308393, 154968.62291915691, -115011.61635060507, 138620.4676175675, 154141.00487721025, 159622.8819635966, 164158.20737578959, 163614.5682471476, -0.012, 0.0, 0.488, 192.0, 0.0, 0.0, 0.0, 0.0, 0.0, 0.0, 0.0, 0.0, 0.0, 1.730741778157699E9, 0.0, 2024-11-04 14:36:18.157
129.0, 162594.94872032985, 154985.00674784265, -115017.53956288572, 138616.6678210101, 154143.95530747835, 159624.7818618753, 164162.52126246944, 163617.630436138, -0.012, 0.0, 0.488, 192.0, 0.0, 0.0, 0.0, 0.0, 0.0, 0.0, 0.0, 0.0, 0.0, 1.730741778157711E9, 0.0, 2024-11-04 14:36:18.157
130.0, 162595.3286999856, 154999.20010557177, -115038.88547884053, 138611.1245883852, 154145.5422813347, 159625.49711769787, 164165.76226541548, 163619.8209070946, -0.012, 0.0, 0.488, 192.0, 0.0, 0.0, 0.0, 0.0, 0.0, 0.0, 0.0, 0.0, 0.0, 1.7307417781577232E9, 0.0, 2024-11-04 14:36:18.157
131.0, 162592.5347319287, 155010.75595745517, -115077.08461011466, 138603.2567743369, 154144.26823190073, 159623.8207368637, 164166.38811426022, 163619.64209313894, -0.012, 0.0, 0.488, 192.0, 0.0, 0.0, 0.0, 0.0, 0.0, 0.0, 0.0, 0.0, 0.0, 1.730741778157735E9, 0.0, 2024-11-04 14:36:18.157
132.0, 162592.91471158442, 155024.6363907619, -115101.31390110421, 138597.17709984508, 154144.64821155646, 159623.44075720798, 164168.3997712612, 163620.49145942825, -0.068, -0.062, 0.088, 192.0, 253.0, 224.0, 254.0, 16.0, 2.0, 192.0, 0.0, 0.0, 0.0, 1.7307417781577473E9, 0.0, 2024-11-04 14:36:18.157
133.0, 162597.89915059795, 155042.31662062605, -115105.15840115052, 138594.4054835326, 154148.80563602515, 159626.39118747608, 164173.74183818602, 163624.5818286636, -0.068, -0.062, 0.088, 192.0, 0.0, 0.0, 0.0, 0.0, 0.0, 0.0, 0.0, 0.0, 0.0, 1.7307417781577597E9, 0.0, 2024-11-04 14:36:18.157
134.0, 162598.99438607626, 155056.73349579974, -115120.82697401369, 138588.9516578855, 154150.28085115922, 159626.94998108747, 164176.78167543194, 163626.5264304312, -0.068, -0.062, 0.088, 192.0, 0.0, 0.0, 0.0, 0.0, 0.0, 0.0, 0.0, 0.0, 0.0, 1.7307417781577718E9, 0.0, 2024-11-04 14:36:18.157
135.0, 162597.20624651984, 155068.75873431668, -115152.78996858478, 138581.3520647707, 154149.49854010326, 159625.54182118678, 164177.8992626547, 163626.6828926424, -0.068, -0.062, 0.088, 192.0, 0.0, 0.0, 0.0, 0.0, 0.0, 0.0, 0.0, 0.0, 0.0, 1.7307417781577835E9, 0.0, 2024-11-04 14:36:18.157
136.0, 162599.15084828745, 155083.98027229076, -115176.57222468522, 138576.47938447946, 154151.17492093742, 159626.45824270943, 164181.07321036735, 163628.76160487672, -0.068, -0.062, 0.088, 192.0, 0.0, 0.0, 0.0, 0.0, 0.0, 0.0, 0.0, 0.0, 0.0, 1.7307417781577966E9, 0.0, 2024-11-04 14:36:18.157
137.0, 162602.7271274003, 155100.22999050975, -115181.71312590994, 138572.2102012885, 154153.67831631642, 159627.7769956323, 164184.76124820247, 163631.1755932779, -0.068, -0.062, 0.088, 192.0, 0.0, 0.0, 0.0, 0.0, 0.0, 0.0, 0.0, 0.0, 0.0, 1.7307417781578171E9, 0.0, 2024-11-04 14:36:18.157
138.0, 162603.5317902007, 155114.44569998333, -115197.5381609843, 138566.46580296347, 154154.46062737235, 159627.8887543546, 164187.1528848592, 163632.58375317857, -0.068, -0.062, 0.088, 192.0, 0.0, 0.0, 0.0, 0.0, 0.0, 0.0, 0.0, 0.0, 0.0, 1.7307417781578293E9, 0.0, 2024-11-04 14:36:18.157
139.0, 162602.54831344465, 155127.20854606733, -115228.18240263253, 138559.64852090462, 154154.55003435016, 159627.2852572543, 164189.05278313791, 163633.54487819015, -0.068, -0.062, 0.088, 192.0, 0.0, 0.0, 0.0, 0.0, 0.0, 0.0, 0.0, 0.0, 0.0, 1.7307417781578412E9, 0.0, 2024-11-04 14:36:18.157
140.0, 162604.04588032316, 155142.29597357466, -115257.03850472433, 138554.77584061335, 154156.38287739552, 159628.35814098813, 164192.53965527294, 163635.98121833577, -0.068, -0.062, 0.088, 192.0, 0.0, 0.0, 0.0, 0.0, 0.0, 0.0, 0.0, 0.0, 0.0, 1.7307417781578531E9, 0.0, 2024-11-04 14:36:18.157
141.0, 162609.34324375907, 155160.75851449472, -115266.11331297319, 138552.98770105693, 154161.16615070894, 159632.06853056772, 164198.55227453142, 163640.76449164923, -0.068, -0.062, 0.088, 192.0, 0.0, 0.0, 0.0, 0.0, 0.0, 0.0, 0.0, 0.0, 0.0, 1.7307417781578655E9, 0.0, 2024-11-04 14:36:18.157
142.0, 162611.82428739363, 155176.49414259125, -115276.23865321145, 138548.74086961042, 154163.7366013213, 159633.6778561685, 164202.53088504446, 163643.55845970614, 0.048, -0.07, 0.59, 192.0, 1.0, 128.0, 253.0, 208.0, 18.0, 112.0, 0.0, 0.0, 0.0, 1.7307417781578777E9, 0.0, 2024-11-04 14:36:18.157
143.0, 162609.54440945917, 155187.96058749684, -115306.39115648165, 138540.7612968399, 154162.68606933192, 159631.934420101, 164203.33554784485, 163643.40199749495, 0.048, -0.07, 0.59, 192.0, 0.0, 0.0, 0.0, 0.0, 0.0, 0.0, 0.0, 0.0, 0.0, 1.7307417781578903E9, 0.0, 2024-11-04 14:36:18.157
144.0, 162608.51622921423, 155200.54461962517, -115335.0237411289, 138533.78755256982, 154162.39549665397, 159630.8838881116, 164204.78841123445, 163643.80432889514, 0.048, -0.07, 0.59, 192.0, 0.0, 0.0, 0.0, 0.0, 0.0, 0.0, 0.0, 0.0, 0.0, 1.7307417781579025E9, 0.0, 2024-11-04 14:36:18.157
145.0, 162612.62895019402, 155217.6437041335, -115345.9313924231, 138530.83712230172, 154166.0388310002, 159633.52139395732, 164209.7504985035, 163647.40295975245, 0.048, -0.07, 0.59, 192.0, 0.0, 0.0, 0.0, 0.0, 0.0, 0.0, 0.0, 0.0, 0.0, 1.7307417781579146E9, 0.0, 2024-11-04 14:36:18.157
146.0, 162614.77471766173, 155233.06640780764, -115354.49211054947, 138526.1432559661, 154168.02813625673, 159634.54957420225, 164213.1479636607, 163649.66048594244, 0.048, -0.07, 0.59, 192.0, 0.0, 0.0, 0.0, 0.0, 0.0, 0.0, 0.0, 0.0, 0.0, 1.7307417781579268E9, 0.0, 2024-11-04 14:36:18.157
147.0, 162614.88647638398, 155246.96919285884, -115382.52119809642, 138520.53296810781, 154169.1904269684, 159635.06366432473, 164216.0983939288, 163651.71684643233, 0.048, -0.07, 0.59, 192.0, 0.0, 0.0, 0.0, 0.0, 0.0, 0.0, 0.0, 0.0, 0.0, 1.7307417781579387E9, 0.0, 2024-11-04 14:36:18.157
148.0, 162615.04293859517, 155260.76021918777, -115415.95940780157, 138514.8332732717, 154170.06214500216, 159635.22012653592, 164218.69119628565, 163653.39322726647, 0.048, -0.07, 0.59, 192.0, 0.0, 0.0, 0.0, 0.0, 0.0, 0.0, 0.0, 0.0, 0.0, 1.730741778157956E9, 0.0, 2024-11-04 14:36:18.157
149.0, 162617.50163048526, 155276.16057111748, -115430.30922774188, 138510.07235170275, 154171.7832293252, 159636.0247893363, 164221.68633004266, 163655.24842205626, 0.048, -0.07, 0.59, 192.0, 0.0, 0.0, 0.0, 0.0, 0.0, 0.0, 0.0, 0.0, 0.0, 1.7307417781579683E9, 0.0, 2024-11-04 14:36:18.157
150.0, 162620.25089505326, 155291.94090270292, -115437.08180631183, 138505.6914097895, 154173.97370028184, 159637.20943179243, 164225.17320217768, 163657.5730034796, 0.048, -0.07, 0.59, 192.0, 0.0, 0.0, 0.0, 0.0, 0.0, 0.0, 0.0, 0.0, 0.0, 1.7307417781579812E9, 0.0, 2024-11-04 14:36:18.157
151.0, 162621.94962763187, 155307.3636063771, -115460.88641415673, 138501.46693008745, 154176.45474391637, 159638.95286785995, 164229.4200336242, 163660.881061659, 0.048, -0.07, 0.59, 192.0, 0.0, 0.0, 0.0, 0.0, 0.0, 0.0, 0.0, 0.0, 0.0, 1.7307417781579938E9, 0.0, 2024-11-04 14:36:18.157
