%OpenBCI Raw EXG Data
%Number of channels = 8
%Sample Rate = 250 Hz
%Board = OpenBCI_GUI$BoardCytonSerial
Sample Index, EXG Channel 0, EXG Channel 1, EXG Channel 2, EXG Channel 3, EXG Channel 4, EXG Channel 5, EXG Channel 6, EXG Channel 7, Accel Channel 0, Accel Channel 1, Accel Channel 2, Not Used, Digital Channel 0 (D11), Digital Channel 1 (D12), Digital Channel 2 (D13), Digital Channel 3 (D17), Not Used, Digital Channel 4 (D18), Analog Channel 0, Analog Channel 1, Analog Channel 2, Timestamp, Marker Channel, Timestamp (Formatted)
63.0, 145824.4795590019, 145724.92488919795, 145930.00214457538, 145904.56585938524, 145889.1878592, 145871.7758502693, 145887.82440278822, 145865.40560309956, 0.0, 0.0, 0.0, 192.0, 0.0, 0.0, 0.0, 0.0, 0.0, 0.0, 0.0, 0.0, 0.0, 1.7401441145857975E9, 0.0, 2025-02-21 10:21:54.585
64.0, 145786.92862831696, 145687.32925502412, 145892.47356563492, 145866.99257695588, 145851.61457677063, 145834.20256783994, 145850.40758257004, 145827.8323206702, 0.0, 0.0, 0.0, 192.0, 0.0, 0.0, 0.0, 0.0, 0.0, 0.0, 0.0, 0.0, 0.0, 1.7401441145858276E9, 0.0, 2025-02-21 10:21:54.585
65.0, 145749.5565115877, 145650.0241935282, 145855.14615239456, 145829.64281197105, 145814.3095152747, 145796.91985808848, 145813.03546584077, 145790.48255568536, 0.0, 0.0, 0.0, 192.0, 0.0, 0.0, 0.0, 0.0, 0.0, 0.0, 0.0, 0.0, 0.0, 1.7401441145858457E9, 0.0, 2025-02-21 10:21:54.585
66.0, 145715.2912873377, 145615.8707280005, 145820.85857640012, 145795.37758772107, 145780.06664276918, 145762.72168907186, 145778.72553810186, 145756.2620349243, 0.0, 0.0, 0.0, 192.0, 0.0, 0.0, 0.0, 0.0, 0.0, 0.0, 0.0, 0.0, 0.0, 1.740144114585863E9, 0.0, 2025-02-21 10:21:54.585
67.0, 145681.71896716583, 145582.27605608417, 145787.3086079727, 145761.78291580474, 145746.4943225973, 145729.17172064446, 145745.06381095218, 145722.82382521915, 0.0, 0.0, 0.0, 192.0, 0.0, 0.0, 0.0, 0.0, 0.0, 0.0, 0.0, 0.0, 0.0, 1.7401441145858796E9, 0.0, 2025-02-21 10:21:54.585
68.0, 145647.18552198238, 145547.8096661341, 145752.77516278924, 145727.20476713238, 145712.07263613614, 145694.61592371654, 145710.55271751317, 145688.31273178014, 0.0, 0.0, 0.0, 192.0, 0.0, 0.0, 0.0, 0.0, 0.0, 0.0, 0.0, 0.0, 0.0, 1.7401441145858967E9, 0.0, 2025-02-21 10:21:54.585
69.0, 145612.8308907546, 145513.45503490628, 145718.37582807255, 145692.87248764903, 145677.65094967498, 145660.26129248875, 145676.0863275631, 145653.84634183007, 0.0, 0.0, 0.0, 192.0, 0.0, 0.0, 0.0, 0.0, 0.0, 0.0, 0.0, 0.0, 0.0, 1.740144114585914E9, 0.0, 2025-02-21 10:21:54.585
70.0, 145580.62202699448, 145481.2014676573, 145686.12226082353, 145660.6859756334, 145645.39738242596, 145628.00772523973, 145643.85511205855, 145621.59277458105, 0.052000000000000005, 0.932, 0.356, 192.0, 1.0, 160.0, 29.0, 32.0, 11.0, 32.0, 0.0, 0.0, 0.0, 1.7401441145859308E9, 0.0, 2025-02-21 10:21:54.585
71.0, 145548.2567010232, 145448.74673470817, 145653.71223136334, 145628.29829791764, 145612.98735296578, 145595.59769577955, 145611.55684132062, 145589.13804163196, 0.052000000000000005, 0.932, 0.356, 192.0, 0.0, 0.0, 0.0, 0.0, 0.0, 0.0, 0.0, 0.0, 0.0, 1.74014411458595E9, 0.0, 2025-02-21 10:21:54.585
72.0, 145510.54930812708, 145411.19580402324, 145616.16130067842, 145590.613256766, 145575.43642228085, 145558.04676509462, 145573.9612071468, 145551.5647592026, 0.052000000000000005, 0.932, 0.356, 192.0, 0.0, 0.0, 0.0, 0.0, 0.0, 0.0, 0.0, 0.0, 0.0, 1.7401441145859673E9, 0.0, 2025-02-21 10:21:54.585
73.0, 145470.83025823, 145371.34264365945, 145576.26343682568, 145550.73774465773, 145535.62796540593, 145518.1936047308, 145534.01863980517, 145511.71159883877, 0.052000000000000005, 0.932, 0.356, 192.0, 0.0, 0.0, 0.0, 0.0, 0.0, 0.0, 0.0, 0.0, 0.0, 1.7401441145859845E9, 0.0, 2025-02-21 10:21:54.585
74.0, 145436.76619968013, 145337.300936854, 145542.1993782758, 145516.6960378523, 145501.58625860052, 145484.17424966983, 145499.93222951083, 145477.7369472667, 0.052000000000000005, 0.932, 0.356, 192.0, 0.0, 0.0, 0.0, 0.0, 0.0, 0.0, 0.0, 0.0, 0.0, 1.7401441145860016E9, 0.0, 2025-02-21 10:21:54.586
75.0, 145405.36199872041, 145305.8967358943, 145510.72812208274, 145485.2471334037, 145470.092650663, 145452.7700487101, 145468.5280285511, 145446.28804281808, 0.052000000000000005, 0.932, 0.356, 192.0, 0.0, 0.0, 0.0, 0.0, 0.0, 0.0, 0.0, 0.0, 0.0, 1.7401441145860193E9, 0.0, 2025-02-21 10:21:54.586
76.0, 145371.6108645929, 145272.05619478898, 145476.86522923294, 145451.3842405539, 145436.20740606874, 145418.95185934924, 145434.73219093468, 145412.4251499683, 0.052000000000000005, 0.932, 0.356, 192.0, 0.0, 0.0, 0.0, 0.0, 0.0, 0.0, 0.0, 0.0, 0.0, 1.7401441145860367E9, 0.0, 2025-02-21 10:21:54.586
77.0, 145334.4622653082, 145235.01935422653, 145439.64957471486, 145414.2356412692, 145399.08115852848, 145381.7585565756, 145397.5612399055, 145375.25419893913, 0.052000000000000005, 0.932, 0.356, 192.0, 0.0, 0.0, 0.0, 0.0, 0.0, 0.0, 0.0, 0.0, 0.0, 1.7401441145861044E9, 0.0, 2025-02-21 10:21:54.586
78.0, 145298.40890150177, 145198.9659904201, 145403.59621090844, 145378.18227746277, 145363.05014646653, 145345.74989625812, 145361.50787609912, 145339.29024211052, 0.052000000000000005, 0.932, 0.356, 192.0, 0.0, 0.0, 0.0, 0.0, 0.0, 0.0, 0.0, 0.0, 0.0, 1.7401441145861223E9, 0.0, 2025-02-21 10:21:54.586
79.0, 145266.02122378603, 145166.55596095993, 145371.23088493716, 145345.74989625812, 145330.72952398413, 145313.40692203128, 145329.0978466389, 145306.88021265034, 0.052000000000000005, 0.932, 0.356, 192.0, 0.0, 0.0, 0.0, 0.0, 0.0, 0.0, 0.0, 0.0, 0.0, 1.740144114586722E9, 0.0, 2025-02-21 10:21:54.586
80.0, 145232.11362744734, 145132.69306811012, 145337.4126955763, 145311.97641038615, 145296.86663113435, 145279.72284313713, 145295.27965727804, 145273.0843750339, 0.052000000000000005, 0.932, 0.356, 192.0, 0.0, 0.0, 0.0, 0.0, 0.0, 0.0, 0.0, 0.0, 0.0, 1.7401441145867467E9, 0.0, 2025-02-21 10:21:54.586
81.0, 145196.99903690803, 145097.60082931528, 145302.27575329255, 145276.81711635794, 145261.70733710617, 145244.4741421311, 145259.9862527831, 145237.94743275017, 0.056, 0.93, 0.34800000000000003, 192.0, 1.0, 192.0, 29.0, 16.0, 10.0, 224.0, 0.0, 0.0, 0.0, 1.7401441145867665E9, 0.0, 2025-02-21 10:21:54.586
82.0, 145162.64440568024, 145063.0897358763, 145267.76465985354, 145242.26131943005, 145227.24094715607, 145209.96304869212, 145225.51986283303, 145203.50339454453, 0.056, 0.93, 0.34800000000000003, 192.0, 0.0, 0.0, 0.0, 0.0, 0.0, 0.0, 0.0, 0.0, 0.0, 1.740144114586789E9, 0.0, 2025-02-21 10:21:54.586
83.0, 145129.8096930754, 145030.32207850483, 145234.9299472487, 145209.4266068252, 145194.38388280678, 145177.19539132065, 145192.7298537171, 145170.53457147296, 0.056, 0.93, 0.34800000000000003, 192.0, 0.0, 0.0, 0.0, 0.0, 0.0, 0.0, 0.0, 0.0, 0.0, 1.7401441145868063E9, 0.0, 2025-02-21 10:21:54.586
84.0, 145095.5444688254, 144996.19096472158, 145200.70942648762, 145175.2060860641, 145160.18571379015, 145142.93016707065, 145158.50933295602, 145136.3140507119, 0.056, 0.93, 0.34800000000000003, 192.0, 0.0, 0.0, 0.0, 0.0, 0.0, 0.0, 0.0, 0.0, 0.0, 1.7401441145868237E9, 0.0, 2025-02-21 10:21:54.586
85.0, 145058.70879396307, 144959.35528985923, 145163.94080685865, 145138.39276294623, 145123.3500389278, 145106.0944922083, 145121.6513063492, 145099.59013457183, 0.056, 0.93, 0.34800000000000003, 192.0, 0.0, 0.0, 0.0, 0.0, 0.0, 0.0, 0.0, 0.0, 0.0, 1.7401441145868456E9, 0.0, 2025-02-21 10:21:54.586
86.0, 145020.53201443338, 144921.24556556292, 145125.78637907343, 145100.23833516103, 145085.24031463152, 145068.00711965648, 145083.56393379736, 145061.41335504214, 0.056, 0.93, 0.34800000000000003, 192.0, 0.0, 0.0, 0.0, 0.0, 0.0, 0.0, 0.0, 0.0, 0.0, 1.7401441145868628E9, 0.0, 2025-02-21 10:21:54.586
87.0, 144988.59137160677, 144889.28257099184, 145093.8457362468, 145068.27534058993, 145053.2773200604, 145036.06647682984, 145051.60093922628, 145029.53976744888, 0.056, 0.93, 0.34800000000000003, 192.0, 0.0, 0.0, 0.0, 0.0, 0.0, 0.0, 0.0, 0.0, 0.0, 1.74014411458688E9, 0.0, 2025-02-21 10:21:54.586
88.0, 144956.49426656895, 144857.16311420954, 145061.6368724867, 145036.15588380766, 145021.15786327815, 145003.9246683031, 145019.39207546617, 144997.3309036888, 0.056, 0.93, 0.34800000000000003, 192.0, 0.0, 0.0, 0.0, 0.0, 0.0, 0.0, 0.0, 0.0, 0.0, 1.7401441145868976E9, 0.0, 2025-02-21 10:21:54.586
89.0, 144920.0162196179, 144820.68506725848, 145025.13647379118, 144999.7225403455, 144984.724519816, 144967.4689730965, 144983.00343549292, 144960.80815324883, 0.056, 0.93, 0.34800000000000003, 192.0, 0.0, 0.0, 0.0, 0.0, 0.0, 0.0, 0.0, 0.0, 0.0, 1.740144114586916E9, 0.0, 2025-02-21 10:21:54.586
90.0, 144883.53817266683, 144784.16231681852, 144988.7254820735, 144963.17743816107, 144948.22412112047, 144931.03562963434, 144946.50303679743, 144924.3077545533, 0.056, 0.93, 0.34800000000000003, 192.0, 0.0, 0.0, 0.0, 0.0, 0.0, 0.0, 0.0, 0.0, 0.0, 1.7401441145869331E9, 0.0, 2025-02-21 10:21:54.586
91.0, 144850.50229436188, 144751.03703153576, 144955.53314155736, 144929.9627459005, 144915.0094288599, 144897.82093737376, 144913.26599279238, 144891.16011752607, 0.048, 0.926, 0.34800000000000003, 192.0, 1.0, 128.0, 28.0, 240.0, 10.0, 224.0, 0.0, 0.0, 0.0, 1.7401441145869505E9, 0.0, 2025-02-21 10:21:54.586
92.0, 144818.33813409068, 144718.93992649793, 144923.32427779728, 144897.8432891182, 144882.91232382206, 144865.56737012474, 144881.19123949902, 144859.0406607438, 0.048, 0.926, 0.34800000000000003, 192.0, 0.0, 0.0, 0.0, 0.0, 0.0, 0.0, 0.0, 0.0, 0.0, 1.7401441145869694E9, 0.0, 2025-02-21 10:21:54.586
93.0, 144780.85425863913, 144681.45605104638, 144885.75099536788, 144860.42646890003, 144845.3837448816, 144828.06114292875, 144843.7297157919, 144821.55678529225, 0.048, 0.926, 0.34800000000000003, 192.0, 0.0, 0.0, 0.0, 0.0, 0.0, 0.0, 0.0, 0.0, 0.0, 1.7401441145870047E9, 0.0, 2025-02-21 10:21:54.587
94.0, 144744.17504598797, 144644.7321349063, 144849.11648620563, 144823.65784927105, 144808.682180486, 144791.40428202203, 144806.96109616294, 144784.89992438554, 0.048, 0.926, 0.34800000000000003, 192.0, 0.0, 0.0, 0.0, 0.0, 0.0, 0.0, 0.0, 0.0, 0.0, 1.7401441145870838E9, 0.0, 2025-02-21 10:21:54.587
95.0, 144711.29562989422, 144611.89742230147, 144816.30412534525, 144790.7784331773, 144775.80276439223, 144758.5695694172, 144774.0146248358, 144752.10991526963, 0.048, 0.926, 0.34800000000000003, 192.0, 0.0, 0.0, 0.0, 0.0, 0.0, 0.0, 0.0, 0.0, 0.0, 1.740144114587103E9, 0.0, 2025-02-21 10:21:54.587
96.0, 144680.74079522383, 144581.45434635333, 144785.74929067484, 144760.17889501798, 144745.29263321075, 144728.12649346906, 144743.39273493204, 144721.48802536583, 0.048, 0.926, 0.34800000000000003, 192.0, 0.0, 0.0, 0.0, 0.0, 0.0, 0.0, 0.0, 0.0, 0.0, 1.740144114587123E9, 0.0, 2025-02-21 10:21:54.587
97.0, 144647.3919924965, 144548.08319188157, 144752.33343271416, 144726.85244403512, 144711.94383048342, 144694.82239423066, 144710.06628394919, 144688.16157438298, 0.048, 0.926, 0.34800000000000003, 192.0, 0.0, 0.0, 0.0, 0.0, 0.0, 0.0, 0.0, 0.0, 0.0, 1.7401441145871408E9, 0.0, 2025-02-21 10:21:54.587
98.0, 144608.18703272188, 144508.69941815131, 144713.1061211951, 144687.55807728268, 144672.62711198654, 144655.48332398932, 144670.79426894122, 144648.77780065272, 0.048, 0.926, 0.34800000000000003, 192.0, 0.0, 0.0, 0.0, 0.0, 0.0, 0.0, 0.0, 0.0, 0.0, 1.74014411458716E9, 0.0, 2025-02-21 10:21:54.587
99.0, 144572.60305554903, 144473.16014446737, 144677.47744053334, 144651.9517483654, 144637.0431348137, 144619.89934681647, 144635.21029176837, 144613.26087871325, 0.048, 0.926, 0.34800000000000003, 192.0, 0.0, 0.0, 0.0, 0.0, 0.0, 0.0, 0.0, 0.0, 0.0, 1.7401441145871775E9, 0.0, 2025-02-21 10:21:54.587
100.0, 144542.11527611202, 144442.7394202637, 144646.9896610963, 144621.46396892835, 144606.68946584337, 144589.4339191239, 144604.8342710536, 144582.79545102068, 0.048, 0.926, 0.34800000000000003, 192.0, 0.0, 0.0, 0.0, 0.0, 0.0, 0.0, 0.0, 0.0, 0.0, 1.7401441145871947E9, 0.0, 2025-02-21 10:21:54.587
101.0, 144508.5653076846, 144409.30121055857, 144613.41734092444, 144587.9363522454, 144573.1171456715, 144555.95100592985, 144571.2172473928, 144549.15607561544, 0.06, 0.918, 0.35000000000000003, 192.0, 1.0, 224.0, 28.0, 176.0, 10.0, 240.0, 0.0, 0.0, 0.0, 1.7401441145872133E9, 0.0, 2025-02-21 10:21:54.587
102.0, 144470.32147292155, 144370.99032056218, 144575.15115441693, 144549.6701657379, 144534.82860741956, 144517.68481942234, 144532.88400565195, 144511.0016478302, 0.06, 0.918, 0.35000000000000003, 192.0, 0.0, 0.0, 0.0, 0.0, 0.0, 0.0, 0.0, 0.0, 0.0, 1.7401441145872414E9, 0.0, 2025-02-21 10:21:54.587
103.0, 144436.05624867158, 144336.70274456774, 144540.81887493358, 144515.2708310212, 144500.51867968068, 144483.352539939, 144498.52937442416, 144476.66936834686, 0.06, 0.918, 0.35000000000000003, 192.0, 0.0, 0.0, 0.0, 0.0, 0.0, 0.0, 0.0, 0.0, 0.0, 1.7401441145872602E9, 0.0, 2025-02-21 10:21:54.587
104.0, 144404.98732387868, 144305.67852326378, 144509.83935711853, 144484.2019062283, 144469.47210663225, 144452.3059668906, 144467.50515312018, 144445.6451470429, 0.06, 0.918, 0.35000000000000003, 192.0, 0.0, 0.0, 0.0, 0.0, 0.0, 0.0, 0.0, 0.0, 0.0, 1.7401441145872788E9, 0.0, 2025-02-21 10:21:54.587
105.0, 144369.53745717258, 144270.18395306874, 144474.36713866796, 144448.72968777773, 144434.02223992613, 144416.76669320665, 144431.9882311807, 144410.19528033677, 0.06, 0.918, 0.35000000000000003, 192.0, 0.0, 0.0, 0.0, 0.0, 0.0, 0.0, 0.0, 0.0, 0.0, 1.7401441145872972E9, 0.0, 2025-02-21 10:21:54.587
106.0, 144332.74648579914, 144233.37062995083, 144437.4867603167, 144411.91636465985, 144397.16421331934, 144379.9310183443, 144395.19725980726, 144373.2701984966, 0.06, 0.918, 0.35000000000000003, 192.0, 0.0, 0.0, 0.0, 0.0, 0.0, 0.0, 0.0, 0.0, 0.0, 1.7401441145873191E9, 0.0, 2025-02-21 10:21:54.587
107.0, 144297.87776444887, 144198.47955685612, 144402.64039071088, 144377.04764330955, 144362.34019545797, 144345.12935222738, 144360.23913147917, 144338.4685323797, 0.06, 0.918, 0.35000000000000003, 192.0, 0.0, 0.0, 0.0, 0.0, 0.0, 0.0, 0.0, 0.0, 0.0, 1.7401441145873926E9, 0.0, 2025-02-21 10:21:54.587
108.0, 144264.35014776592, 144165.0189954065, 144369.04571879457, 144343.5200266266, 144328.7678752861, 144311.6687907778, 144326.68916305175, 144305.0079709301, 0.06, 0.918, 0.35000000000000003, 192.0, 0.0, 0.0, 0.0, 0.0, 0.0, 0.0, 0.0, 0.0, 0.0, 1.7401441145874343E9, 0.0, 2025-02-21 10:21:54.587
109.0, 144230.21903398266, 144130.95493685664, 144334.89225326685, 144309.2548023766, 144294.547354525, 144277.4482700167, 144292.58040101297, 144270.80980191348, 0.06, 0.918, 0.35000000000000003, 192.0, 0.0, 0.0, 0.0, 0.0, 0.0, 0.0, 0.0, 0.0, 0.0, 1.7401441145874639E9, 0.0, 2025-02-21 10:21:54.587
110.0, 144195.12679518783, 144095.8179945729, 144299.84471796092, 144274.27432230406, 144259.47746747464, 144242.4007347108, 144257.44345872922, 144235.82932184092, 0.06, 0.918, 0.35000000000000003, 192.0, 0.0, 0.0, 0.0, 0.0, 0.0, 0.0, 0.0, 0.0, 0.0, 1.740144114587484E9, 0.0, 2025-02-21 10:21:54.587
111.0, 144157.03942263598, 144057.68591853214, 144261.64558668682, 144236.00813579658, 144221.30068794498, 144204.26865867004, 144219.289030944, 144197.60783882235, 0.054, 0.924, 0.35000000000000003, 192.0, 1.0, 176.0, 28.0, 224.0, 10.0, 240.0, 0.0, 0.0, 0.0, 1.7401441145875072E9, 0.0, 2025-02-21 10:21:54.587
112.0, 144125.03172457597, 144025.72292396103, 144229.6825921157, 144203.9333825032, 144189.36004511834, 144172.2833123545, 144187.281332884, 144165.60014076237, 0.054, 0.924, 0.35000000000000003, 192.0, 0.0, 0.0, 0.0, 0.0, 0.0, 0.0, 0.0, 0.0, 0.0, 1.7401441145875287E9, 0.0, 2025-02-21 10:21:54.587
113.0, 144094.2086689721, 143994.83281312382, 144198.77012953404, 144173.06562341042, 144158.53698951448, 144141.46025675064, 144156.3688703023, 144134.79943690295, 0.054, 0.924, 0.35000000000000003, 192.0, 0.0, 0.0, 0.0, 0.0, 0.0, 0.0, 0.0, 0.0, 0.0, 1.7401441145875468E9, 0.0, 2025-02-21 10:21:54.587
114.0, 144057.17182840966, 143957.84067605028, 144161.7332889716, 144136.14054157026, 144121.50014895204, 144104.53517491044, 144119.48849195105, 144097.8072998294, 0.054, 0.924, 0.35000000000000003, 192.0, 0.0, 0.0, 0.0, 0.0, 0.0, 0.0, 0.0, 0.0, 0.0, 1.740144114587568E9, 0.0, 2025-02-21 10:21:54.587
115.0, 144019.33032504682, 143920.06622792082, 144123.91413735322, 144098.2543347185, 144083.68099733366, 144066.78307852545, 144081.57993335486, 144059.92109297766, 0.054, 0.924, 0.35000000000000003, 192.0, 0.0, 0.0, 0.0, 0.0, 0.0, 0.0, 0.0, 0.0, 0.0, 1.740144114587586E9, 0.0, 2025-02-21 10:21:54.587
116.0, 143987.76966187594, 143888.48321300547, 144092.3534741823, 144066.67131980316, 144052.12033416276, 144035.1553601212, 144050.01927018396, 144028.2933745734, 0.054, 0.924, 0.35000000000000003, 192.0, 0.0, 0.0, 0.0, 0.0, 0.0, 0.0, 0.0, 0.0, 0.0, 1.740144114587605E9, 0.0, 2025-02-21 10:21:54.587
117.0, 143956.94660627207, 143857.63780565714, 144061.53041857845, 144035.82591245483, 144021.27492681443, 144004.2428975395, 144019.21856632456, 143997.51502245845, 0.054, 0.924, 0.35000000000000003, 192.0, 0.0, 0.0, 0.0, 0.0, 0.0, 0.0, 0.0, 0.0, 0.0, 1.7401441145876222E9, 0.0, 2025-02-21 10:21:54.587
118.0, 143920.13328315417, 143820.8021307948, 144024.58298499382, 143999.01258933695, 143984.4392519521, 143967.36251918823, 143982.29348448437, 143960.70169934057, 0.054, 0.924, 0.35000000000000003, 192.0, 0.0, 0.0, 0.0, 0.0, 0.0, 0.0, 0.0, 0.0, 0.0, 1.740144114587639E9, 0.0, 2025-02-21 10:21:54.587
119.0, 143882.44824200252, 143783.09473789867, 143986.94264733107, 143961.30519644084, 143946.8659695227, 143929.7221815255, 143944.54138809937, 143922.94960295554, 0.054, 0.924, 0.35000000000000003, 192.0, 0.0, 0.0, 0.0, 0.0, 0.0, 0.0, 0.0, 0.0, 0.0, 1.7401441145876884E9, 0.0, 2025-02-21 10:21:54.587
120.0, 143849.03238404184, 143749.65652819353, 143953.61619634822, 143927.84463499126, 143913.36070458422, 143896.2616200759, 143911.1702336276, 143889.48904150593, 0.054, 0.924, 0.35000000000000003, 192.0, 0.0, 0.0, 0.0, 0.0, 0.0, 0.0, 0.0, 0.0, 0.0, 1.740144114587808E9, 0.0, 2025-02-21 10:21:54.587
121.0, 143817.8964040156, 143718.63230688957, 143922.41316108863, 143896.75335845392, 143882.24707630242, 143865.14799179413, 143880.0566053458, 143858.39776496863, 0.054, 0.918, 0.352, 192.0, 1.0, 176.0, 28.0, 176.0, 11.0, 0.0, 0.0, 0.0, 0.0, 1.740144114587829E9, 0.0, 2025-02-21 10:21:54.587
122.0, 143781.70892974245, 143682.40012912752, 143886.13627983766, 143860.54353243634, 143846.08195377374, 143828.960517521, 143843.82442758375, 143822.23264243992, 0.054, 0.918, 0.352, 192.0, 0.0, 0.0, 0.0, 0.0, 0.0, 0.0, 0.0, 0.0, 0.0, 1.7401441145878484E9, 0.0, 2025-02-21 10:21:54.587
123.0, 143743.75566765736, 143644.44686704242, 143848.09361077473, 143822.5008633734, 143808.06163645527, 143790.98490369142, 143805.80411026528, 143784.23467686592, 0.054, 0.918, 0.352, 192.0, 0.0, 0.0, 0.0, 0.0, 0.0, 0.0, 0.0, 0.0, 0.0, 1.7401441145878904E9, 0.0, 2025-02-21 10:21:54.587
124.0, 143709.89277480755, 143610.4945672148, 143814.2530696694, 143788.61561877915, 143774.10933662765, 143757.16671433052, 143771.9412174155, 143750.34943227167, 0.054, 0.918, 0.352, 192.0, 0.0, 0.0, 0.0, 0.0, 0.0, 0.0, 0.0, 0.0, 0.0, 1.7401441145880203E9, 0.0, 2025-02-21 10:21:54.588
125.0, 143677.88507674757, 143578.46451741035, 143782.17831637603, 143756.60792071914, 143742.1239903121, 143725.11431278163, 143739.88881586658, 143718.36408595613, 0.054, 0.918, 0.352, 192.0, 0.0, 0.0, 0.0, 0.0, 0.0, 0.0, 0.0, 0.0, 0.0, 1.7401441145880394E9, 0.0, 2025-02-21 10:21:54.588
126.0, 143642.4575617859, 143543.26051989323, 143746.8178566477, 143721.24746099085, 143706.80823407273, 143689.7762047978, 143704.52835613827, 143683.00362622782, 0.054, 0.918, 0.352, 192.0, 0.0, 0.0, 0.0, 0.0, 0.0, 0.0, 0.0, 0.0, 0.0, 1.7401441145880585E9, 0.0, 2025-02-21 10:21:54.588
127.0, 143605.66659041247, 143506.49190026426, 143710.0715887632, 143684.4117861285, 143670.0172626993, 143653.05228865772, 143667.7150330204, 143646.19030310994, 0.054, 0.918, 0.352, 192.0, 0.0, 0.0, 0.0, 0.0, 0.0, 0.0, 0.0, 0.0, 0.0, 1.7401441145880816E9, 0.0, 2025-02-21 10:21:54.588
128.0, 143570.86492429554, 143471.6678824029, 143675.2028674129, 143649.58776826714, 143635.19324483792, 143618.2059190519, 143632.82395992565, 143611.36628524857, 0.054, 0.918, 0.352, 192.0, 0.0, 0.0, 0.0, 0.0, 0.0, 0.0, 0.0, 0.0, 0.0, 1.740144114588118E9, 0.0, 2025-02-21 10:21:54.588
129.0, 143539.25955763573, 143439.92840527635, 143643.55279726422, 143617.7588841628, 143603.4984712003, 143586.51114541426, 143601.10683454358, 143579.69386335538, 0.054, 0.918, 0.352, 192.0, 0.0, 0.0, 0.0, 0.0, 0.0, 0.0, 0.0, 0.0, 0.0, 1.740144114588136E9, 0.0, 2025-02-21 10:21:54.588
130.0, 143506.82717643108, 143407.47367232727, 143611.0980643151, 143585.30415121367, 143571.06608999564, 143554.05641246514, 143568.69680508337, 143547.2838338952, 0.054, 0.918, 0.352, 192.0, 0.0, 0.0, 0.0, 0.0, 0.0, 0.0, 0.0, 0.0, 0.0, 1.7401441145881536E9, 0.0, 2025-02-21 10:21:54.588
131.0, 143470.6173504135, 143371.33090154303, 143574.93294178642, 143549.16138042943, 143534.8786157225, 143517.86893819203, 143532.55403429916, 143511.14106311096, 0.056, 0.922, 0.352, 192.0, 1.0, 192.0, 28.0, 208.0, 11.0, 0.0, 0.0, 0.0, 0.0, 1.7401441145881712E9, 0.0, 2025-02-21 10:21:54.588
132.0, 143437.26854768617, 143338.0268023046, 143541.4723803368, 143515.76787421323, 143501.48510950626, 143484.54248720914, 143499.16052808292, 143477.70285340582, 0.056, 0.922, 0.352, 192.0, 0.0, 0.0, 0.0, 0.0, 0.0, 0.0, 0.0, 0.0, 0.0, 1.7401441145881896E9, 0.0, 2025-02-21 10:21:54.588
133.0, 143405.93140195982, 143306.71200832273, 143510.06817937712, 143484.40837674242, 143470.1703155244, 143453.18298973836, 143467.7563271232, 143446.25394895722, 0.056, 0.922, 0.352, 192.0, 0.0, 0.0, 0.0, 0.0, 0.0, 0.0, 0.0, 0.0, 0.0, 1.7401441145882075E9, 0.0, 2025-02-21 10:21:54.588
134.0, 143370.54859048707, 143271.28449336108, 143474.75242313772, 143449.00321352523, 143434.87691102945, 143417.8001782656, 143432.41821913936, 143410.98289620673, 0.056, 0.922, 0.352, 192.0, 0.0, 0.0, 0.0, 0.0, 0.0, 0.0, 0.0, 0.0, 0.0, 1.740144114588225E9, 0.0, 2025-02-21 10:21:54.588
135.0, 143331.76831385712, 143232.52656847556, 143435.94979476332, 143410.1558816619, 143396.00722742168, 143378.99754989118, 143393.5932390205, 143372.26967481014, 0.056, 0.922, 0.352, 192.0, 0.0, 0.0, 0.0, 0.0, 0.0, 0.0, 0.0, 0.0, 0.0, 1.740144114588242E9, 0.0, 2025-02-21 10:21:54.588
136.0, 143296.49726110665, 143197.21081223618, 143400.7010937573, 143374.90718065586, 143360.6914711823, 143343.77120062962, 143358.1880758033, 143336.95391857077, 0.056, 0.922, 0.352, 192.0, 0.0, 0.0, 0.0, 0.0, 0.0, 0.0, 0.0, 0.0, 0.0, 1.7401441145882597E9, 0.0, 2025-02-21 10:21:54.588
137.0, 143267.2164758702, 143167.90767525526, 143371.30854979856, 143345.67109890832, 143331.2318719902, 143314.51276713764, 143328.84023533348, 143307.65078158985, 0.056, 0.922, 0.352, 192.0, 0.0, 0.0, 0.0, 0.0, 0.0, 0.0, 0.0, 0.0, 0.0, 1.740144114588277E9, 0.0, 2025-02-21 10:21:54.588
138.0, 143234.64998419883, 143135.29648009498, 143338.6750028938, 143313.08225549248, 143298.62067682992, 143281.90157197733, 143296.31844715102, 143275.03958642954, 0.056, 0.922, 0.352, 192.0, 0.0, 0.0, 0.0, 0.0, 0.0, 0.0, 0.0, 0.0, 0.0, 1.7401441145883014E9, 0.0, 2025-02-21 10:21:54.588
139.0, 143197.546088403, 143098.23728778807, 143301.48170012017, 143275.9113044633, 143261.58383626747, 143244.75297269263, 143259.2145513552, 143237.84628365593, 0.056, 0.922, 0.352, 192.0, 0.0, 0.0, 0.0, 0.0, 0.0, 0.0, 0.0, 0.0, 0.0, 1.7401441145883188E9, 0.0, 2025-02-21 10:21:54.588
140.0, 143158.25172165057, 143058.89821754672, 143262.18733336776, 143236.52753073306, 143222.28946951503, 143205.48095768463, 143219.83077762494, 143198.52956515903, 0.056, 0.922, 0.352, 192.0, 0.0, 0.0, 0.0, 0.0, 0.0, 0.0, 0.0, 0.0, 0.0, 1.740144114588343E9, 0.0, 2025-02-21 10:21:54.588
141.0, 143125.282898579, 143026.01880145297, 143229.33026901845, 143203.58105940593, 143189.3877016768, 143172.66859682425, 143187.040768509, 143165.69485255418, 0.052000000000000005, 0.928, 0.34800000000000003, 192.0, 1.0, 160.0, 29.0, 0.0, 10.0, 224.0, 0.0, 0.0, 0.0, 1.7401441145883608E9, 0.0, 2025-02-21 10:21:54.588
142.0, 143092.09055806286, 142992.8488126813, 143196.0932250134, 143170.36636714535, 143156.21771290514, 143139.47625630812, 143153.8484279929, 143132.4801602936, 0.052000000000000005, 0.928, 0.34800000000000003, 192.0, 0.0, 0.0, 0.0, 0.0, 0.0, 0.0, 0.0, 0.0, 0.0, 1.7401441145883796E9, 0.0, 2025-02-21 10:21:54.588
143.0, 143055.18782796717, 142955.92373084114, 143159.16814317324, 143133.41893356072, 143119.35968629835, 143102.55117446795, 143116.74453219707, 143095.48802322007, 0.052000000000000005, 0.928, 0.34800000000000003, 192.0, 0.0, 0.0, 0.0, 0.0, 0.0, 0.0, 0.0, 0.0, 0.0, 1.7401441145883973E9, 0.0, 2025-02-21 10:21:54.588
144.0, 143016.29579261492, 142917.0763989778, 143120.276107821, 143094.54924995295, 143080.4676509461, 143063.59208388237, 143077.76308986702, 143056.55128437892, 0.052000000000000005, 0.928, 0.34800000000000003, 192.0, 0.0, 0.0, 0.0, 0.0, 0.0, 0.0, 0.0, 0.0, 0.0, 1.7401441145884151E9, 0.0, 2025-02-21 10:21:54.588
145.0, 142982.20938232058, 142883.05704391684, 143086.23440101556, 143060.48519140307, 143046.44829588514, 143029.59508056584, 143043.78843829496, 143022.57663280686, 0.052000000000000005, 0.928, 0.34800000000000003, 192.0, 0.0, 0.0, 0.0, 0.0, 0.0, 0.0, 0.0, 0.0, 0.0, 1.7401441145884326E9, 0.0, 2025-02-21 10:21:54.588
146.0, 142950.35814647176, 142851.13875283467, 143054.3161099334, 143028.54454857644, 143014.4629495696, 142997.6544377392, 143011.87014721276, 142990.56893474687, 0.052000000000000005, 0.928, 0.34800000000000003, 192.0, 0.0, 0.0, 0.0, 0.0, 0.0, 0.0, 0.0, 0.0, 0.0, 1.7401441145884504E9, 0.0, 2025-02-21 10:21:54.588
147.0, 142915.95881175506, 142816.73941811794, 143019.89442347223, 142994.1452138597, 142980.06361485287, 142963.29980651138, 142977.47081249606, 142956.25900700796, 0.052000000000000005, 0.928, 0.34800000000000003, 192.0, 0.0, 0.0, 0.0, 0.0, 0.0, 0.0, 0.0, 0.0, 0.0, 1.7401441145884683E9, 0.0, 2025-02-21 10:21:54.588
148.0, 142878.18436362557, 142779.0990804552, 142982.11997534276, 142956.37076573024, 142942.4009254457, 142925.5924136153, 142939.7410678555, 142918.5739658563, 0.052000000000000005, 0.928, 0.34800000000000003, 192.0, 0.0, 0.0, 0.0, 0.0, 0.0, 0.0, 0.0, 0.0, 0.0, 1.740144114588486E9, 0.0, 2025-02-21 10:21:54.588
149.0, 142843.1144765752, 142743.98448991592, 142947.02773654793, 142921.25617519097, 142907.28633490638, 142890.41076784264, 142904.60412557176, 142883.41467182813, 0.052000000000000005, 0.928, 0.34800000000000003, 192.0, 0.0, 0.0, 0.0, 0.0, 0.0, 0.0, 0.0, 0.0, 0.0, 1.7401441145885055E9, 0.0, 2025-02-21 10:21:54.588
150.0, 142812.04555178233, 142712.91556512302, 142915.91410826615, 142890.20960214254, 142876.1280031357, 142859.45360177202, 142873.5799042678, 142852.3680987797, 0.052000000000000005, 0.928, 0.34800000000000003, 192.0, 0.0, 0.0, 0.0, 0.0, 0.0, 0.0, 0.0, 0.0, 0.0, 1.7401441145885236E9, 0.0, 2025-02-21 10:21:54.588
151.0, 142778.8979147551, 142679.76792809583, 142882.72176775002, 142857.0619651153, 142842.93566261957, 142826.23890951145, 142840.38756375166, 142819.13105477465, 0.046, 0.93, 0.34800000000000003, 192.0, 1.0, 112.0, 29.0, 16.0, 10.0, 224.0, 0.0, 0.0, 0.0, 1.7401441145885417E9, 0.0, 2025-02-21 10:21:54.588
152.0, 142743.11277188215, 142643.98278522288, 142846.93662487707, 142821.16506352008, 142807.19522323553, 142790.38671140512, 142804.58006913424, 142783.3012084128, 0.046, 0.93, 0.34800000000000003, 192.0, 0.0, 0.0, 0.0, 0.0, 0.0, 0.0, 0.0, 0.0, 0.0, 1.7401441145885603E9, 0.0, 2025-02-21 10:21:54.588
153.0, 142706.16533829755, 142606.96829640487, 142809.89978431462, 142784.23998167992, 142770.11367918417, 142753.41692607605, 142767.58793206073, 142746.2420161059, 0.046, 0.93, 0.34800000000000003, 192.0, 0.0, 0.0, 0.0, 0.0, 0.0, 0.0, 0.0, 0.0, 0.0, 1.7401441145885837E9, 0.0, 2025-02-21 10:21:54.588
154.0, 142675.40933792703, 142576.2569995233, 142779.16613568857, 142753.57338828724, 142739.38003055812, 142722.68327745, 142736.83193169022, 142715.4860157354, 0.046, 0.93, 0.34800000000000003, 192.0, 0.0, 0.0, 0.0, 0.0, 0.0, 0.0, 0.0, 0.0, 0.0, 1.740144114588601E9, 0.0, 2025-02-21 10:21:54.588
155.0, 142641.14411367706, 142541.99177527332, 142744.96796667195, 142719.26346054833, 142705.1818615415, 142688.5298119223, 142702.56670744024, 142681.26549497433, 0.046, 0.93, 0.34800000000000003, 192.0, 0.0, 0.0, 0.0, 0.0, 0.0, 0.0, 0.0, 0.0, 0.0, 1.7401441145886252E9, 0.0, 2025-02-21 10:21:54.588
156.0, 142601.67093296896, 142502.5856497986, 142705.4724342194, 142679.76792809583, 142665.7757360668, 142649.19074168097, 142663.09352673215, 142641.8146660107, 0.046, 0.93, 0.34800000000000003, 192.0, 0.0, 0.0, 0.0, 0.0, 0.0, 0.0, 0.0, 0.0, 0.0, 1.7401441145886428E9, 0.0, 2025-02-21 10:21:54.588
157.0, 142566.66810115197, 142467.51576274823, 142670.40254716904, 142644.675689301, 142630.68349727197, 142614.03144765276, 142627.93423270396, 142606.7671307048, 0.046, 0.93, 0.34800000000000003, 192.0, 0.0, 0.0, 0.0, 0.0, 0.0, 0.0, 0.0, 0.0, 0.0, 1.740144114588661E9, 0.0, 2025-02-21 10:21:54.588
158.0, 142533.2522431913, 142434.05520129862, 142636.9643374639, 142611.23747959585, 142597.2676393113, 142580.52618271427, 142594.54072648773, 142573.32892099966, 0.046, 0.93, 0.34800000000000003, 192.0, 0.0, 0.0, 0.0, 0.0, 0.0, 0.0, 0.0, 0.0, 0.0, 1.740144114588679E9, 0.0, 2025-02-21 10:21:54.588
159.0, 142496.7741962402, 142397.68891306984, 142600.4192352795, 142574.67002566697, 142560.9013510825, 142544.15989448546, 142558.08503128114, 142536.91792928195, 0.046, 0.93, 0.34800000000000003, 192.0, 0.0, 0.0, 0.0, 0.0, 0.0, 0.0, 0.0, 0.0, 0.0, 1.7401441145886965E9, 0.0, 2025-02-21 10:21:54.588
160.0, 142460.54201847815, 142361.47908705226, 142564.18705751744, 142538.393144416, 142524.57976634262, 142507.8830132345, 142521.83050177462, 142500.7304550088, 0.046, 0.93, 0.34800000000000003, 192.0, 0.0, 0.0, 0.0, 0.0, 0.0, 0.0, 0.0, 0.0, 0.0, 1.7401441145887144E9, 0.0, 2025-02-21 10:21:54.588
161.0, 142429.49544542975, 142330.343107026, 142533.0510774912, 142507.36892311202, 142493.35437933856, 142476.79173669717, 142490.71687349284, 142469.63917847147, 0.048, 0.936, 0.356, 192.0, 1.0, 128.0, 29.0, 64.0, 11.0, 32.0, 0.0, 0.0, 0.0, 1.740144114588744E9, 0.0, 2025-02-21 10:21:54.588
162.0, 142397.44304388083, 142298.31305722156, 142500.95397245337, 142475.22711458532, 142461.30197778964, 142444.73933514828, 142458.64212019945, 142437.5197216892, 0.048, 0.936, 0.356, 192.0, 0.0, 0.0, 0.0, 0.0, 0.0, 0.0, 0.0, 0.0, 0.0, 1.7401441145887637E9, 0.0, 2025-02-21 10:21:54.588
163.0, 142359.57918877355, 142260.56096083653, 142463.15717257943, 142437.45266645582, 142423.57223314908, 142406.9648870188, 142420.7112098588, 142399.63351483745, 0.048, 0.936, 0.356, 192.0, 0.0, 0.0, 0.0, 0.0, 0.0, 0.0, 0.0, 0.0, 0.0, 1.7401441145887818E9, 0.0, 2025-02-21 10:21:54.588
164.0, 142320.9553743548, 142221.9594981622, 142424.55570990514, 142398.78414854815, 142384.92606698588, 142368.27401736667, 142382.1544506734, 142360.98734867424, 0.048, 0.936, 0.356, 192.0, 0.0, 0.0, 0.0, 0.0, 0.0, 0.0, 0.0, 0.0, 0.0, 1.7401441145887997E9, 0.0, 2025-02-21 10:21:54.588
165.0, 142289.81939432854, 142190.75646290262, 142393.4197298789, 142367.67052026637, 142353.7453834707, 142337.13803734042, 142350.9514154138, 142329.851368648, 0.048, 0.936, 0.356, 192.0, 0.0, 0.0, 0.0, 0.0, 0.0, 0.0, 0.0, 0.0, 0.0, 1.740144114588818E9, 0.0, 2025-02-21 10:21:54.588
166.0, 142260.60566432544, 142161.43097417726, 142364.13894464241, 142338.43443851883, 142324.48694997872, 142307.8349003595, 142321.58122319952, 142300.61528690046, 0.048, 0.936, 0.356, 192.0, 0.0, 0.0, 0.0, 0.0, 0.0, 0.0, 0.0, 0.0, 0.0, 1.740144114588837E9, 0.0, 2025-02-21 10:21:54.588
167.0, 142225.20050110825, 142126.0034592156, 142328.66672619185, 142302.91751657933, 142289.05943501706, 142272.38503365338, 142286.26546696015, 142265.09836496096, 0.048, 0.936, 0.356, 192.0, 0.0, 0.0, 0.0, 0.0, 0.0, 0.0, 0.0, 0.0, 0.0, 1.7401441145888565E9, 0.0, 2025-02-21 10:21:54.588
168.0, 142187.40370123432, 142088.2290110861, 142290.825222829, 142265.14306844986, 142251.2849868876, 142234.6776407573, 142248.55807406403, 142227.3686203204, 0.048, 0.936, 0.356, 192.0, 0.0, 0.0, 0.0, 0.0, 0.0, 0.0, 0.0, 0.0, 0.0, 1.7401441145888753E9, 0.0, 2025-02-21 10:21:54.588
169.0, 142154.5019333961, 142055.50605720354, 142258.01286196863, 142232.3754110784, 142218.5173295161, 142201.84292815244, 142215.74571320365, 142194.64566643783, 0.048, 0.936, 0.356, 192.0, 0.0, 0.0, 0.0, 0.0, 0.0, 0.0, 0.0, 0.0, 0.0, 1.7401441145889E9, 0.0, 2025-02-21 10:21:54.588
170.0, 142121.68957253572, 142022.64899285426, 142225.13344587488, 142199.47364324017, 142185.63791342234, 142169.03056729207, 142182.8662971099, 142161.810953833, 0.048, 0.936, 0.356, 192.0, 0.0, 0.0, 0.0, 0.0, 0.0, 0.0, 0.0, 0.0, 0.0, 1.740144114588927E9, 0.0, 2025-02-21 10:21:54.588
171.0, 142084.85389767337, 141985.85802148082, 142188.25306752362, 142162.63796837782, 142148.8469420489, 142132.23959591863, 142145.96356701417, 142124.93057548173, 0.044, 0.932, 0.358, 192.0, 1.0, 96.0, 29.0, 32.0, 11.0, 48.0, 0.0, 0.0, 0.0, 1.740144114588946E9, 0.0, 2025-02-21 10:21:54.588
172.0, 142047.59353966636, 141948.46355300708, 142150.97035777217, 142125.26585164855, 142111.4971770641, 142094.8898309338, 142108.546746796, 142087.536107008, 0.044, 0.932, 0.358, 192.0, 0.0, 0.0, 0.0, 0.0, 0.0, 0.0, 0.0, 0.0, 0.0, 1.7401441145889657E9, 0.0, 2025-02-21 10:21:54.588
173.0, 142014.64706833925, 141915.53943342442, 142118.02388644504, 142092.29702857698, 142078.57305748144, 142061.96571135113, 142075.64497895777, 142054.54493219196, 0.044, 0.932, 0.358, 192.0, 0.0, 0.0, 0.0, 0.0, 0.0, 0.0, 0.0, 0.0, 0.0, 1.740144114588985E9, 0.0, 2025-02-21 10:21:54.588
174.0, 141982.70642551262, 141883.6881975756, 142086.06089187396, 142060.31168226144, 142046.65476639924, 142030.04742026897, 142043.6819843867, 142022.6266411098, 0.044, 0.932, 0.358, 192.0, 0.0, 0.0, 0.0, 0.0, 0.0, 0.0, 0.0, 0.0, 0.0, 1.7401441145890036E9, 0.0, 2025-02-21 10:21:54.589
175.0, 141947.9494628846, 141848.97593843652, 142051.3262809904, 142025.55471963342, 142011.94250726016, 141995.29045764095, 142008.88031826977, 141987.93673371515, 0.044, 0.932, 0.358, 192.0, 0.0, 0.0, 0.0, 0.0, 0.0, 0.0, 0.0, 0.0, 0.0, 1.7401441145890217E9, 0.0, 2025-02-21 10:21:54.589
176.0, 141913.751293868, 141814.75541767545, 142017.08340848488, 141991.35655061682, 141977.766689988, 141961.1146403688, 141974.6597975087, 141953.78326818746, 0.044, 0.932, 0.358, 192.0, 0.0, 0.0, 0.0, 0.0, 0.0, 0.0, 0.0, 0.0, 0.0, 1.7401441145890408E9, 0.0, 2025-02-21 10:21:54.589
177.0, 141879.10608996227, 141779.99845504743, 141982.3711493458, 141956.62193973328, 141942.98737561554, 141926.38002948524, 141940.01459360297, 141919.07100904835, 0.044, 0.932, 0.358, 192.0, 0.0, 0.0, 0.0, 0.0, 0.0, 0.0, 0.0, 0.0, 0.0, 1.740144114589059E9, 0.0, 2025-02-21 10:21:54.589
178.0, 141844.17031337862, 141745.12973369716, 141947.3459657843, 141921.66381140516, 141908.006895543, 141891.3995494127, 141905.0564652749, 141884.0905289758, 0.044, 0.932, 0.358, 192.0, 0.0, 0.0, 0.0, 0.0, 0.0, 0.0, 0.0, 0.0, 0.0, 1.7401441145890777E9, 0.0, 2025-02-21 10:21:54.589
179.0, 141805.1218158152, 141706.1035878782, 141908.36452345425, 141882.6376655862, 141868.95839797956, 141852.44045882707, 141865.91856073364, 141845.01967966792, 0.044, 0.932, 0.358, 192.0, 0.0, 0.0, 0.0, 0.0, 0.0, 0.0, 0.0, 0.0, 0.0, 1.7401441145890956E9, 0.0, 2025-02-21 10:21:54.589
180.0, 141767.5708851303, 141668.50795370436, 141870.74653753598, 141845.01967966792, 141831.34041206128, 141814.7777694199, 141828.2782230709, 141807.468748983, 0.044, 0.932, 0.358, 192.0, 0.0, 0.0, 0.0, 0.0, 0.0, 0.0, 0.0, 0.0, 0.0, 1.7401441145891137E9, 0.0, 2025-02-21 10:21:54.589
181.0, 141735.205559159, 141636.09792424415, 141838.3812115647, 141812.6096502077, 141798.99743783445, 141782.30068472633, 141795.95760058853, 141775.0587195228, 0.04, 0.9400000000000001, 0.36, 192.0, 1.0, 64.0, 29.0, 96.0, 11.0, 64.0, 0.0, 0.0, 0.0, 1.740144114589131E9, 0.0, 2025-02-21 10:21:54.589
182.0, 141702.92964016553, 141603.84435699516, 141806.06058908234, 141780.33373121425, 141766.67681535208, 141750.09182096622, 141763.6593298506, 141742.78280052936, 0.04, 0.9400000000000001, 0.36, 192.0, 0.0, 0.0, 0.0, 0.0, 0.0, 0.0, 0.0, 0.0, 0.0, 1.740144114589151E9, 0.0, 2025-02-21 10:21:54.589
183.0, 141665.46811645845, 141566.44988852143, 141768.55436188632, 141742.8945592516, 141729.23764338944, 141712.6973524925, 141726.17545439905, 141705.3436285667, 0.04, 0.9400000000000001, 0.36, 192.0, 0.0, 0.0, 0.0, 0.0, 0.0, 0.0, 0.0, 0.0, 0.0, 1.7401441145891695E9, 0.0, 2025-02-21 10:21:54.589
184.0, 141627.20192995094, 141528.2507572473, 141730.33287886775, 141704.58366925523, 141690.97145688193, 141674.431165985, 141687.90926789158, 141667.05509031477, 0.04, 0.9400000000000001, 0.36, 192.0, 0.0, 0.0, 0.0, 0.0, 0.0, 0.0, 0.0, 0.0, 0.0, 1.7401441145891936E9, 0.0, 2025-02-21 10:21:54.589
0.0, 0.0, 0.0, 0.0, 0.0, 0.0, 0.0, 0.0, 0.0, 0.046, 0.93, 0.352, 192.0, 1.0, 112.0, 29.0, 16.0, 11.0, 0.0, 0.0, 0.0, 0.0, 1.7401441146484883E9, 0.0, 2025-02-21 10:21:54.648
1.0, 140137.12288583792, 140038.21641662318, 140239.33741323202, 140213.56585187506, 140200.60184009097, 140184.41917710533, 140196.86909876694, 140176.55136305708, 0.046, 0.93, 0.352, 192.0, 0.0, 0.0, 0.0, 0.0, 0.0, 0.0, 0.0, 0.0, 0.0, 1.7401441151418047E9, 0.0, 2025-02-21 10:21:55.141
2.0, 140105.60692615592, 140006.76751217456, 140207.86615703895, 140182.02754044862, 140168.99647343118, 140152.83616218998, 140165.30843559606, 140145.01305163064, 0.046, 0.93, 0.352, 192.0, 0.0, 0.0, 0.0, 0.0, 0.0, 0.0, 0.0, 0.0, 0.0, 1.7401441151418695E9, 0.0, 2025-02-21 10:21:55.141
3.0, 140068.59243733794, 139969.70831986767, 140170.7846129876, 140144.94599639726, 140131.93728112426, 140115.75461813863, 140128.24924328914, 140107.93150757928, 0.046, 0.93, 0.352, 192.0, 0.0, 0.0, 0.0, 0.0, 0.0, 0.0, 0.0, 0.0, 0.0, 1.740144115141906E9, 0.0, 2025-02-21 10:21:55.141
4.0, 140029.7898089635, 139930.88333974878, 140131.89257763536, 140106.0763127895, 140093.22405972768, 140076.95198976423, 140089.42426317028, 140069.12887920486, 0.046, 0.93, 0.352, 192.0, 0.0, 0.0, 0.0, 0.0, 0.0, 0.0, 0.0, 0.0, 0.0, 1.7401441151419249E9, 0.0, 2025-02-21 10:21:55.141
5.0, 139999.19027080422, 139900.14969112273, 140101.1589290093, 140075.36501590788, 140062.57981807945, 140046.33009986044, 140058.69061454423, 140038.3952305788, 0.046, 0.93, 0.352, 192.0, 0.0, 0.0, 0.0, 0.0, 0.0, 0.0, 0.0, 0.0, 0.0, 1.7401441151419427E9, 0.0, 2025-02-21 10:21:55.141
6.0, 139966.71318611066, 139867.80671689592, 140068.74889954913, 140042.93263470323, 140030.12508513036, 140013.87536691135, 140026.1911781062, 140006.02990460754, 0.046, 0.93, 0.352, 192.0, 0.0, 0.0, 0.0, 0.0, 0.0, 0.0, 0.0, 0.0, 0.0, 1.7401441151419604E9, 0.0, 2025-02-21 10:21:55.141
7.0, 139928.87168274782, 139830.009917022, 140030.9520996752, 140005.06877959595, 139992.28358176752, 139976.10091878189, 139988.37202648784, 139968.21075298917, 0.046, 0.93, 0.352, 192.0, 0.0, 0.0, 0.0, 0.0, 0.0, 0.0, 0.0, 0.0, 0.0, 1.740144115141978E9, 0.0, 2025-02-21 10:21:55.141
8.0, 139890.9631241516, 139792.03430319243, 139992.97648584563, 139967.04846227748, 139954.19620921568, 139938.08060146339, 139950.46346789165, 139930.19043567067, 0.05, 0.93, 0.354, 192.0, 1.0, 144.0, 29.0, 16.0, 11.0, 16.0, 0.0, 0.0, 0.0, 1.7401441151419957E9, 0.0, 2025-02-21 10:21:55.141
9.0, 139857.50256270202, 139758.61844523172, 139959.60533137387, 139933.63260431678, 139920.8250547439, 139904.6200400138, 139917.0252581865, 139896.72987422108, 0.05, 0.93, 0.354, 192.0, 0.0, 0.0, 0.0, 0.0, 0.0, 0.0, 0.0, 0.0, 0.0, 1.7401441151420145E9, 0.0, 2025-02-21 10:21:55.142
10.0, 139826.76891407598, 139727.90714835015, 139928.73757228107, 139902.80954871292, 139890.1137578623, 139873.95344662113, 139886.20220258264, 139865.97387385057, 0.05, 0.93, 0.354, 192.0, 0.0, 0.0, 0.0, 0.0, 0.0, 0.0, 0.0, 0.0, 0.0, 1.7401441151420317E9, 0.0, 2025-02-21 10:21:55.142
11.0, 139791.45315783657, 139692.54668862186, 139893.3771125528, 139867.53849596245, 139854.8650568563, 139838.6153386373, 139850.9087980877, 139830.7028211001, 0.05, 0.93, 0.354, 192.0, 0.0, 0.0, 0.0, 0.0, 0.0, 0.0, 0.0, 0.0, 0.0, 1.7401441151420488E9, 0.0, 2025-02-21 10:21:55.142
12.0, 139753.52224749592, 139654.66048177012, 139855.4685539566, 139829.62993736626, 139816.8894430267, 139800.70678004107, 139812.91083251368, 139792.81661424835, 0.05, 0.93, 0.354, 192.0, 0.0, 0.0, 0.0, 0.0, 0.0, 0.0, 0.0, 0.0, 0.0, 1.7401441151420665E9, 0.0, 2025-02-21 10:21:55.142
13.0, 139715.59133715526, 139616.7519231739, 139817.6046988493, 139791.63197179223, 139778.95853268605, 139762.86527667826, 139774.9352186841, 139754.8410004188, 0.05, 0.93, 0.354, 192.0, 0.0, 0.0, 0.0, 0.0, 0.0, 0.0, 0.0, 0.0, 0.0, 1.7401441151420834E9, 0.0, 2025-02-21 10:21:55.142
14.0, 139683.40482513962, 139584.56541115826, 139785.37348334474, 139759.4454597766, 139746.70496543706, 139730.67876466262, 139742.77105841294, 139722.60978491424, 0.05, 0.93, 0.354, 192.0, 0.0, 0.0, 0.0, 0.0, 0.0, 0.0, 0.0, 0.0, 0.0, 1.7401441151421287E9, 0.0, 2025-02-21 10:21:55.142
15.0, 139651.59829277973, 139552.691823565, 139753.45519226257, 139727.52716869442, 139714.8313778438, 139698.76047358042, 139710.89747081965, 139690.80325255432, 0.05, 0.93, 0.354, 192.0, 0.0, 0.0, 0.0, 0.0, 0.0, 0.0, 0.0, 0.0, 0.0, 1.7401441151421468E9, 0.0, 2025-02-21 10:21:55.142
16.0, 139612.48273998295, 139513.59862251265, 139714.29493597685, 139688.3669124087, 139675.84993551375, 139659.64492078364, 139671.78191802287, 139651.6653480131, 0.05, 0.93, 0.354, 192.0, 0.0, 0.0, 0.0, 0.0, 0.0, 0.0, 0.0, 0.0, 0.0, 1.740144115142187E9, 0.0, 2025-02-21 10:21:55.142
17.0, 139578.01635003285, 139479.19928779596, 139679.9179530046, 139653.90052245863, 139641.3611938192, 139625.22323432248, 139637.33787981723, 139617.26601329638, 0.05, 0.93, 0.354, 192.0, 0.0, 0.0, 0.0, 0.0, 0.0, 0.0, 0.0, 0.0, 0.0, 1.7401441151422048E9, 0.0, 2025-02-21 10:21:55.142
18.0, 139544.91341649456, 139446.07400251317, 139646.83737121074, 139620.7528854314, 139608.21355679198, 139592.03089380634, 139604.21259453447, 139584.14072801362, 0.054, 0.932, 0.354, 192.0, 1.0, 176.0, 29.0, 32.0, 11.0, 16.0, 0.0, 0.0, 0.0, 1.7401441151422226E9, 0.0, 2025-02-21 10:21:55.142
19.0, 139510.20115735545, 139411.33939162962, 139612.03570509385, 139586.10768152567, 139573.5012976529, 139557.3409864117, 139569.43328016202, 139549.4284688745, 0.054, 0.932, 0.354, 192.0, 0.0, 0.0, 0.0, 0.0, 0.0, 0.0, 0.0, 0.0, 0.0, 1.7401441151422412E9, 0.0, 2025-02-21 10:21:55.142
20.0, 139472.98550283737, 139374.07903362263, 139574.82005057574, 139548.84732351868, 139536.30799487926, 139520.23709061588, 139532.19527389947, 139512.0787038897, 0.054, 0.932, 0.354, 192.0, 0.0, 0.0, 0.0, 0.0, 0.0, 0.0, 0.0, 0.0, 0.0, 1.740144115142259E9, 0.0, 2025-02-21 10:21:55.142
21.0, 139436.88743554204, 139338.07037330515, 139538.74433502488, 139512.74925622335, 139500.1205206061, 139484.161375065, 139496.1195583486, 139476.00298833885, 0.054, 0.932, 0.354, 192.0, 0.0, 0.0, 0.0, 0.0, 0.0, 0.0, 0.0, 0.0, 0.0, 1.740144115142276E9, 0.0, 2025-02-21 10:21:55.142
22.0, 139405.5055863268, 139306.6885240899, 139507.3401340652, 139481.34505526366, 139468.80572662424, 139452.71247061642, 139464.82711611118, 139444.77760133476, 0.054, 0.932, 0.354, 192.0, 0.0, 0.0, 0.0, 0.0, 0.0, 0.0, 0.0, 0.0, 0.0, 1.7401441151422937E9, 0.0, 2025-02-21 10:21:55.142
23.0, 139373.98962664482, 139275.15021266346, 139475.80182263875, 139449.78439209276, 139437.2674151978, 139421.21886267888, 139433.2664529403, 139413.2616416528, 0.054, 0.932, 0.354, 192.0, 0.0, 0.0, 0.0, 0.0, 0.0, 0.0, 0.0, 0.0, 0.0, 1.740144115142311E9, 0.0, 2025-02-21 10:21:55.142
24.0, 139333.82354185864, 139235.0735348551, 139435.74749657483, 139409.66301079548, 139397.21308913387, 139381.14218487052, 139393.03331292074, 139373.07320512214, 0.054, 0.932, 0.354, 192.0, 0.0, 0.0, 0.0, 0.0, 0.0, 0.0, 0.0, 0.0, 0.0, 1.7401441151423285E9, 0.0, 2025-02-21 10:21:55.142
25.0, 139295.04326522868, 139196.31560996958, 139396.9001647115, 139370.90508591, 139358.41046075948, 139342.31720475166, 139354.32009152413, 139334.31528023665, 0.054, 0.932, 0.354, 192.0, 0.0, 0.0, 0.0, 0.0, 0.0, 0.0, 0.0, 0.0, 0.0, 1.740144115142346E9, 0.0, 2025-02-21 10:21:55.142
26.0, 139262.43207006837, 139163.68206306483, 139364.1548590845, 139338.15978028296, 139325.79926559917, 139309.63895435797, 139321.68654461938, 139301.65938158744, 0.054, 0.932, 0.354, 192.0, 0.0, 0.0, 0.0, 0.0, 0.0, 0.0, 0.0, 0.0, 0.0, 1.7401441151423633E9, 0.0, 2025-02-21 10:21:55.142
27.0, 139230.20085456382, 139131.4284958158, 139331.85658834656, 139305.8391578006, 139293.54569835018, 139277.4300905979, 139289.3882738815, 139269.3611108495, 0.054, 0.932, 0.354, 192.0, 0.0, 0.0, 0.0, 0.0, 0.0, 0.0, 0.0, 0.0, 0.0, 1.7401441151423805E9, 0.0, 2025-02-21 10:21:55.142
28.0, 139194.9074500689, 139096.20214655425, 139296.49612861825, 139270.4786980723, 139258.14053513296, 139242.1143343585, 139254.00546240874, 139234.13476158795, 0.06, 0.936, 0.356, 192.0, 1.0, 224.0, 29.0, 64.0, 11.0, 32.0, 0.0, 0.0, 0.0, 1.7401441151423979E9, 0.0, 2025-02-21 10:21:55.142
29.0, 139155.9930629722, 139057.2207042242, 139257.62644501048, 139231.63136620895, 139219.22614803628, 139203.1552437729, 139214.97931658977, 139195.28742972465, 0.06, 0.936, 0.356, 192.0, 0.0, 0.0, 0.0, 0.0, 0.0, 0.0, 0.0, 0.0, 0.0, 1.740144115142416E9, 0.0, 2025-02-21 10:21:55.142
30.0, 139124.25358584567, 139025.4141718643, 139225.75285741722, 139199.89188908244, 139187.39726393193, 139171.37106315745, 139183.17278422986, 139163.3020834091, 0.06, 0.936, 0.356, 192.0, 0.0, 0.0, 0.0, 0.0, 0.0, 0.0, 0.0, 0.0, 0.0, 1.7401441151424387E9, 0.0, 2025-02-21 10:21:55.142
31.0, 139093.72110291972, 138995.01579940508, 139195.22037449127, 139169.29235092312, 139156.9988914727, 139140.97269069823, 139152.72970828172, 139132.72489699424, 0.06, 0.936, 0.356, 192.0, 0.0, 0.0, 0.0, 0.0, 0.0, 0.0, 0.0, 0.0, 0.0, 1.740144115142462E9, 0.0, 2025-02-21 10:21:55.142
32.0, 139057.9136083023, 138959.18595304323, 139159.47993510723, 139133.37309758345, 139121.14669336638, 139105.05343735855, 139116.89986191987, 139096.85034714345, 0.06, 0.936, 0.356, 192.0, 0.0, 0.0, 0.0, 0.0, 0.0, 0.0, 0.0, 0.0, 0.0, 1.74014411514248E9, 0.0, 2025-02-21 10:21:55.142
33.0, 139020.54149157304, 138921.76913282505, 139122.13017012243, 139096.04568434306, 139083.7298731482, 139067.6142653959, 139079.55009693507, 139059.63469262538, 0.06, 0.936, 0.356, 192.0, 0.0, 0.0, 0.0, 0.0, 0.0, 0.0, 0.0, 0.0, 0.0, 1.7401441151424975E9, 0.0, 2025-02-21 10:21:55.142
34.0, 138985.47160452267, 138886.7439492636, 139086.99322783868, 139060.99814903716, 139048.63763435336, 139032.58908183445, 139044.41315465132, 139024.5201020861, 0.06, 0.936, 0.356, 192.0, 0.0, 0.0, 0.0, 0.0, 0.0, 0.0, 0.0, 0.0, 0.0, 1.7401441151425154E9, 0.0, 2025-02-21 10:21:55.142
35.0, 138952.5921884289, 138853.775126192, 139054.0244047671, 139028.09638119893, 139015.73586651514, 138999.62025876288, 139011.44433157973, 138991.5959825034, 0.06, 0.936, 0.356, 192.0, 0.0, 0.0, 0.0, 0.0, 0.0, 0.0, 0.0, 0.0, 0.0, 1.7401441151425328E9, 0.0, 2025-02-21 10:21:55.142
36.0, 138919.1316269793, 138820.29221299794, 139020.54149157304, 138994.52406102707, 138982.14119459884, 138966.13734556883, 138977.89436315233, 138958.02366233154, 0.06, 0.936, 0.356, 192.0, 0.0, 0.0, 0.0, 0.0, 0.0, 0.0, 0.0, 0.0, 0.0, 1.7401441151425505E9, 0.0, 2025-02-21 10:21:55.142
37.0, 138880.2395916271, 138781.4001776457, 138981.62710447636, 138955.63202567483, 138943.22680750213, 138927.3794206833, 138938.97997605562, 138919.1316269793, 0.06, 0.936, 0.356, 192.0, 0.0, 0.0, 0.0, 0.0, 0.0, 0.0, 0.0, 0.0, 0.0, 1.7401441151425676E9, 0.0, 2025-02-21 10:21:55.142
38.0, 138842.06281209743, 138743.2010463716, 138943.36091796888, 138917.41054265626, 138905.11708320584, 138889.1355859203, 138900.87025175933, 138880.9771991941, 0.046, 0.9380000000000001, 0.356, 192.0, 1.0, 112.0, 29.0, 80.0, 11.0, 32.0, 0.0, 0.0, 0.0, 1.7401441151425853E9, 0.0, 2025-02-21 10:21:55.142
39.0, 138809.94335531513, 138711.08158958933, 138911.24146118658, 138885.3357893629, 138872.90821944573, 138856.88201867128, 138868.6837397437, 138848.81303892293, 0.046, 0.9380000000000001, 0.356, 192.0, 0.0, 0.0, 0.0, 0.0, 0.0, 0.0, 0.0, 0.0, 0.0, 1.7401441151426036E9, 0.0, 2025-02-21 10:21:55.142
40.0, 138774.6052473313, 138675.7434816055, 138875.97040843611, 138849.99768137906, 138837.57011146192, 138821.65566940972, 138833.34563175985, 138813.4749309391, 0.046, 0.9380000000000001, 0.356, 192.0, 0.0, 0.0, 0.0, 0.0, 0.0, 0.0, 0.0, 0.0, 0.0, 1.7401441151426208E9, 0.0, 2025-02-21 10:21:55.142
41.0, 138737.03196490192, 138638.21490266503, 138838.46418124012, 138812.4243989497, 138800.04153252143, 138784.08238698036, 138795.79470107492, 138775.96870374307, 0.046, 0.9380000000000001, 0.356, 192.0, 0.0, 0.0, 0.0, 0.0, 0.0, 0.0, 0.0, 0.0, 0.0, 1.7401441151426384E9, 0.0, 2025-02-21 10:21:55.142
42.0, 138705.89598487568, 138607.03421914985, 138807.23879423604, 138781.26606717898, 138768.97260772856, 138752.99111044302, 138764.56931407086, 138744.83272371683, 0.046, 0.9380000000000001, 0.356, 192.0, 0.0, 0.0, 0.0, 0.0, 0.0, 0.0, 0.0, 0.0, 0.0, 1.740144115142656E9, 0.0, 2025-02-21 10:21:55.142
43.0, 138672.56953389282, 138573.77482340037, 138773.77823278646, 138747.8055057294, 138735.62380500123, 138719.57525248235, 138731.17580785463, 138711.46156924506, 0.046, 0.9380000000000001, 0.356, 192.0, 0.0, 0.0, 0.0, 0.0, 0.0, 0.0, 0.0, 0.0, 0.0, 1.7401441151426733E9, 0.0, 2025-02-21 10:21:55.142
44.0, 138636.56087357533, 138537.76616308288, 138737.7919242134, 138711.72979017854, 138699.59279293928, 138683.6336473982, 138695.16714753714, 138675.3858536942, 0.046, 0.9380000000000001, 0.356, 192.0, 0.0, 0.0, 0.0, 0.0, 0.0, 0.0, 0.0, 0.0, 0.0, 1.7401441151426904E9, 0.0, 2025-02-21 10:21:55.142
45.0, 138598.54055625683, 138499.70114227547, 138699.68219991712, 138673.70947286004, 138661.55012387637, 138645.59097833527, 138657.05742324085, 138637.38788812017, 0.046, 0.9380000000000001, 0.356, 192.0, 0.0, 0.0, 0.0, 0.0, 0.0, 0.0, 0.0, 0.0, 0.0, 1.7401441151427133E9, 0.0, 2025-02-21 10:21:55.142
46.0, 138560.83316336074, 138461.99374937938, 138661.9301035321, 138635.97972821948, 138623.75332400243, 138607.83888195024, 138619.35003034474, 138599.6581434796, 0.046, 0.9380000000000001, 0.356, 192.0, 0.0, 0.0, 0.0, 0.0, 0.0, 0.0, 0.0, 0.0, 0.0, 1.7401441151427374E9, 0.0, 2025-02-21 10:21:55.142
47.0, 138527.86434028918, 138429.04727805225, 138629.05068743834, 138603.1226638702, 138590.82920441977, 138574.89241062314, 138586.42591076207, 138566.68932040804, 0.046, 0.9380000000000001, 0.356, 192.0, 0.0, 0.0, 0.0, 0.0, 0.0, 0.0, 0.0, 0.0, 0.0, 1.7401441151427565E9, 0.0, 2025-02-21 10:21:55.142
48.0, 138496.75071200737, 138397.7771875593, 138597.82530043428, 138571.87492512167, 138559.64852090462, 138543.68937536352, 138555.20052375802, 138535.46393340398, 0.044, 0.9420000000000001, 0.352, 192.0, 1.0, 96.0, 29.0, 112.0, 11.0, 0.0, 0.0, 0.0, 0.0, 1.7401441151427748E9, 0.0, 2025-02-21 10:21:55.142
49.0, 138460.09385110068, 138361.29914060823, 138561.34725348323, 138535.3074711928, 138523.05871523128, 138507.21132841246, 138518.65542157358, 138498.91883121955, 0.044, 0.9420000000000001, 0.352, 192.0, 0.0, 0.0, 0.0, 0.0, 0.0, 0.0, 0.0, 0.0, 0.0, 1.7401441151427944E9, 0.0, 2025-02-21 10:21:55.142
50.0, 138422.00647854884, 138323.3011750342, 138523.17047395356, 138497.24245038538, 138484.97134267943, 138469.0345488828, 138480.6351042551, 138460.7867551788, 0.044, 0.9420000000000001, 0.352, 192.0, 0.0, 0.0, 0.0, 0.0, 0.0, 0.0, 0.0, 0.0, 0.0, 1.7401441151428125E9, 0.0, 2025-02-21 10:21:55.142
51.0, 138389.12706245508, 138290.19824149588, 138490.20165088197, 138464.184220336, 138452.04722309677, 138436.15513278905, 138447.5768742057, 138427.81793210722, 0.044, 0.9420000000000001, 0.352, 192.0, 0.0, 0.0, 0.0, 0.0, 0.0, 0.0, 0.0, 0.0, 0.0, 1.740144115142831E9, 0.0, 2025-02-21 10:21:55.142
52.0, 138357.65580626202, 138258.81639228063, 138458.79744992228, 138432.64590890956, 138420.59831864815, 138404.63917310705, 138416.10561801263, 138396.3690276586, 0.044, 0.9420000000000001, 0.352, 192.0, 0.0, 0.0, 0.0, 0.0, 0.0, 0.0, 0.0, 0.0, 0.0, 1.7401441151428494E9, 0.0, 2025-02-21 10:21:55.142
53.0, 138321.37892501103, 138222.47245579632, 138422.40880994903, 138396.3243241697, 138384.29908565272, 138368.31758836718, 138379.73932978386, 138360.06979466317, 0.044, 0.9420000000000001, 0.352, 192.0, 0.0, 0.0, 0.0, 0.0, 0.0, 0.0, 0.0, 0.0, 0.0, 1.740144115142868E9, 0.0, 2025-02-21 10:21:55.142
54.0, 138282.55394489216, 138183.7145309108, 138383.53912634126, 138357.52169579527, 138345.42940204495, 138329.51495999278, 138340.914349665, 138321.2448145443, 0.044, 0.9420000000000001, 0.352, 192.0, 0.0, 0.0, 0.0, 0.0, 0.0, 0.0, 0.0, 0.0, 0.0, 1.740144115142886E9, 0.0, 2025-02-21 10:21:55.142
55.0, 138248.2216654088, 138149.40460317192, 138349.27390209126, 138323.1894163119, 138311.16417779497, 138295.22738399834, 138306.62677367055, 138287.00194203877, 0.044, 0.9420000000000001, 0.352, 192.0, 0.0, 0.0, 0.0, 0.0, 0.0, 0.0, 0.0, 0.0, 0.0, 1.7401441151429043E9, 0.0, 2025-02-21 10:21:55.142
56.0, 138216.39278130446, 138117.5533673231, 138317.46736973137, 138291.42758744094, 138279.37999717952, 138263.37614814952, 138274.6861308439, 138255.17305793441, 0.044, 0.9420000000000001, 0.352, 192.0, 0.0, 0.0, 0.0, 0.0, 0.0, 0.0, 0.0, 0.0, 0.0, 1.740144115142922E9, 0.0, 2025-02-21 10:21:55.142
57.0, 138180.65234192042, 138081.83527968352, 138281.70457860286, 138255.59774107908, 138243.55015081767, 138227.65806050994, 138239.01274669325, 138219.34321157256, 0.044, 0.9420000000000001, 0.352, 192.0, 0.0, 0.0, 0.0, 0.0, 0.0, 0.0, 0.0, 0.0, 0.0, 1.740144115142939E9, 0.0, 2025-02-21 10:21:55.142
58.0, 138141.62619610145, 138042.80913386456, 138242.70078452837, 138216.57159526012, 138204.54635674314, 138188.63191469098, 138199.96424912981, 138180.25001052022, 0.044, 0.9420000000000001, 0.34800000000000003, 192.0, 1.0, 96.0, 29.0, 112.0, 10.0, 224.0, 0.0, 0.0, 0.0, 1.7401441151429565E9, 0.0, 2025-02-21 10:21:55.142
59.0, 138109.1491114079, 138010.35440091544, 138210.17899634587, 138184.116862311, 138172.04692030515, 138156.22188523077, 138167.48716443626, 138147.88468454895, 0.044, 0.9420000000000001, 0.34800000000000003, 192.0, 0.0, 0.0, 0.0, 0.0, 0.0, 0.0, 0.0, 0.0, 0.0, 1.7401441151429749E9, 0.0, 2025-02-21 10:21:55.142
60.0, 138079.46599477125, 137980.69363602324, 138180.38412098697, 138154.41139392988, 138142.4085071574, 138126.6505273164, 138137.7593443107, 138118.1568644234, 0.044, 0.9420000000000001, 0.34800000000000003, 192.0, 0.0, 0.0, 0.0, 0.0, 0.0, 0.0, 0.0, 0.0, 0.0, 1.7401441151429975E9, 0.0, 2025-02-21 10:21:55.142
61.0, 138043.56909317602, 137944.75203093913, 138144.42016415836, 138118.4474371013, 138106.46690207327, 138090.6418669989, 138101.840090971, 138082.23761108372, 0.044, 0.9420000000000001, 0.34800000000000003, 192.0, 0.0, 0.0, 0.0, 0.0, 0.0, 0.0, 0.0, 0.0, 0.0, 1.7401441151430209E9, 0.0, 2025-02-21 10:21:55.143
62.0, 138004.56529910152, 137905.7035333757, 138105.37166659496, 138079.42129128234, 138067.46310799874, 138051.54866594658, 138062.7915934076, 138043.2338170092, 0.044, 0.9420000000000001, 0.34800000000000003, 192.0, 0.0, 0.0, 0.0, 0.0, 0.0, 0.0, 0.0, 0.0, 0.0, 1.7401441151430383E9, 0.0, 2025-02-21 10:21:55.143
63.0, 137969.8530399624, 137871.01362598105, 138070.70411094476, 138044.7313838877, 138032.7732006041, 138016.79170331857, 138028.01227903515, 138008.52155787012, 0.044, 0.9420000000000001, 0.34800000000000003, 192.0, 0.0, 0.0, 0.0, 0.0, 0.0, 0.0, 0.0, 0.0, 0.0, 1.7401441151430552E9, 0.0, 2025-02-21 10:21:55.143
64.0, 137936.81716165747, 137838.15656163177, 138037.60117740647, 138011.62845034938, 137999.6702670658, 137983.75582501362, 137994.9316972413, 137975.44097607626, 0.044, 0.9420000000000001, 0.34800000000000003, 192.0, 0.0, 0.0, 0.0, 0.0, 0.0, 0.0, 0.0, 0.0, 0.0, 1.7401441151430724E9, 0.0, 2025-02-21 10:21:55.143
65.0, 137902.06019902948, 137803.39959900375, 138002.821863034, 137976.84913597693, 137964.93565618226, 137949.06591761898, 137960.21943810218, 137940.72871693716, 0.044, 0.9420000000000001, 0.34800000000000003, 192.0, 0.0, 0.0, 0.0, 0.0, 0.0, 0.0, 0.0, 0.0, 0.0, 1.7401441151430895E9, 0.0, 2025-02-21 10:21:55.143
66.0, 137861.67059679874, 137763.009996773, 137962.4099090588, 137936.37012676836, 137924.54605395152, 137908.6539636438, 137919.82983587144, 137900.2497077286, 0.044, 0.9420000000000001, 0.34800000000000003, 192.0, 0.0, 0.0, 0.0, 0.0, 0.0, 0.0, 0.0, 0.0, 0.0, 1.7401441151431067E9, 0.0, 2025-02-21 10:21:55.143
67.0, 137826.5783580039, 137727.9624614671, 137927.27296677505, 137901.3449432069, 137889.45381515668, 137873.56172484896, 137884.78230056554, 137865.0904137004, 0.044, 0.9420000000000001, 0.34800000000000003, 192.0, 0.0, 0.0, 0.0, 0.0, 0.0, 0.0, 0.0, 0.0, 0.0, 1.7401441151431239E9, 0.0, 2025-02-21 10:21:55.143
68.0, 137795.84470937785, 137697.16175760768, 137896.539318149, 137870.56659109195, 137858.6978147862, 137842.87277971182, 137854.00394845058, 137834.40146856327, 0.042, 0.9400000000000001, 0.34800000000000003, 192.0, 1.0, 80.0, 29.0, 96.0, 10.0, 224.0, 0.0, 0.0, 0.0, 1.7401441151431413E9, 0.0, 2025-02-21 10:21:55.143
69.0, 137762.74177583956, 137664.14823104718, 137863.548143333, 137837.530712787, 137825.6842882257, 137809.76984617353, 137820.96807014564, 137801.43264549167, 0.042, 0.9400000000000001, 0.34800000000000003, 192.0, 0.0, 0.0, 0.0, 0.0, 0.0, 0.0, 0.0, 0.0, 0.0, 1.7401441151431592E9, 0.0, 2025-02-21 10:21:55.143
70.0, 137723.26859513146, 137624.69740208358, 137824.09731436937, 137798.0798838234, 137786.2334592621, 137770.38607244327, 137781.58429641539, 137761.93711303917, 0.042, 0.9400000000000001, 0.34800000000000003, 192.0, 0.0, 0.0, 0.0, 0.0, 0.0, 0.0, 0.0, 0.0, 0.0, 1.7401441151431763E9, 0.0, 2025-02-21 10:21:55.143
71.0, 137687.3493417918, 137588.80050048835, 137788.20041277414, 137762.13827873926, 137750.42596464467, 137734.5115225925, 137745.53093260896, 137726.01785969947, 0.042, 0.9400000000000001, 0.34800000000000003, 192.0, 0.0, 0.0, 0.0, 0.0, 0.0, 0.0, 0.0, 0.0, 0.0, 1.7401441151431932E9, 0.0, 2025-02-21 10:21:55.143
72.0, 137656.45923095456, 137557.84333441776, 137757.2208949591, 137731.18111266865, 137719.4017433407, 137703.5990600108, 137714.5514147939, 137695.1053971178, 0.042, 0.9400000000000001, 0.34800000000000003, 192.0, 0.0, 0.0, 0.0, 0.0, 0.0, 0.0, 0.0, 0.0, 0.0, 1.7401441151432104E9, 0.0, 2025-02-21 10:21:55.143
73.0, 137623.80333230537, 137525.12038053517, 137724.49794107652, 137698.43580704162, 137686.65643771368, 137670.83140263933, 137681.8955161447, 137662.40479497967, 0.042, 0.9400000000000001, 0.34800000000000003, 192.0, 0.0, 0.0, 0.0, 0.0, 0.0, 0.0, 0.0, 0.0, 0.0, 1.740144115143227E9, 0.0, 2025-02-21 10:21:55.143
74.0, 137586.94530569855, 137488.3070574173, 137687.66226621417, 137661.51072520146, 137649.753707618, 137633.95102428808, 137645.01513779344, 137625.4350096506, 0.042, 0.9400000000000001, 0.34800000000000003, 192.0, 0.0, 0.0, 0.0, 0.0, 0.0, 0.0, 0.0, 0.0, 0.0, 1.7401441151432443E9, 0.0, 2025-02-21 10:21:55.143
75.0, 137547.98621511296, 137449.32561508723, 137648.72552737303, 137622.46222763805, 137610.79461703237, 137594.99193370246, 137606.03369546338, 137586.45356732054, 0.042, 0.9400000000000001, 0.34800000000000003, 192.0, 0.0, 0.0, 0.0, 0.0, 0.0, 0.0, 0.0, 0.0, 0.0, 1.7401441151432676E9, 0.0, 2025-02-21 10:21:55.143
76.0, 137515.7102961195, 137417.09439958268, 137616.4272566351, 137590.20866038903, 137578.5186980389, 137562.7607181979, 137573.7801282144, 137554.24470356046, 0.042, 0.9400000000000001, 0.34800000000000003, 192.0, 0.0, 0.0, 0.0, 0.0, 0.0, 0.0, 0.0, 0.0, 0.0, 1.7401441151432853E9, 0.0, 2025-02-21 10:21:55.143
77.0, 137483.5014323594, 137384.9749428004, 137584.1736893861, 137558.0221483734, 137546.2651307899, 137530.55185443783, 137541.459505732, 137522.03583980034, 0.042, 0.9400000000000001, 0.34800000000000003, 192.0, 0.0, 0.0, 0.0, 0.0, 0.0, 0.0, 0.0, 0.0, 0.0, 1.7401441151433089E9, 0.0, 2025-02-21 10:21:55.143
78.0, 137447.33630983072, 137348.7651167828, 137547.9638633685, 137521.8570258447, 137510.12236000568, 137494.38673190912, 137505.33908669223, 137485.82601378276, 0.044, 0.9380000000000001, 0.34800000000000003, 192.0, 1.0, 96.0, 29.0, 80.0, 10.0, 224.0, 0.0, 0.0, 0.0, 1.7401441151433263E9, 0.0, 2025-02-21 10:21:55.143
79.0, 137409.33834425668, 137310.78950295324, 137509.94354605002, 137483.88141201515, 137472.16909792056, 137456.38876633512, 137467.34112111822, 137447.8951034421, 0.044, 0.9380000000000001, 0.34800000000000003, 192.0, 0.0, 0.0, 0.0, 0.0, 0.0, 0.0, 0.0, 0.0, 0.0, 1.7401441151433446E9, 0.0, 2025-02-21 10:21:55.143
80.0, 137375.3860444291, 137276.88190661455, 137475.96889447796, 137449.88440869862, 137438.21679809294, 137422.41411476306, 137433.36646954613, 137414.0322105923, 0.044, 0.9380000000000001, 0.34800000000000003, 192.0, 0.0, 0.0, 0.0, 0.0, 0.0, 0.0, 0.0, 0.0, 0.0, 1.740144115143362E9, 0.0, 2025-02-21 10:21:55.143
81.0, 137345.4123551145, 137246.84116206662, 137446.01755690784, 137419.9330711285, 137408.24310877838, 137392.46277719294, 137403.34807674267, 137383.99146604436, 0.044, 0.9380000000000001, 0.34800000000000003, 192.0, 0.0, 0.0, 0.0, 0.0, 0.0, 0.0, 0.0, 0.0, 0.0, 1.7401441151433792E9, 0.0, 2025-02-21 10:21:55.143
82.0, 137308.66608723, 137209.96078371536, 137409.20423378996, 137383.09739626615, 137371.3850821716, 137355.69415756396, 137366.49005013588, 137347.155791182, 0.044, 0.9380000000000001, 0.34800000000000003, 192.0, 0.0, 0.0, 0.0, 0.0, 0.0, 0.0, 0.0, 0.0, 0.0, 1.7401441151433964E9, 0.0, 2025-02-21 10:21:55.143
83.0, 137271.80806062318, 137173.16981234192, 137372.30150369424, 137346.1052591926, 137334.54940730924, 137318.8137792127, 137329.52026480678, 137310.23070934185, 0.044, 0.9380000000000001, 0.34800000000000003, 192.0, 0.0, 0.0, 0.0, 0.0, 0.0, 0.0, 0.0, 0.0, 0.0, 1.7401441151434135E9, 0.0, 2025-02-21 10:21:55.143
84.0, 137235.86645553904, 137137.3623177245, 137336.40460209904, 137310.2083575974, 137298.652505714, 137282.93922936192, 137293.5563079782, 137274.40086298, 0.044, 0.9380000000000001, 0.34800000000000003, 192.0, 0.0, 0.0, 0.0, 0.0, 0.0, 0.0, 0.0, 0.0, 0.0, 1.7401441151434307E9, 0.0, 2025-02-21 10:21:55.143
85.0, 137203.9258127124, 137105.24286094223, 137304.28514531674, 137278.17830779296, 137266.55540067618, 137250.95388304637, 137261.5486099182, 137242.3484614311, 0.044, 0.9380000000000001, 0.34800000000000003, 192.0, 0.0, 0.0, 0.0, 0.0, 0.0, 0.0, 0.0, 0.0, 0.0, 1.740144115143448E9, 0.0, 2025-02-21 10:21:55.143
86.0, 137170.15232684044, 137071.4917268147, 137270.42225246696, 137244.38247017653, 137232.8489700376, 137217.1803971744, 137227.8421792796, 137208.59732730358, 0.044, 0.9380000000000001, 0.34800000000000003, 192.0, 0.0, 0.0, 0.0, 0.0, 0.0, 0.0, 0.0, 0.0, 0.0, 1.7401441151434653E9, 0.0, 2025-02-21 10:21:55.143
87.0, 137131.43910544386, 137032.91261588485, 137231.8431415371, 137205.71395226885, 137194.20280387436, 137178.5789345001, 137189.10660613855, 137169.884105907, 0.044, 0.9380000000000001, 0.34800000000000003, 192.0, 0.0, 0.0, 0.0, 0.0, 0.0, 0.0, 0.0, 0.0, 0.0, 1.7401441151434827E9, 0.0, 2025-02-21 10:21:55.143
88.0, 137097.17388119388, 136998.6250398904, 137197.62262077603, 137171.3816727855, 137159.9822831133, 137144.29135850567, 137154.84138188857, 137135.618881657, 0.048, 0.9380000000000001, 0.34800000000000003, 192.0, 1.0, 128.0, 29.0, 80.0, 10.0, 224.0, 0.0, 0.0, 0.0, 1.7401441151435125E9, 0.0, 2025-02-21 10:21:55.143
89.0, 137065.9037907009, 136967.44435637526, 137166.35253028304, 137140.0668788036, 137128.73454436476, 137112.95421277932, 137123.6159948845, 137104.32643941956, 0.048, 0.9380000000000001, 0.34800000000000003, 192.0, 0.0, 0.0, 0.0, 0.0, 0.0, 0.0, 0.0, 0.0, 0.0, 1.740144115143531E9, 0.0, 2025-02-21 10:21:55.143
90.0, 137032.2420635512, 136933.84968445895, 137132.73550662227, 137106.42750339836, 137095.117520704, 137079.42659609637, 137089.9542677348, 137070.7541192477, 0.048, 0.9380000000000001, 0.34800000000000003, 192.0, 0.0, 0.0, 0.0, 0.0, 0.0, 0.0, 0.0, 0.0, 0.0, 1.7401441151435485E9, 0.0, 2025-02-21 10:21:55.143
91.0, 136993.6853043658, 136895.13646306234, 137094.13404394794, 137067.8930959574, 137056.49370628523, 137040.8474851665, 137051.35280506048, 137032.1079530845, 0.048, 0.9380000000000001, 0.34800000000000003, 192.0, 0.0, 0.0, 0.0, 0.0, 0.0, 0.0, 0.0, 0.0, 0.0, 1.7401441151435711E9, 0.0, 2025-02-21 10:21:55.143
92.0, 136956.71551903672, 136858.1443259888, 137057.03014815215, 137030.7892001616, 137019.45686572278, 137003.76594111515, 137014.36066798697, 136995.11581601095, 0.048, 0.9380000000000001, 0.34800000000000003, 192.0, 0.0, 0.0, 0.0, 0.0, 0.0, 0.0, 0.0, 0.0, 0.0, 1.740144115143595E9, 0.0, 2025-02-21 10:21:55.143
93.0, 136923.09849537595, 136824.5496540725, 137023.3907727469, 136997.19452824528, 136985.79513857307, 136970.1265657099, 136980.78834781508, 136961.54349583905, 0.048, 0.9380000000000001, 0.34800000000000003, 192.0, 0.0, 0.0, 0.0, 0.0, 0.0, 0.0, 0.0, 0.0, 0.0, 1.7401441151436124E9, 0.0, 2025-02-21 10:21:55.143
94.0, 136890.33083800445, 136791.80434844547, 136990.51135665315, 136964.4268708738, 136953.0274812016, 136937.4706670607, 136947.9312834658, 136928.70878323424, 0.048, 0.9380000000000001, 0.34800000000000003, 192.0, 0.0, 0.0, 0.0, 0.0, 0.0, 0.0, 0.0, 0.0, 0.0, 1.7401441151436296E9, 0.0, 2025-02-21 10:21:55.143
95.0, 136854.21041896468, 136755.75098463905, 136954.45799284673, 136928.4182105563, 136917.01882088408, 136901.39495150984, 136911.78851268155, 136892.67777117225, 0.048, 0.9380000000000001, 0.34800000000000003, 192.0, 0.0, 0.0, 0.0, 0.0, 0.0, 0.0, 0.0, 0.0, 0.0, 1.7401441151436472E9, 0.0, 2025-02-21 10:21:55.143
96.0, 136816.27950862402, 136717.75301906504, 136916.52708250607, 136890.44259672673, 136879.02085531008, 136863.37463419136, 136873.79054710752, 136854.72450908716, 0.048, 0.9380000000000001, 0.34800000000000003, 192.0, 0.0, 0.0, 0.0, 0.0, 0.0, 0.0, 0.0, 0.0, 0.0, 1.7401441151436641E9, 0.0, 2025-02-21 10:21:55.143
97.0, 136781.25432506256, 136682.72783550358, 136881.4124919668, 136855.32800618745, 136843.97332000415, 136828.3941541188, 136838.74301180162, 136819.63227029232, 0.048, 0.9380000000000001, 0.34800000000000003, 192.0, 0.0, 0.0, 0.0, 0.0, 0.0, 0.0, 0.0, 0.0, 0.0, 1.7401441151436815E9, 0.0, 2025-02-21 10:21:55.143
98.0, 136748.66548164672, 136650.0495851099, 136848.86835203986, 136822.76151451605, 136811.3844765883, 136795.8276624474, 136806.10946489687, 136787.06577862095, 0.05, 0.93, 0.34800000000000003, 192.0, 1.0, 144.0, 29.0, 16.0, 10.0, 224.0, 0.0, 0.0, 0.0, 1.7401441151436987E9, 0.0, 2025-02-21 10:21:55.143
99.0, 136712.72387656258, 136614.17503525913, 136812.9938021891, 136786.84226117638, 136775.42051975973, 136759.8413538744, 136770.19021155717, 136751.10182179234, 0.05, 0.93, 0.34800000000000003, 192.0, 0.0, 0.0, 0.0, 0.0, 0.0, 0.0, 0.0, 0.0, 0.0, 1.740144115143717E9, 0.0, 2025-02-21 10:21:55.143
100.0, 136674.4129865662, 136575.81944177384, 136774.59350521487, 136748.4196124577, 136737.04257452997, 136721.44105690016, 136731.83461807188, 136712.72387656258, 0.05, 0.93, 0.34800000000000003, 192.0, 0.0, 0.0, 0.0, 0.0, 0.0, 0.0, 0.0, 0.0, 0.0, 1.7401441151437345E9, 0.0, 2025-02-21 10:21:55.143
101.0, 136640.86301813877, 136542.35888032423, 136740.90942632072, 136714.80258879694, 136703.47025435808, 136687.93579196165, 136698.23994615555, 136679.15155639072, 0.05, 0.93, 0.34800000000000003, 192.0, 0.0, 0.0, 0.0, 0.0, 0.0, 0.0, 0.0, 0.0, 0.0, 1.740144115143752E9, 0.0, 2025-02-21 10:21:55.143
102.0, 136611.42577069113, 136512.9216328766, 136711.44982712864, 136685.34298960483, 136673.9659516771, 136658.52089625847, 136668.7132917301, 136649.6472537097, 0.05, 0.93, 0.34800000000000003, 192.0, 0.0, 0.0, 0.0, 0.0, 0.0, 0.0, 0.0, 0.0, 0.0, 1.74014411514377E9, 0.0, 2025-02-21 10:21:55.143
103.0, 136577.1828981856, 136478.65640862662, 136677.22930636758, 136651.1001170993, 136639.81248614937, 136624.23332026403, 136634.49277096902, 136615.4490846931, 0.05, 0.93, 0.34800000000000003, 192.0, 0.0, 0.0, 0.0, 0.0, 0.0, 0.0, 0.0, 0.0, 0.0, 1.740144115143788E9, 0.0, 2025-02-21 10:21:55.143
104.0, 136539.2296361005, 136440.77020177487, 136639.25369253798, 136613.1468550142, 136601.85922406428, 136586.32476166784, 136596.56186062837, 136577.45111911907, 0.05, 0.93, 0.34800000000000003, 192.0, 0.0, 0.0, 0.0, 0.0, 0.0, 0.0, 0.0, 0.0, 0.0, 1.7401441151438065E9, 0.0, 2025-02-21 10:21:55.143
105.0, 136502.86334787172, 136404.4039135461, 136602.90975605368, 136576.71351155205, 136565.49293583547, 136549.91376995013, 136560.21792414403, 136541.06247914582, 0.05, 0.93, 0.34800000000000003, 192.0, 0.0, 0.0, 0.0, 0.0, 0.0, 0.0, 0.0, 0.0, 0.0, 1.7401441151438243E9, 0.0, 2025-02-21 10:21:55.143
106.0, 136470.7662428339, 136372.21740153045, 136570.81265101585, 136544.54935128085, 136533.39583079767, 136517.8166649123, 136528.05376387286, 136508.94302236356, 0.05, 0.93, 0.34800000000000003, 192.0, 0.0, 0.0, 0.0, 0.0, 0.0, 0.0, 0.0, 0.0, 0.0, 1.74014411514385E9, 0.0, 2025-02-21 10:21:55.143
107.0, 136433.50588482688, 136335.11350573463, 136533.55229300886, 136507.37840025168, 136496.22487976847, 136480.64571388313, 136490.88281284366, 136471.72736784548, 0.05, 0.93, 0.34800000000000003, 192.0, 0.0, 0.0, 0.0, 0.0, 0.0, 0.0, 0.0, 0.0, 0.0, 1.7401441151438746E9, 0.0, 2025-02-21 10:21:55.143
108.0, 136395.86554716417, 136297.49551981635, 136495.88960360165, 136469.73806258893, 136458.5621903613, 136442.98302447595, 136453.13071645866, 136434.13173367165, 0.05, 0.928, 0.34400000000000003, 192.0, 1.0, 144.0, 29.0, 0.0, 10.0, 192.0, 0.0, 0.0, 0.0, 1.740144115143894E9, 0.0, 2025-02-21 10:21:55.143
109.0, 136361.04152930278, 136262.7162054439, 136461.1549927181, 136434.93639647204, 136423.78287598884, 136408.2037101035, 136418.32905034174, 136399.2406605769, 0.05, 0.928, 0.34400000000000003, 192.0, 0.0, 0.0, 0.0, 0.0, 0.0, 0.0, 0.0, 0.0, 0.0, 1.740144115143912E9, 0.0, 2025-02-21 10:21:55.143
110.0, 136329.7714388098, 136231.49081843984, 136429.86255048067, 136403.5992507457, 136392.4457302625, 136376.95597135497, 136387.0366081043, 136367.94821833947, 0.05, 0.928, 0.34400000000000003, 192.0, 0.0, 0.0, 0.0, 0.0, 0.0, 0.0, 0.0, 0.0, 0.0, 1.7401441151439295E9, 0.0, 2025-02-21 10:21:55.143
111.0, 136296.04265642675, 136197.76203605678, 136396.1337680976, 136369.87046836264, 136358.67224439053, 136343.24954071635, 136353.21841874343, 136334.21943595642, 0.05, 0.928, 0.34400000000000003, 192.0, 0.0, 0.0, 0.0, 0.0, 0.0, 0.0, 0.0, 0.0, 0.0, 1.7401441151439466E9, 0.0, 2025-02-21 10:21:55.143
112.0, 136257.53060073027, 136159.18292512692, 136357.4876019344, 136331.26900568831, 136320.1154852051, 136304.69278153096, 136314.6169560691, 136295.66267677103, 0.05, 0.928, 0.34400000000000003, 192.0, 0.0, 0.0, 0.0, 0.0, 0.0, 0.0, 0.0, 0.0, 0.0, 1.7401441151439636E9, 0.0, 2025-02-21 10:21:55.143
113.0, 136220.13613225654, 136121.69904967537, 136319.914319505, 136293.80748198123, 136282.58690626465, 136267.18655433494, 136277.11072887311, 136258.2011530639, 0.05, 0.928, 0.34400000000000003, 192.0, 0.0, 0.0, 0.0, 0.0, 0.0, 0.0, 0.0, 0.0, 0.0, 1.7401441151439807E9, 0.0, 2025-02-21 10:21:55.143
114.0, 136186.47440510683, 136088.03732252566, 136286.34199933315, 136260.168106576, 136249.03693783726, 136233.59188241864, 136243.5607604457, 136224.58412940314, 0.05, 0.928, 0.34400000000000003, 192.0, 0.0, 0.0, 0.0, 0.0, 0.0, 0.0, 0.0, 0.0, 0.0, 1.740144115143998E9, 0.0, 2025-02-21 10:21:55.143
115.0, 136152.1868291124, 136053.8168017646, 136252.07677508317, 136225.92523407046, 136214.7493618428, 136199.32665816863, 136209.2955361957, 136190.43066387542, 0.05, 0.928, 0.34400000000000003, 192.0, 0.0, 0.0, 0.0, 0.0, 0.0, 0.0, 0.0, 0.0, 0.0, 1.7401441151440153E9, 0.0, 2025-02-21 10:21:55.144
116.0, 136117.04988682867, 136018.76926645866, 136216.96218454387, 136190.76594004227, 136179.65712304797, 136164.27912286273, 136174.1809456564, 136155.36077682505, 0.05, 0.928, 0.34400000000000003, 192.0, 0.0, 0.0, 0.0, 0.0, 0.0, 0.0, 0.0, 0.0, 0.0, 1.7401441151440322E9, 0.0, 2025-02-21 10:21:55.144
117.0, 136082.18116547837, 135983.92289685286, 136182.0934631936, 136155.76310822525, 136144.72134646433, 136129.32099453462, 136139.1781138394, 136120.31324151912, 0.05, 0.928, 0.34400000000000003, 192.0, 0.0, 0.0, 0.0, 0.0, 0.0, 0.0, 0.0, 0.0, 0.0, 1.7401441151440492E9, 0.0, 2025-02-21 10:21:55.144
118.0, 136049.0558801956, 135950.64114935888, 136148.85641918855, 136122.59311945358, 136111.55135769266, 136096.1733575074, 136106.05282855665, 136087.14325274745, 0.052000000000000005, 0.922, 0.34800000000000003, 192.0, 1.0, 160.0, 28.0, 208.0, 10.0, 224.0, 0.0, 0.0, 0.0, 1.7401441151440663E9, 0.0, 2025-02-21 10:21:55.144
119.0, 136012.66724022236, 135914.2301576412, 136112.3336687486, 136086.13742424696, 136075.14036597495, 136059.7623657897, 136069.6194850945, 136050.73226102977, 0.052000000000000005, 0.922, 0.34800000000000003, 192.0, 0.0, 0.0, 0.0, 0.0, 0.0, 0.0, 0.0, 0.0, 0.0, 1.7401441151440845E9, 0.0, 2025-02-21 10:21:55.144
120.0, 135975.02690255965, 135876.61217172293, 136074.60392410803, 136048.43003135087, 136037.47767656777, 136022.0549728936, 136031.9567956873, 136013.02486813365, 0.052000000000000005, 0.922, 0.34800000000000003, 192.0, 0.0, 0.0, 0.0, 0.0, 0.0, 0.0, 0.0, 0.0, 0.0, 1.7401441151441016E9, 0.0, 2025-02-21 10:21:55.144
121.0, 135938.90648351985, 135840.4023457053, 136038.48350506826, 136012.26490882217, 136001.3125540391, 135985.82279513153, 135995.79167315862, 135976.85974560498, 0.052000000000000005, 0.922, 0.34800000000000003, 192.0, 0.0, 0.0, 0.0, 0.0, 0.0, 0.0, 0.0, 0.0, 0.0, 1.740144115623498E9, 0.0, 2025-02-21 10:21:55.623
122.0, 135905.51297730362, 135807.053542978, 136005.06764710756, 135978.91610609487, 135967.87434433395, 135952.49634414868, 135962.37581519794, 135943.44388764427, 0.052000000000000005, 0.922, 0.34800000000000003, 192.0, 0.0, 0.0, 0.0, 0.0, 0.0, 0.0, 0.0, 0.0, 0.0, 1.740144115623626E9, 0.0, 2025-02-21 10:21:55.623
123.0, 135870.68895944225, 135772.2518768611, 135970.17657401285, 135944.0920882335, 135933.11738170593, 135917.7840850096, 135927.5294455921, 135908.575166294, 0.052000000000000005, 0.922, 0.34800000000000003, 192.0, 0.0, 0.0, 0.0, 0.0, 0.0, 0.0, 0.0, 0.0, 0.0, 1.7401441156236475E9, 0.0, 2025-02-21 10:21:55.623
124.0, 135832.8027525905, 135734.3880217538, 135932.33507065, 135906.1835296373, 135895.2758783431, 135879.78611943556, 135889.55383176255, 135870.64425595335, 0.052000000000000005, 0.922, 0.34800000000000003, 192.0, 0.0, 0.0, 0.0, 0.0, 0.0, 0.0, 0.0, 0.0, 0.0, 1.7401441156236672E9, 0.0, 2025-02-21 10:21:55.623
125.0, 135794.17893817174, 135695.8312625684, 135893.75595972015, 135867.5150117296, 135856.62971217989, 135841.18465676127, 135850.9747208327, 135832.13220025686, 0.052000000000000005, 0.922, 0.34800000000000003, 192.0, 0.0, 0.0, 0.0, 0.0, 0.0, 0.0, 0.0, 0.0, 0.0, 1.7401441156236868E9, 0.0, 2025-02-21 10:21:55.623
126.0, 135762.50651627858, 135664.0694336974, 135862.0164825936, 135835.73083111417, 135824.9125867978, 135809.46753137917, 135819.2575954506, 135800.43742661923, 0.052000000000000005, 0.922, 0.34800000000000003, 192.0, 0.0, 0.0, 0.0, 0.0, 0.0, 0.0, 0.0, 0.0, 0.0, 1.7401441156237063E9, 0.0, 2025-02-21 10:21:55.623
127.0, 135732.01873684154, 135633.64870949372, 135831.57340664548, 135805.37716214385, 135794.42480736075, 135779.02445543103, 135788.76981601355, 135769.9943506711, 0.052000000000000005, 0.922, 0.34800000000000003, 192.0, 0.0, 0.0, 0.0, 0.0, 0.0, 0.0, 0.0, 0.0, 0.0, 1.740144115623724E9, 0.0, 2025-02-21 10:21:55.623
128.0, 135695.2277654681, 135596.9024416092, 135794.6483248053, 135768.5861907704, 135757.65618773177, 135742.27818754653, 135751.91178940676, 135733.22573104213, 0.05, 0.91, 0.34600000000000003, 192.0, 1.0, 144.0, 28.0, 112.0, 10.0, 208.0, 0.0, 0.0, 0.0, 1.7401441156237419E9, 0.0, 2025-02-21 10:21:55.623
129.0, 135658.0791661834, 135559.75384232448, 135757.52207726505, 135731.32583276342, 135720.55229193598, 135705.0848847729, 135714.67378314422, 135696.0771317574, 0.05, 0.91, 0.34600000000000003, 192.0, 0.0, 0.0, 0.0, 0.0, 0.0, 0.0, 0.0, 0.0, 0.0, 1.7401441156237617E9, 0.0, 2025-02-21 10:21:55.623
130.0, 135624.88682566726, 135526.56150180835, 135724.28503326, 135697.99938178057, 135687.2258409531, 135671.91489600122, 135681.48144262808, 135662.84008775235, 0.05, 0.91, 0.34600000000000003, 192.0, 0.0, 0.0, 0.0, 0.0, 0.0, 0.0, 0.0, 0.0, 0.0, 1.7401441156237788E9, 0.0, 2025-02-21 10:21:55.623
131.0, 135593.12499679625, 135494.79967293737, 135692.5679078779, 135666.28225639847, 135655.48636382655, 135640.15306713022, 135649.764317246, 135631.12296237028, 0.05, 0.91, 0.34600000000000003, 192.0, 0.0, 0.0, 0.0, 0.0, 0.0, 0.0, 0.0, 0.0, 0.0, 1.740144115623809E9, 0.0, 2025-02-21 10:21:55.623
132.0, 135557.76453706797, 135459.46156495353, 135657.0733376829, 135630.92179667018, 135620.08120060936, 135604.79260740193, 135614.33680228435, 135595.69544740862, 0.05, 0.91, 0.34600000000000003, 192.0, 0.0, 0.0, 0.0, 0.0, 0.0, 0.0, 0.0, 0.0, 0.0, 1.740144115623834E9, 0.0, 2025-02-21 10:21:55.623
133.0, 135518.38076333771, 135420.10014296774, 135617.73426744156, 135591.58272642884, 135580.74213036802, 135565.4982406495, 135574.997732043, 135556.1999149561, 0.05, 0.91, 0.34600000000000003, 192.0, 0.0, 0.0, 0.0, 0.0, 0.0, 0.0, 0.0, 0.0, 0.0, 1.7401441156238527E9, 0.0, 2025-02-21 10:21:55.623
134.0, 135482.30504778685, 135384.09148265023, 135581.7032553796, 135555.4846591335, 135544.73347005053, 135529.489580332, 135538.96671998105, 135520.1912546386, 0.05, 0.91, 0.34600000000000003, 192.0, 0.0, 0.0, 0.0, 0.0, 0.0, 0.0, 0.0, 0.0, 0.0, 1.7401441156238716E9, 0.0, 2025-02-21 10:21:55.623
135.0, 135450.29734972684, 135352.08378459024, 135549.6955573196, 135523.45460932906, 135512.748123735, 135497.50423401647, 135506.91431843213, 135488.25061181196, 0.05, 0.91, 0.34600000000000003, 192.0, 0.0, 0.0, 0.0, 0.0, 0.0, 0.0, 0.0, 0.0, 0.0, 1.7401441156238904E9, 0.0, 2025-02-21 10:21:55.623
136.0, 135417.61909933318, 135319.31612721874, 135517.0396586704, 135490.79871067987, 135479.93576287458, 135464.71422490053, 135474.23606803847, 135455.63941665165, 0.05, 0.91, 0.34600000000000003, 192.0, 0.0, 0.0, 0.0, 0.0, 0.0, 0.0, 0.0, 0.0, 0.0, 1.740144115623969E9, 0.0, 2025-02-21 10:21:55.623
137.0, 135380.3140378373, 135282.05576921176, 135479.60048670776, 135453.4712974395, 135442.6307013787, 135427.38681166017, 135436.7745443314, 135418.22259643348, 0.05, 0.91, 0.34600000000000003, 192.0, 0.0, 0.0, 0.0, 0.0, 0.0, 0.0, 0.0, 0.0, 0.0, 1.7401441156240091E9, 0.0, 2025-02-21 10:21:55.624
138.0, 135341.80198214078, 135243.49901002634, 135441.08843101127, 135414.86983476518, 135404.14099742664, 135388.7629972414, 135398.24013689044, 135379.62113375915, 0.06, 0.912, 0.35000000000000003, 192.0, 1.0, 224.0, 28.0, 128.0, 10.0, 240.0, 0.0, 0.0, 0.0, 1.7401441156240308E9, 0.0, 2025-02-21 10:21:55.624
139.0, 135307.6485166131, 135209.2561375208, 135406.84555850574, 135380.6046105152, 135369.94282841, 135354.5871799692, 135364.0419678738, 135345.35590950918, 0.06, 0.912, 0.35000000000000003, 192.0, 0.0, 0.0, 0.0, 0.0, 0.0, 0.0, 0.0, 0.0, 0.0, 1.74014411562405E9, 0.0, 2025-02-21 10:21:55.624
140.0, 135271.37163536213, 135173.02395975875, 135370.5463255103, 135344.46183973097, 135333.68829890352, 135318.3997056961, 135327.83214185623, 135309.16843523603, 0.06, 0.912, 0.35000000000000003, 192.0, 0.0, 0.0, 0.0, 0.0, 0.0, 0.0, 0.0, 0.0, 0.0, 1.740144115624068E9, 0.0, 2025-02-21 10:21:55.624
141.0, 135235.98882388938, 135137.57409305265, 135335.20821752647, 135309.10138000268, 135298.30548743077, 135282.99454247887, 135292.44933038348, 135273.80797550775, 0.06, 0.912, 0.35000000000000003, 192.0, 0.0, 0.0, 0.0, 0.0, 0.0, 0.0, 0.0, 0.0, 0.0, 1.740144115624086E9, 0.0, 2025-02-21 10:21:55.624
142.0, 135199.06374204918, 135100.7384181903, 135298.30548743077, 135272.06453944024, 135261.33570210167, 135246.0247571498, 135255.4795450544, 135236.83819017868, 0.06, 0.912, 0.35000000000000003, 192.0, 0.0, 0.0, 0.0, 0.0, 0.0, 0.0, 0.0, 0.0, 0.0, 1.7401441156241035E9, 0.0, 2025-02-21 10:21:55.624
143.0, 135165.58082885513, 135067.2778567407, 135264.77787074778, 135238.53692275728, 135227.8080854187, 135212.63125093357, 135221.88487313807, 135203.26587000678, 0.06, 0.912, 0.35000000000000003, 192.0, 0.0, 0.0, 0.0, 0.0, 0.0, 0.0, 0.0, 0.0, 0.0, 1.7401441156241279E9, 0.0, 2025-02-21 10:21:55.624
144.0, 135132.12026740555, 135033.6831848244, 135231.160847087, 135205.0093060743, 135194.23576524685, 135179.17068948396, 135188.33490471065, 135169.7606050683, 0.06, 0.912, 0.35000000000000003, 192.0, 0.0, 0.0, 0.0, 0.0, 0.0, 0.0, 0.0, 0.0, 0.0, 1.7401441156241572E9, 0.0, 2025-02-21 10:21:55.624
145.0, 135096.11160708804, 134997.7639314847, 135195.26394549178, 135169.02299750128, 135158.3612153961, 135143.20673265538, 135152.41565137097, 135133.86370347306, 0.06, 0.912, 0.35000000000000003, 192.0, 0.0, 0.0, 0.0, 0.0, 0.0, 0.0, 0.0, 0.0, 0.0, 1.740144115624176E9, 0.0, 2025-02-21 10:21:55.624
146.0, 135058.91830431443, 134960.6153322, 135158.11534620708, 135131.87439821655, 135121.27967134473, 135106.05813337065, 135115.26705208624, 135096.75980767724, 0.06, 0.912, 0.35000000000000003, 192.0, 0.0, 0.0, 0.0, 0.0, 0.0, 0.0, 0.0, 0.0, 0.0, 1.7401441156241949E9, 0.0, 2025-02-21 10:21:55.624
147.0, 135024.4742661088, 134926.23834922773, 135123.53719753472, 135097.385656522, 135086.76857790572, 135071.61409516505, 135080.8230138806, 135062.31576947164, 0.06, 0.912, 0.35000000000000003, 192.0, 0.0, 0.0, 0.0, 0.0, 0.0, 0.0, 0.0, 0.0, 0.0, 1.7401441156242132E9, 0.0, 2025-02-21 10:21:55.624
148.0, 134991.52779478166, 134893.2918779006, 135090.45661574087, 135064.39448170597, 135053.79975483415, 135038.60056860454, 135047.74243208676, 135029.34694640004, 0.048, 0.926, 0.34800000000000003, 192.0, 1.0, 128.0, 28.0, 240.0, 10.0, 224.0, 0.0, 0.0, 0.0, 1.7401441156242316E9, 0.0, 2025-02-21 10:21:55.624
149.0, 134954.66976817488, 134856.41149954934, 135053.62094087852, 135027.40234463243, 135016.9193764829, 135001.74254199775, 135010.92910896888, 134992.37716107097, 0.048, 0.926, 0.34800000000000003, 192.0, 0.0, 0.0, 0.0, 0.0, 0.0, 0.0, 0.0, 0.0, 0.0, 1.7401441156242511E9, 0.0, 2025-02-21 10:21:55.624
150.0, 134916.94002353432, 134818.54764444203, 135015.84649274906, 134989.60554475852, 134979.10022486452, 134963.94574212382, 134973.13230909494, 134954.62506468597, 0.048, 0.926, 0.34800000000000003, 192.0, 0.0, 0.0, 0.0, 0.0, 0.0, 0.0, 0.0, 0.0, 0.0, 1.7401441156242695E9, 0.0, 2025-02-21 10:21:55.624
151.0, 134883.09948242898, 134784.77415857007, 134982.00595164372, 134955.8097071421, 134945.25968375918, 134930.08284927404, 134939.22471275626, 134920.78452358063, 0.048, 0.926, 0.34800000000000003, 192.0, 0.0, 0.0, 0.0, 0.0, 0.0, 0.0, 0.0, 0.0, 0.0, 1.7401441156243238E9, 0.0, 2025-02-21 10:21:55.624
152.0, 134852.49994426966, 134754.12991692184, 134951.2946547621, 134925.16546549386, 134914.66014559986, 134899.46095937025, 134908.55811936356, 134890.2296889102, 0.048, 0.926, 0.34800000000000003, 192.0, 0.0, 0.0, 0.0, 0.0, 0.0, 0.0, 0.0, 0.0, 0.0, 1.7401441156243412E9, 0.0, 2025-02-21 10:21:55.624
153.0, 134818.05590606402, 134719.84234092743, 134916.94002353432, 134890.8331860105, 134880.26081088316, 134865.03927290908, 134874.20348813577, 134855.87505768242, 0.048, 0.926, 0.34800000000000003, 192.0, 0.0, 0.0, 0.0, 0.0, 0.0, 0.0, 0.0, 0.0, 0.0, 1.7401441156243768E9, 0.0, 2025-02-21 10:21:55.624
154.0, 134780.25910619012, 134682.0455410535, 134879.34438936049, 134853.05873788105, 134842.5310662426, 134827.44363873525, 134836.56315047303, 134818.1676647863, 0.048, 0.926, 0.34800000000000003, 192.0, 0.0, 0.0, 0.0, 0.0, 0.0, 0.0, 0.0, 0.0, 0.0, 1.7401441156243951E9, 0.0, 2025-02-21 10:21:55.624
155.0, 134745.23392262863, 134646.99800574756, 134844.18509533227, 134817.9217955973, 134807.4611791922, 134792.32904819597, 134801.38150470037, 134783.00837075812, 0.048, 0.926, 0.34800000000000003, 192.0, 0.0, 0.0, 0.0, 0.0, 0.0, 0.0, 0.0, 0.0, 0.0, 1.7401441156244137E9, 0.0, 2025-02-21 10:21:55.624
156.0, 134712.53332049053, 134614.3644588428, 134811.43978970527, 134785.24354520364, 134774.7605770541, 134759.65079780231, 134768.70325430672, 134750.28541687553, 0.048, 0.926, 0.34800000000000003, 192.0, 0.0, 0.0, 0.0, 0.0, 0.0, 0.0, 0.0, 0.0, 0.0, 1.740144115624432E9, 0.0, 2025-02-21 10:21:55.624
157.0, 134675.60823865037, 134577.48408049156, 134774.62646658736, 134748.4078703413, 134737.9025504473, 134722.7480677066, 134731.86757944437, 134713.40503852427, 0.048, 0.926, 0.34800000000000003, 192.0, 0.0, 0.0, 0.0, 0.0, 0.0, 0.0, 0.0, 0.0, 0.0, 1.7401441156244504E9, 0.0, 2025-02-21 10:21:55.624
158.0, 134636.96207248713, 134538.81556258388, 134735.9579486797, 134709.67229720025, 134699.23403253962, 134684.10190154338, 134693.1543580478, 134674.71416887216, 0.05, 0.936, 0.34800000000000003, 192.0, 1.0, 144.0, 29.0, 64.0, 10.0, 224.0, 0.0, 0.0, 0.0, 1.7401441156244688E9, 0.0, 2025-02-21 10:21:55.624
159.0, 134600.59578425836, 134502.42692261064, 134699.52460521754, 134673.30600897147, 134662.778337333, 134647.64620633677, 134656.76571807454, 134638.39258413226, 0.05, 0.936, 0.34800000000000003, 192.0, 0.0, 0.0, 0.0, 0.0, 0.0, 0.0, 0.0, 0.0, 0.0, 1.740144115624488E9, 0.0, 2025-02-21 10:21:55.624
160.0, 134567.9175338647, 134469.6816169836, 134666.86870656835, 134640.47129636662, 134630.10008693935, 134614.9232524542, 134624.06511593642, 134605.6249267608, 0.05, 0.936, 0.34800000000000003, 192.0, 0.0, 0.0, 0.0, 0.0, 0.0, 0.0, 0.0, 0.0, 0.0, 1.740144115624506E9, 0.0, 2025-02-21 10:21:55.624
161.0, 134534.27815845946, 134435.99753808946, 134633.20697941864, 134606.8766244503, 134596.4160080452, 134581.28387704896, 134590.3586852978, 134572.00790310002, 0.05, 0.936, 0.34800000000000003, 192.0, 0.0, 0.0, 0.0, 0.0, 0.0, 0.0, 0.0, 0.0, 0.0, 1.740144115624524E9, 0.0, 2025-02-21 10:21:55.624
162.0, 134497.3977801082, 134399.1618632271, 134596.259545834, 134569.97389435457, 134559.53562969394, 134544.42585044217, 134553.43360345764, 134535.23928347102, 0.05, 0.936, 0.34800000000000003, 192.0, 0.0, 0.0, 0.0, 0.0, 0.0, 0.0, 0.0, 0.0, 0.0, 1.7401441156245425E9, 0.0, 2025-02-21 10:21:55.624
163.0, 134460.4279947791, 134362.2144296425, 134559.3121122494, 134532.98175728106, 134522.6552513427, 134507.54547209092, 134516.48616987304, 134498.2471463975, 0.05, 0.936, 0.34800000000000003, 192.0, 0.0, 0.0, 0.0, 0.0, 0.0, 0.0, 0.0, 0.0, 0.0, 1.7401441156245604E9, 0.0, 2025-02-21 10:21:55.624
164.0, 134425.4251629621, 134327.2563013144, 134524.21987345457, 134497.97892546403, 134487.63006778123, 134472.45323329608, 134481.46098631158, 134463.0878523693, 0.05, 0.936, 0.34800000000000003, 192.0, 0.0, 0.0, 0.0, 0.0, 0.0, 0.0, 0.0, 0.0, 0.0, 1.7401441156245787E9, 0.0, 2025-02-21 10:21:55.624
165.0, 134391.94224976806, 134293.7957398648, 134490.6475532827, 134464.45130878108, 134454.14715458718, 134438.99267184647, 134447.9333696286, 134429.6272909197, 0.05, 0.936, 0.34800000000000003, 192.0, 0.0, 0.0, 0.0, 0.0, 0.0, 0.0, 0.0, 0.0, 0.0, 1.7401441156245973E9, 0.0, 2025-02-21 10:21:55.624
166.0, 134354.95011269453, 134256.64714058008, 134453.52130574244, 134427.30270949635, 134417.04325879138, 134401.8664243062, 134410.7847703439, 134392.50104337945, 0.05, 0.936, 0.34800000000000003, 192.0, 0.0, 0.0, 0.0, 0.0, 0.0, 0.0, 0.0, 0.0, 0.0, 1.740144115624653E9, 0.0, 2025-02-21 10:21:55.624
167.0, 134319.1426180771, 134220.8843494516, 134417.71381112502, 134391.45051139005, 134381.25811591843, 134366.14833666664, 134374.95492398203, 134356.69354876204, 0.05, 0.936, 0.34800000000000003, 192.0, 0.0, 0.0, 0.0, 0.0, 0.0, 0.0, 0.0, 0.0, 0.0, 1.740144115624672E9, 0.0, 2025-02-21 10:21:55.624
168.0, 134287.22432699494, 134189.0107618583, 134385.8178717873, 134359.55457205232, 134349.2727696029, 134334.2971008178, 134343.0589846443, 134324.81996116877, 0.044, 0.9400000000000001, 0.352, 192.0, 1.0, 96.0, 29.0, 96.0, 11.0, 0.0, 0.0, 0.0, 0.0, 1.7401441156246974E9, 0.0, 2025-02-21 10:21:55.624
169.0, 134252.176791689, 134153.9632265524, 134350.70328124802, 134324.52938849086, 134314.2028825525, 134299.13780678963, 134307.98909759393, 134289.7500741184, 0.044, 0.9400000000000001, 0.352, 192.0, 0.0, 0.0, 0.0, 0.0, 0.0, 0.0, 0.0, 0.0, 0.0, 1.7401441156247172E9, 0.0, 2025-02-21 10:21:55.624
170.0, 134215.25170984885, 134116.81462726768, 134313.71114417448, 134287.4925479284, 134277.23309722342, 134262.10096622718, 134270.9969605204, 134252.6908818115, 0.044, 0.9400000000000001, 0.352, 192.0, 0.0, 0.0, 0.0, 0.0, 0.0, 0.0, 0.0, 0.0, 0.0, 1.7401441156247356E9, 0.0, 2025-02-21 10:21:55.624
171.0, 134175.15268029604, 134076.87205992604, 134273.65681811058, 134247.39351837558, 134237.22347464843, 134222.06899190773, 134230.83087573422, 134212.70361098094, 0.044, 0.9400000000000001, 0.352, 192.0, 0.0, 0.0, 0.0, 0.0, 0.0, 0.0, 0.0, 0.0, 0.0, 1.7401441156247544E9, 0.0, 2025-02-21 10:21:55.624
172.0, 134140.32866243468, 134042.04804206468, 134238.85515199366, 134212.5247970253, 134202.35475329813, 134187.2673257908, 134195.98450612838, 134177.83488963067, 0.044, 0.9400000000000001, 0.352, 192.0, 0.0, 0.0, 0.0, 0.0, 0.0, 0.0, 0.0, 0.0, 0.0, 1.7401441156247728E9, 0.0, 2025-02-21 10:21:55.624
173.0, 134109.86323474208, 134011.7390765833, 134208.45677953443, 134182.08172107718, 134172.00108432784, 134156.8689533316, 134165.60848541363, 134147.414165427, 0.044, 0.9400000000000001, 0.352, 192.0, 0.0, 0.0, 0.0, 0.0, 0.0, 0.0, 0.0, 0.0, 0.0, 1.7401441156247911E9, 0.0, 2025-02-21 10:21:55.624
174.0, 134074.1004436136, 133976.0209889437, 134172.62693317258, 134146.3189299487, 134136.19358971043, 134121.03910696975, 134129.82334254068, 134111.6513742985, 0.044, 0.9400000000000001, 0.352, 192.0, 0.0, 0.0, 0.0, 0.0, 0.0, 0.0, 0.0, 0.0, 0.0, 1.7401441156248095E9, 0.0, 2025-02-21 10:21:55.624
