%OpenBCI Raw EXG Data
%Number of channels = 8
%Sample Rate = 250 Hz
%Board = OpenBCI_GUI$BoardCytonSerial
Sample Index, EXG Channel 0, EXG Channel 1, EXG Channel 2, EXG Channel 3, EXG Channel 4, EXG Channel 5, EXG Channel 6, EXG Channel 7, Accel Channel 0, Accel Channel 1, Accel Channel 2, Not Used, Digital Channel 0 (D11), Digital Channel 1 (D12), Digital Channel 2 (D13), Digital Channel 3 (D17), Not Used, Digital Channel 4 (D18), Analog Channel 0, Analog Channel 1, Analog Channel 2, Timestamp, Marker Channel, Timestamp (Formatted)
243.0, 131637.89440845186, 131539.77025029305, 131735.05744159908, 131708.50356918617, 131699.24994698167, 131684.833071808, 131691.91857480034, 131674.70773156974, 0.0, 0.0, 0.0, 192.0, 0.0, 0.0, 0.0, 0.0, 0.0, 0.0, 0.0, 0.0, 0.0, 1.7401441194676127E9, 0.0, 2025-02-21 10:21:59.467
244.0, 131602.7127626792, 131504.6780114982, 131699.9875545487, 131673.3889786469, 131664.06830120902, 131649.6737777798, 131656.75928077212, 131639.54843754155, 0.0, 0.0, 0.0, 192.0, 0.0, 0.0, 0.0, 0.0, 0.0, 0.0, 0.0, 0.0, 0.0, 1.740144119467652E9, 0.0, 2025-02-21 10:21:59.467
245.0, 131564.89361106083, 131466.9929703466, 131662.0789959525, 131635.54747528405, 131626.316204824, 131611.80992267252, 131618.96248089822, 131601.7069341787, 0.0, 0.0, 0.0, 192.0, 0.0, 0.0, 0.0, 0.0, 0.0, 0.0, 0.0, 0.0, 0.0, 1.7401441194677055E9, 0.0, 2025-02-21 10:21:59.467
246.0, 131525.50983733058, 131427.69860359415, 131622.67287047778, 131596.23075678715, 131587.04418981602, 131572.6049628979, 131579.6010589124, 131562.39021568184, 0.0, 0.0, 0.0, 192.0, 0.0, 0.0, 0.0, 0.0, 0.0, 0.0, 0.0, 0.0, 0.0, 1.7401441194677308E9, 0.0, 2025-02-21 10:21:59.467
247.0, 131492.5857177479, 131394.68507703365, 131589.54758519502, 131563.12782324885, 131554.05301499998, 131539.63613982633, 131546.4981253741, 131529.30963388798, 0.0, 0.0, 0.0, 192.0, 0.0, 0.0, 0.0, 0.0, 0.0, 0.0, 0.0, 0.0, 0.0, 1.7401441194677556E9, 0.0, 2025-02-21 10:21:59.467
248.0, 131460.60037143235, 131362.58797199585, 131557.58459062394, 131531.07542169993, 131521.95590996218, 131507.5390347885, 131514.4457238252, 131497.2795840835, 0.046, 0.924, 0.342, 192.0, 1.0, 112.0, 28.0, 224.0, 10.0, 176.0, 0.0, 0.0, 0.0, 1.7401441194677796E9, 0.0, 2025-02-21 10:21:59.467
249.0, 131426.33514718237, 131328.32274774584, 131523.3864216073, 131496.92195617224, 131487.7353892011, 131473.36321751634, 131480.31461004194, 131463.14847030025, 0.046, 0.924, 0.342, 192.0, 0.0, 0.0, 0.0, 0.0, 0.0, 0.0, 0.0, 0.0, 0.0, 1.7401441194678085E9, 0.0, 2025-02-21 10:21:59.467
250.0, 131388.53834730844, 131290.57065136085, 131485.50021475556, 131459.05810106493, 131449.96094107162, 131435.54406589796, 131442.58486540138, 131425.32931868188, 0.046, 0.924, 0.342, 192.0, 0.0, 0.0, 0.0, 0.0, 0.0, 0.0, 0.0, 0.0, 0.0, 1.7401441194678335E9, 0.0, 2025-02-21 10:21:59.467
251.0, 131353.69197770263, 131255.81368873283, 131450.5867899164, 131424.1670279702, 131415.04751623244, 131400.6753445477, 131407.62673707327, 131390.4605973316, 0.046, 0.924, 0.342, 192.0, 0.0, 0.0, 0.0, 0.0, 0.0, 0.0, 0.0, 0.0, 0.0, 1.7401441194678707E9, 0.0, 2025-02-21 10:21:59.467
252.0, 131320.61139590878, 131222.71075519454, 131417.43915288916, 131390.95233570962, 131381.94458269412, 131367.505355776, 131374.36734132378, 131357.26825681547, 0.046, 0.924, 0.342, 192.0, 0.0, 0.0, 0.0, 0.0, 0.0, 0.0, 0.0, 0.0, 0.0, 1.7401441194678955E9, 0.0, 2025-02-21 10:21:59.467
253.0, 131285.42975013613, 131187.55146116632, 131382.23515537207, 131355.81539342587, 131346.74058517703, 131332.41311698116, 131339.18569555113, 131322.08661104282, 0.046, 0.924, 0.342, 192.0, 0.0, 0.0, 0.0, 0.0, 0.0, 0.0, 0.0, 0.0, 0.0, 1.7401441194679203E9, 0.0, 2025-02-21 10:21:59.467
254.0, 131246.40360431714, 131148.5029636029, 131343.11960257526, 131316.744544118, 131307.6473841247, 131293.230508951, 131300.11484624326, 131282.99340999048, 0.046, 0.924, 0.342, 192.0, 0.0, 0.0, 0.0, 0.0, 0.0, 0.0, 0.0, 0.0, 0.0, 1.7401441194679449E9, 0.0, 2025-02-21 10:21:59.467
255.0, 131210.79727539985, 131112.78487596332, 131307.4015149357, 131281.02645647843, 131272.01870346293, 131257.62418003372, 131264.46381383704, 131247.34237758428, 0.046, 0.924, 0.342, 192.0, 0.0, 0.0, 0.0, 0.0, 0.0, 0.0, 0.0, 0.0, 0.0, 1.7401441194679692E9, 0.0, 2025-02-21 10:21:59.467
0.0, 131178.23078372848, 131080.33014301423, 131274.99148547548, 131248.54937178487, 131239.49691528047, 131225.25885406244, 131232.0314326324, 131214.93234812407, 0.046, 0.924, 0.342, 192.0, 0.0, 0.0, 0.0, 0.0, 0.0, 0.0, 0.0, 0.0, 0.0, 1.7401441194679935E9, 0.0, 2025-02-21 10:21:59.467
1.0, 131142.87032400016, 131044.99203503037, 131239.474563536, 131213.12185682319, 131204.09175206325, 131189.83133910075, 131196.53686243735, 131179.4154261846, 0.046, 0.924, 0.342, 192.0, 0.0, 0.0, 0.0, 0.0, 0.0, 0.0, 0.0, 0.0, 0.0, 1.7401441194680176E9, 0.0, 2025-02-21 10:21:59.468
2.0, 131105.5876142487, 131007.73167702339, 131202.28126076236, 131175.92855404958, 131166.87609754517, 131152.52627760486, 131159.34355966374, 131142.13271643315, 0.042, 0.924, 0.34800000000000003, 192.0, 1.0, 80.0, 28.0, 224.0, 10.0, 224.0, 0.0, 0.0, 0.0, 1.7401441194680429E9, 0.0, 2025-02-21 10:21:59.468
3.0, 131066.94144808549, 130969.08551086015, 131163.6574463436, 131137.26003614187, 131128.18522789303, 131113.8577596972, 131120.63033826713, 131103.50890201438, 0.042, 0.924, 0.34800000000000003, 192.0, 0.0, 0.0, 0.0, 0.0, 0.0, 0.0, 0.0, 0.0, 0.0, 1.7401441194681816E9, 0.0, 2025-02-21 10:21:59.468
4.0, 131033.54794186926, 130935.64730115501, 131130.21923663846, 131103.8441781812, 131094.85877691017, 131080.4866052254, 131087.21448030646, 131070.09304405369, 0.042, 0.924, 0.34800000000000003, 192.0, 0.0, 0.0, 0.0, 0.0, 0.0, 0.0, 0.0, 0.0, 0.0, 1.7401441194682164E9, 0.0, 2025-02-21 10:21:59.468
5.0, 131001.80846474273, 130903.88547228402, 131098.3903525341, 131072.0376458213, 131063.11929978363, 131048.65772112105, 131055.40794794656, 131038.28651169379, 0.042, 0.924, 0.34800000000000003, 192.0, 0.0, 0.0, 0.0, 0.0, 0.0, 0.0, 0.0, 0.0, 0.0, 1.7401441194682417E9, 0.0, 2025-02-21 10:21:59.468
6.0, 130963.92225789098, 130866.02161717674, 131060.43709044899, 131034.08438373619, 131025.18838944298, 131010.79386601376, 131017.43233411698, 131000.40030484204, 0.042, 0.924, 0.34800000000000003, 192.0, 0.0, 0.0, 0.0, 0.0, 0.0, 0.0, 0.0, 0.0, 0.0, 1.7401441194682667E9, 0.0, 2025-02-21 10:21:59.468
7.0, 130926.86306558408, 130828.91772138093, 131023.37789814209, 130997.00283968484, 130988.15154888053, 130973.75702545131, 130980.39549355455, 130963.45287125742, 0.042, 0.924, 0.34800000000000003, 192.0, 0.0, 0.0, 0.0, 0.0, 0.0, 0.0, 0.0, 0.0, 0.0, 1.7401441194682915E9, 0.0, 2025-02-21 10:21:59.468
8.0, 130892.66489656745, 130794.7195523643, 130989.17972912548, 130962.78231892375, 130953.90867637501, 130939.58120817915, 130946.26437977128, 130929.27705398525, 0.042, 0.924, 0.34800000000000003, 192.0, 0.0, 0.0, 0.0, 0.0, 0.0, 0.0, 0.0, 0.0, 0.0, 1.7401441194683163E9, 0.0, 2025-02-21 10:21:59.468
9.0, 130859.1372798845, 130761.23663917025, 130955.78622290924, 130929.34410921863, 130920.44811492541, 130906.0535914962, 130912.66970785496, 130895.72708555784, 0.042, 0.924, 0.34800000000000003, 192.0, 0.0, 0.0, 0.0, 0.0, 0.0, 0.0, 0.0, 0.0, 0.0, 1.7401441194683452E9, 0.0, 2025-02-21 10:21:59.468
10.0, 130825.72142192382, 130727.86548469849, 130922.3033097152, 130895.86119602458, 130886.96520173136, 130872.72714051332, 130879.16444291646, 130862.2888758527, 0.042, 0.924, 0.34800000000000003, 192.0, 0.0, 0.0, 0.0, 0.0, 0.0, 0.0, 0.0, 0.0, 0.0, 1.74014411946837E9, 0.0, 2025-02-21 10:21:59.468
11.0, 130786.60586912703, 130688.7946353906, 130883.21010866287, 130856.72329148333, 130847.96140765684, 130833.6786429499, 130840.1830005864, 130823.21802654483, 0.042, 0.924, 0.34800000000000003, 192.0, 0.0, 0.0, 0.0, 0.0, 0.0, 0.0, 0.0, 0.0, 0.0, 1.7401441194683948E9, 0.0, 2025-02-21 10:21:59.468
12.0, 130750.01606345369, 130652.22718146173, 130846.62030298953, 130820.15583755444, 130811.39395372797, 130797.06648553211, 130803.63789840197, 130786.58351738258, 0.042, 0.934, 0.35000000000000003, 192.0, 1.0, 80.0, 29.0, 48.0, 10.0, 240.0, 0.0, 0.0, 0.0, 1.7401441194684205E9, 0.0, 2025-02-21 10:21:59.468
13.0, 130716.53315025964, 130618.74426826768, 130813.04798281766, 130786.67292436039, 130777.77693006718, 130763.62827582697, 130770.0655782301, 130752.98884546624, 0.042, 0.934, 0.35000000000000003, 192.0, 0.0, 0.0, 0.0, 0.0, 0.0, 0.0, 0.0, 0.0, 0.0, 1.7401441194684489E9, 0.0, 2025-02-21 10:21:59.468
14.0, 130680.23391726422, 130582.4673870167, 130776.68169458887, 130750.30663613162, 130741.50004881622, 130727.23963585374, 130733.74399349022, 130716.75666770419, 0.042, 0.934, 0.35000000000000003, 192.0, 0.0, 0.0, 0.0, 0.0, 0.0, 0.0, 0.0, 0.0, 0.0, 1.7401441194684737E9, 0.0, 2025-02-21 10:21:59.468
15.0, 130644.51582962464, 130546.77165112158, 130741.0083104382, 130714.47678976975, 130705.82666466555, 130691.52154821415, 130697.847091895, 130681.01622832016, 0.042, 0.934, 0.35000000000000003, 192.0, 0.0, 0.0, 0.0, 0.0, 0.0, 0.0, 0.0, 0.0, 0.0, 1.7401441194684992E9, 0.0, 2025-02-21 10:21:59.468
16.0, 130612.77635249811, 130514.92041527278, 130709.13472284493, 130682.6926091543, 130673.90837358337, 130659.6926641098, 130666.01820779065, 130649.16499247134, 0.042, 0.934, 0.35000000000000003, 192.0, 0.0, 0.0, 0.0, 0.0, 0.0, 0.0, 0.0, 0.0, 0.0, 1.7401441194685245E9, 0.0, 2025-02-21 10:21:59.468
17.0, 130578.80170092604, 130480.90106021179, 130675.20477476178, 130648.71795758224, 130639.93372201131, 130625.74036428219, 130632.06590796304, 130615.2797478771, 0.042, 0.934, 0.35000000000000003, 192.0, 0.0, 0.0, 0.0, 0.0, 0.0, 0.0, 0.0, 0.0, 0.0, 1.7401441194685493E9, 0.0, 2025-02-21 10:21:59.468
18.0, 130541.51899117458, 130443.6407022048, 130637.92206501032, 130611.45759957524, 130602.58395702648, 130588.39059929736, 130594.78319821159, 130577.88527940337, 0.042, 0.934, 0.35000000000000003, 192.0, 0.0, 0.0, 0.0, 0.0, 0.0, 0.0, 0.0, 0.0, 0.0, 1.7401441194686136E9, 0.0, 2025-02-21 10:21:59.468
19.0, 130504.25863316758, 130406.42504768672, 130600.61700351442, 130574.24194505716, 130565.3683025084, 130551.19729652374, 130557.52284020459, 130540.62492139637, 0.042, 0.934, 0.35000000000000003, 192.0, 0.0, 0.0, 0.0, 0.0, 0.0, 0.0, 0.0, 0.0, 0.0, 1.7401441194686477E9, 0.0, 2025-02-21 10:21:59.468
20.0, 130472.58621127442, 130374.70792230463, 130568.87752638788, 130542.48011618617, 130533.71823235968, 130519.61428160839, 130525.82806656696, 130508.88544426984, 0.042, 0.934, 0.35000000000000003, 192.0, 0.0, 0.0, 0.0, 0.0, 0.0, 0.0, 0.0, 0.0, 0.0, 1.7401441194686728E9, 0.0, 2025-02-21 10:21:59.468
21.0, 130439.66209169175, 130341.87320969978, 130535.99811029412, 130509.46658962568, 130500.77176103256, 130486.53369981454, 130492.83689175092, 130476.05073166499, 0.042, 0.934, 0.35000000000000003, 192.0, 0.0, 0.0, 0.0, 0.0, 0.0, 0.0, 0.0, 0.0, 0.0, 1.7401441194686975E9, 0.0, 2025-02-21 10:21:59.468
22.0, 130403.25109997406, 130305.37281100427, 130499.58711857643, 130472.96619093016, 130464.36076931487, 130450.05565286348, 130456.38119654432, 130439.66209169175, 0.046, 0.936, 0.356, 192.0, 1.0, 112.0, 29.0, 64.0, 11.0, 32.0, 0.0, 0.0, 0.0, 1.7401441194687226E9, 0.0, 2025-02-21 10:21:59.468
23.0, 130364.78374776647, 130266.81605181887, 130461.07506287994, 130434.43178348921, 130425.91576885174, 130411.6330041448, 130417.91384433674, 130401.23944297308, 0.046, 0.936, 0.356, 192.0, 0.0, 0.0, 0.0, 0.0, 0.0, 0.0, 0.0, 0.0, 0.0, 1.7401441194687495E9, 0.0, 2025-02-21 10:21:59.468
24.0, 130330.00443339402, 130232.03673744641, 130426.1392862963, 130399.60776562784, 130391.06939924591, 130376.80898628343, 130383.04512298646, 130366.3707216228, 0.046, 0.936, 0.356, 192.0, 0.0, 0.0, 0.0, 0.0, 0.0, 0.0, 0.0, 0.0, 0.0, 1.740144119468774E9, 0.0, 2025-02-21 10:21:59.468
25.0, 130298.04143882293, 130200.16314985314, 130394.1315882363, 130367.62241931229, 130359.08405293037, 130344.9130469457, 130351.08212841536, 130334.34067181834, 0.046, 0.936, 0.356, 192.0, 0.0, 0.0, 0.0, 0.0, 0.0, 0.0, 0.0, 0.0, 0.0, 1.7401441194687989E9, 0.0, 2025-02-21 10:21:59.468
26.0, 130261.54104012741, 130163.66275115762, 130357.69824477415, 130331.14437236123, 130322.58365423486, 130308.47970348355, 130314.5593779754, 130297.84027312283, 0.046, 0.936, 0.356, 192.0, 0.0, 0.0, 0.0, 0.0, 0.0, 0.0, 0.0, 0.0, 0.0, 1.7401441194688237E9, 0.0, 2025-02-21 10:21:59.468
27.0, 130221.35260359677, 130123.60842509371, 130317.5098082435, 130290.9559358306, 130282.41756944866, 130268.31361869737, 130274.32623795584, 130257.60713310327, 0.046, 0.936, 0.356, 192.0, 0.0, 0.0, 0.0, 0.0, 0.0, 0.0, 0.0, 0.0, 0.0, 1.7401441194688494E9, 0.0, 2025-02-21 10:21:59.468
28.0, 130185.83568165729, 130088.22561362096, 130282.01523804847, 130255.52842086893, 130246.9453509981, 130232.81904850234, 130238.83166776082, 130222.15726639716, 0.046, 0.936, 0.356, 192.0, 0.0, 0.0, 0.0, 0.0, 0.0, 0.0, 0.0, 0.0, 0.0, 1.740144119468874E9, 0.0, 2025-02-21 10:21:59.468
29.0, 130152.2186579965, 130054.4968312379, 130248.33115915432, 130221.86669371925, 130213.30597559286, 130199.20202484156, 130205.2816993334, 130188.54024273637, 0.046, 0.936, 0.356, 192.0, 0.0, 0.0, 0.0, 0.0, 0.0, 0.0, 0.0, 0.0, 0.0, 1.7401441194688995E9, 0.0, 2025-02-21 10:21:59.468
30.0, 130117.72991630196, 130020.05279303227, 130213.86476920424, 130187.26619330242, 130178.81723389831, 130164.73563489148, 130170.7259024055, 130154.00679755292, 0.046, 0.936, 0.356, 192.0, 0.0, 0.0, 0.0, 0.0, 0.0, 0.0, 0.0, 0.0, 0.0, 1.740144119468928E9, 0.0, 2025-02-21 10:21:59.468
31.0, 130080.08957863922, 129982.30069664726, 130176.11267281923, 130149.55880040632, 130141.04278576885, 130127.07294548428, 130132.99615776494, 130116.38881163465, 0.046, 0.936, 0.356, 192.0, 0.0, 0.0, 0.0, 0.0, 0.0, 0.0, 0.0, 0.0, 0.0, 1.740144119468953E9, 0.0, 2025-02-21 10:21:59.468
32.0, 130042.8962758656, 129945.174449107, 130138.98642527896, 130112.38784937715, 130103.93888997304, 130089.92434619956, 130095.84755848022, 130079.17315711656, 0.04, 0.9380000000000001, 0.352, 192.0, 1.0, 64.0, 29.0, 80.0, 11.0, 0.0, 0.0, 0.0, 0.0, 1.7401441194689777E9, 0.0, 2025-02-21 10:21:59.468
33.0, 130008.29577544879, 129910.64100392355, 130104.34122137324, 130077.78734896034, 130069.33838955623, 130055.32384578275, 130061.31411329677, 130044.52795321084, 0.04, 0.9380000000000001, 0.352, 192.0, 0.0, 0.0, 0.0, 0.0, 0.0, 0.0, 0.0, 0.0, 0.0, 1.740144119469026E9, 0.0, 2025-02-21 10:21:59.469
34.0, 129974.678751788, 129876.88986979602, 130070.67949422354, 130044.05856657727, 130035.60960717317, 130021.6397668886, 130027.56297916926, 130010.9332812945, 0.04, 0.9380000000000001, 0.352, 192.0, 0.0, 0.0, 0.0, 0.0, 0.0, 0.0, 0.0, 0.0, 0.0, 1.7401441194690611E9, 0.0, 2025-02-21 10:21:59.469
35.0, 129938.0218908813, 129840.18830540041, 130033.97792982793, 130007.40170567056, 129998.930394522, 129984.96055423743, 129990.86141477364, 129974.25406864335, 0.04, 0.9380000000000001, 0.352, 192.0, 0.0, 0.0, 0.0, 0.0, 0.0, 0.0, 0.0, 0.0, 0.0, 1.7401441194690866E9, 0.0, 2025-02-21 10:21:59.469
36.0, 129901.49914044133, 129803.6879067049, 129997.38812415459, 129970.78954825278, 129962.34058884867, 129948.3707485641, 129954.24925735586, 129937.68661471446, 0.04, 0.9380000000000001, 0.352, 192.0, 0.0, 0.0, 0.0, 0.0, 0.0, 0.0, 0.0, 0.0, 0.0, 1.7401441194691126E9, 0.0, 2025-02-21 10:21:59.469
37.0, 129868.08328248064, 129770.4285109554, 129963.9722661939, 129937.48544901436, 129929.05884135472, 129914.99959409233, 129920.94515811744, 129904.33781198715, 0.04, 0.9380000000000001, 0.352, 192.0, 0.0, 0.0, 0.0, 0.0, 0.0, 0.0, 0.0, 0.0, 0.0, 1.7401441194691389E9, 0.0, 2025-02-21 10:21:59.469
38.0, 129834.10863090858, 129736.40915589442, 129930.04231811075, 129903.5107974423, 129895.01713454929, 129880.98023903136, 129886.92580305647, 129870.29610518171, 0.04, 0.9380000000000001, 0.352, 192.0, 0.0, 0.0, 0.0, 0.0, 0.0, 0.0, 0.0, 0.0, 0.0, 1.7401441194691644E9, 0.0, 2025-02-21 10:21:59.469
39.0, 129795.88714789, 129698.09826589804, 129891.7090763699, 129865.22225919036, 129856.77329978625, 129842.6469972905, 129848.61491306007, 129831.96286344086, 0.04, 0.9380000000000001, 0.352, 192.0, 0.0, 0.0, 0.0, 0.0, 0.0, 0.0, 0.0, 0.0, 0.0, 1.740144119469202E9, 0.0, 2025-02-21 10:21:59.469
40.0, 129755.89987705945, 129658.2004020453, 129851.81121251718, 129825.16793312645, 129816.87543593353, 129802.79383692669, 129808.67234571843, 129792.06499958814, 0.04, 0.9380000000000001, 0.352, 192.0, 0.0, 0.0, 0.0, 0.0, 0.0, 0.0, 0.0, 0.0, 0.0, 1.7401441194692278E9, 0.0, 2025-02-21 10:21:59.469
41.0, 129721.12056268699, 129623.3987359284, 129817.00954640027, 129790.34391526508, 129782.02906632771, 129767.94746732086, 129773.84832785706, 129757.21862998232, 0.04, 0.9380000000000001, 0.352, 192.0, 0.0, 0.0, 0.0, 0.0, 0.0, 0.0, 0.0, 0.0, 0.0, 1.7401441194692533E9, 0.0, 2025-02-21 10:21:59.469
42.0, 129689.47049253828, 129591.70396229076, 129785.47123497383, 129758.78325209419, 129750.40134792344, 129736.3197489166, 129742.24296119726, 129725.59091157805, 0.052000000000000005, 0.9380000000000001, 0.34800000000000003, 192.0, 1.0, 160.0, 29.0, 80.0, 10.0, 224.0, 0.0, 0.0, 0.0, 1.7401441194692793E9, 0.0, 2025-02-21 10:21:59.469
43.0, 129652.56776244257, 129554.73417696169, 129748.50144964474, 129721.72405978729, 129713.49861782773, 129699.43937056535, 129705.25082412372, 129688.64347799344, 0.052000000000000005, 0.9380000000000001, 0.34800000000000003, 192.0, 0.0, 0.0, 0.0, 0.0, 0.0, 0.0, 0.0, 0.0, 0.0, 1.740144119469308E9, 0.0, 2025-02-21 10:21:59.469
44.0, 129615.03918350211, 129517.20559802123, 129710.8164084931, 129684.10607386901, 129675.88063190946, 129661.88843988044, 129667.63283820545, 129651.04784381962, 0.052000000000000005, 0.9380000000000001, 0.34800000000000003, 192.0, 0.0, 0.0, 0.0, 0.0, 0.0, 0.0, 0.0, 0.0, 0.0, 1.7401441194693336E9, 0.0, 2025-02-21 10:21:59.469
45.0, 129579.835185985, 129482.06865573749, 129675.56770748708, 129648.94677984081, 129640.74368962571, 129626.72914585224, 129632.42884068834, 129615.93325328032, 0.052000000000000005, 0.9380000000000001, 0.34800000000000003, 192.0, 0.0, 0.0, 0.0, 0.0, 0.0, 0.0, 0.0, 0.0, 0.0, 1.7401441194693594E9, 0.0, 2025-02-21 10:21:59.469
46.0, 129544.56413323453, 129446.86465822038, 129640.31900648106, 129613.72043057924, 129605.56204385306, 129591.52514833513, 129597.18013968231, 129580.75160750767, 0.052000000000000005, 0.9380000000000001, 0.34800000000000003, 192.0, 0.0, 0.0, 0.0, 0.0, 0.0, 0.0, 0.0, 0.0, 0.0, 1.740144119469385E9, 0.0, 2025-02-21 10:21:59.469
47.0, 129509.56130141752, 129411.90652989228, 129605.31617466405, 129578.67289527332, 129570.46980505822, 129556.38820605139, 129562.1773078653, 129545.63701696838, 0.052000000000000005, 0.9380000000000001, 0.34800000000000003, 192.0, 0.0, 0.0, 0.0, 0.0, 0.0, 0.0, 0.0, 0.0, 0.0, 1.7401441194694107E9, 0.0, 2025-02-21 10:21:59.469
48.0, 129473.46323412219, 129375.76375910804, 129569.19575562427, 129542.50777274463, 129534.34938601845, 129520.33484224498, 129526.10159231444, 129509.53894967306, 0.052000000000000005, 0.9380000000000001, 0.34800000000000003, 192.0, 0.0, 0.0, 0.0, 0.0, 0.0, 0.0, 0.0, 0.0, 0.0, 1.7401441194694812E9, 0.0, 2025-02-21 10:21:59.469
49.0, 129437.45457380469, 129339.75509879054, 129533.16474356232, 129506.47676068268, 129498.34072570095, 129484.32618192748, 129490.00352501911, 129473.57499284447, 0.052000000000000005, 0.9380000000000001, 0.34800000000000003, 192.0, 0.0, 0.0, 0.0, 0.0, 0.0, 0.0, 0.0, 0.0, 0.0, 1.740144119469507E9, 0.0, 2025-02-21 10:21:59.469
50.0, 129403.05523908797, 129305.31106058492, 129498.81011233451, 129472.05507422151, 129463.89668749532, 129449.97155069967, 129455.62654204686, 129439.10860289438, 0.052000000000000005, 0.9380000000000001, 0.34800000000000003, 192.0, 0.0, 0.0, 0.0, 0.0, 0.0, 0.0, 0.0, 0.0, 0.0, 1.740144119469539E9, 0.0, 2025-02-21 10:21:59.469
51.0, 129368.34297994888, 129270.55409795692, 129464.07550145096, 129437.27575984906, 129429.09502137841, 129415.25929156058, 129420.82487592995, 129404.32928852193, 0.052000000000000005, 0.9380000000000001, 0.34800000000000003, 192.0, 0.0, 0.0, 0.0, 0.0, 0.0, 0.0, 0.0, 0.0, 0.0, 1.740144119469567E9, 0.0, 2025-02-21 10:21:59.469
52.0, 129329.96503471912, 129232.3549666828, 129425.67520447675, 129398.92016636375, 129390.87353835984, 129376.90369807527, 129382.42457895573, 129365.99604678107, 0.034, 0.932, 0.356, 192.0, 1.0, 16.0, 29.0, 32.0, 11.0, 32.0, 0.0, 0.0, 0.0, 1.7401441194695933E9, 0.0, 2025-02-21 10:21:59.469
53.0, 129295.0739616244, 129197.37448661024, 129390.71707614865, 129364.00674152456, 129355.9824652651, 129341.96792149163, 129347.53350586099, 129331.08262194188, 0.034, 0.932, 0.356, 192.0, 0.0, 0.0, 0.0, 0.0, 0.0, 0.0, 0.0, 0.0, 0.0, 1.7401441194696198E9, 0.0, 2025-02-21 10:21:59.469
54.0, 129262.35100774182, 129164.67388447213, 129357.94941877716, 129331.28378764198, 129323.21480789362, 129309.2673193535, 129314.85525546734, 129298.31496457041, 0.034, 0.932, 0.356, 192.0, 0.0, 0.0, 0.0, 0.0, 0.0, 0.0, 0.0, 0.0, 0.0, 1.7401441194696453E9, 0.0, 2025-02-21 10:21:59.469
55.0, 129228.82339105886, 129131.07921255581, 129324.39945034975, 129297.66676398121, 129289.70954295511, 129275.67264743718, 129281.17117657319, 129264.72029265408, 0.034, 0.932, 0.356, 192.0, 0.0, 0.0, 0.0, 0.0, 0.0, 0.0, 0.0, 0.0, 0.0, 1.7401441194696703E9, 0.0, 2025-02-21 10:21:59.469
56.0, 129193.28411737492, 129095.53993887187, 129288.83782492136, 129262.261600764, 129254.23732450455, 129240.20042898662, 129245.67660637815, 129229.2033707146, 0.034, 0.932, 0.356, 192.0, 0.0, 0.0, 0.0, 0.0, 0.0, 0.0, 0.0, 0.0, 0.0, 1.7401441194696953E9, 0.0, 2025-02-21 10:21:59.469
57.0, 129154.28032330041, 129056.5137930529, 129249.78932735794, 129223.16839971166, 129215.21117868558, 129201.08487618982, 129206.62810881474, 129190.244280129, 0.034, 0.932, 0.356, 192.0, 0.0, 0.0, 0.0, 0.0, 0.0, 0.0, 0.0, 0.0, 0.0, 1.7401441194697204E9, 0.0, 2025-02-21 10:21:59.469
58.0, 129120.95387231755, 129023.09793509221, 129216.48522811953, 129189.81959698435, 129181.81767246935, 129167.80312869587, 129173.25695434297, 129156.96253263505, 0.034, 0.932, 0.356, 192.0, 0.0, 0.0, 0.0, 0.0, 0.0, 0.0, 0.0, 0.0, 0.0, 1.7401441194697456E9, 0.0, 2025-02-21 10:21:59.469
59.0, 129087.94034575706, 128990.196167254, 129183.5387567924, 129156.85077391277, 129148.84884939776, 129134.85665736874, 129140.26577952693, 129124.01606130792, 0.034, 0.932, 0.356, 192.0, 0.0, 0.0, 0.0, 0.0, 0.0, 0.0, 0.0, 0.0, 0.0, 1.7401441194697704E9, 0.0, 2025-02-21 10:21:59.469
60.0, 129049.87532494967, 128952.2876086578, 129145.33962551829, 129118.91986357211, 129110.85088382375, 129096.88104353918, 129102.24546220845, 129085.973392245, 0.034, 0.932, 0.356, 192.0, 0.0, 0.0, 0.0, 0.0, 0.0, 0.0, 0.0, 0.0, 0.0, 1.7401441194697957E9, 0.0, 2025-02-21 10:21:59.469
61.0, 129012.61496694267, 128914.9825471619, 129108.01221227793, 129081.50304335394, 129073.65758105012, 129059.55363029882, 129064.94040071254, 129048.62362726017, 0.034, 0.932, 0.356, 192.0, 0.0, 0.0, 0.0, 0.0, 0.0, 0.0, 0.0, 0.0, 0.0, 1.7401441194698205E9, 0.0, 2025-02-21 10:21:59.469
62.0, 128978.55090839279, 128880.82908163418, 129073.92580198358, 129047.32722608176, 129039.4594120335, 129025.51192349338, 129030.80928692929, 129014.51486522137, 0.042, 0.928, 0.35000000000000003, 192.0, 1.0, 80.0, 29.0, 0.0, 10.0, 240.0, 0.0, 0.0, 0.0, 1.7401441194698448E9, 0.0, 2025-02-21 10:21:59.469
63.0, 128944.55390507626, 128846.7650230843, 129039.88409517815, 129013.21846404296, 129005.23889127243, 128991.42551319904, 128996.72287663494, 128980.42845492704, 0.042, 0.928, 0.35000000000000003, 192.0, 0.0, 0.0, 0.0, 0.0, 0.0, 0.0, 0.0, 0.0, 0.0, 1.7401441194698708E9, 0.0, 2025-02-21 10:21:59.469
64.0, 128905.170131346, 128807.31419412067, 129000.41091447008, 128973.83469031271, 128965.83276579772, 128951.86292551315, 128957.24969592688, 128940.97762596341, 0.042, 0.928, 0.35000000000000003, 192.0, 0.0, 0.0, 0.0, 0.0, 0.0, 0.0, 0.0, 0.0, 0.0, 1.7401441194699168E9, 0.0, 2025-02-21 10:21:59.469
65.0, 128867.17216577199, 128769.5397459912, 128962.54705936278, 128935.90377997205, 128927.99126243488, 128914.08847738367, 128919.34113733067, 128903.13612260058, 0.042, 0.928, 0.35000000000000003, 192.0, 0.0, 0.0, 0.0, 0.0, 0.0, 0.0, 0.0, 0.0, 0.0, 1.74014411946995E9, 0.0, 2025-02-21 10:21:59.469
66.0, 128834.1586392115, 128736.50386768626, 128929.44412582448, 128902.7784946893, 128894.93303238548, 128881.00789558982, 128886.32761077018, 128870.10024429564, 0.042, 0.928, 0.35000000000000003, 192.0, 0.0, 0.0, 0.0, 0.0, 0.0, 0.0, 0.0, 0.0, 0.0, 1.7401441194699757E9, 0.0, 2025-02-21 10:21:59.469
67.0, 128800.60867078409, 128702.9762510033, 128895.8718056526, 128869.20617451743, 128861.38306395807, 128847.50263065132, 128852.75529059832, 128836.59497935713, 0.042, 0.928, 0.35000000000000003, 192.0, 0.0, 0.0, 0.0, 0.0, 0.0, 0.0, 0.0, 0.0, 0.0, 1.7401441194700012E9, 0.0, 2025-02-21 10:21:59.470
68.0, 128765.38232152253, 128667.68284650837, 128860.64545639104, 128834.02452874478, 128826.1567146965, 128812.29863313421, 128817.55129308121, 128801.3462783511, 0.042, 0.928, 0.35000000000000003, 192.0, 0.0, 0.0, 0.0, 0.0, 0.0, 0.0, 0.0, 0.0, 0.0, 1.7401441194700265E9, 0.0, 2025-02-21 10:21:59.470
69.0, 128729.01603329374, 128631.45066874631, 128824.27916816226, 128797.76999923825, 128789.87983344554, 128775.97704839434, 128781.27441183025, 128765.04704535569, 0.042, 0.928, 0.35000000000000003, 192.0, 0.0, 0.0, 0.0, 0.0, 0.0, 0.0, 0.0, 0.0, 0.0, 1.7401441194701145E9, 0.0, 2025-02-21 10:21:59.470
70.0, 128692.15800668694, 128594.52558690615, 128787.37643806654, 128760.80021390918, 128752.97710334983, 128739.05196655417, 128744.30462650117, 128728.09961177107, 0.042, 0.928, 0.35000000000000003, 192.0, 0.0, 0.0, 0.0, 0.0, 0.0, 0.0, 0.0, 0.0, 0.0, 1.740144119470154E9, 0.0, 2025-02-21 10:21:59.470
71.0, 128658.00454115923, 128560.32741788954, 128753.24532428329, 128726.60204489257, 128718.75658258876, 128704.78674230419, 128710.128809229, 128693.87909100999, 0.042, 0.928, 0.35000000000000003, 192.0, 0.0, 0.0, 0.0, 0.0, 0.0, 0.0, 0.0, 0.0, 0.0, 1.7401441194702103E9, 0.0, 2025-02-21 10:21:59.470
72.0, 128621.10181106352, 128523.44703953828, 128716.29789069867, 128689.72166654131, 128681.76444551522, 128667.90636395293, 128673.15902389992, 128656.93165742538, 0.05, 0.93, 0.35000000000000003, 192.0, 1.0, 144.0, 29.0, 16.0, 10.0, 240.0, 0.0, 0.0, 0.0, 1.7401441194702456E9, 0.0, 2025-02-21 10:21:59.470
73.0, 128582.16507222237, 128484.55500418604, 128677.29409662416, 128650.69552072234, 128642.85005841852, 128628.92492162288, 128634.22228505879, 128618.03962207313, 0.05, 0.93, 0.35000000000000003, 192.0, 0.0, 0.0, 0.0, 0.0, 0.0, 0.0, 0.0, 0.0, 0.0, 1.740144119470297E9, 0.0, 2025-02-21 10:21:59.470
74.0, 128545.23999038221, 128447.69697757924, 128640.50312525072, 128613.79279062663, 128606.01438355618, 128591.9998397827, 128597.2524997297, 128581.20394721079, 0.05, 0.93, 0.35000000000000003, 192.0, 0.0, 0.0, 0.0, 0.0, 0.0, 0.0, 0.0, 0.0, 0.0, 1.7401441194703336E9, 0.0, 2025-02-21 10:21:59.470
75.0, 128511.5335597436, 128414.01289868509, 128606.79669461212, 128579.97460126576, 128572.28560117312, 128558.2934091441, 128563.50136560219, 128547.40810959437, 0.05, 0.93, 0.35000000000000003, 192.0, 0.0, 0.0, 0.0, 0.0, 0.0, 0.0, 0.0, 0.0, 0.0, 1.7401441194704173E9, 0.0, 2025-02-21 10:21:59.470
76.0, 128476.59778315996, 128379.01006686808, 128571.79386279511, 128545.08352817102, 128537.30512110057, 128523.42468779383, 128528.54323727409, 128512.42762952182, 0.05, 0.93, 0.35000000000000003, 192.0, 0.0, 0.0, 0.0, 0.0, 0.0, 0.0, 0.0, 0.0, 0.0, 1.7401441194704475E9, 0.0, 2025-02-21 10:21:59.470
77.0, 128437.50458210762, 128339.93921756021, 128532.63360650941, 128506.01267886313, 128498.18956830379, 128484.39854197485, 128489.4723879662, 128473.33442846948, 0.05, 0.93, 0.35000000000000003, 192.0, 0.0, 0.0, 0.0, 0.0, 0.0, 0.0, 0.0, 0.0, 0.0, 1.7401441194704742E9, 0.0, 2025-02-21 10:21:59.470
78.0, 128401.51827353457, 128303.84115026488, 128496.46848398072, 128469.93696331227, 128462.13620449736, 128448.30047467953, 128453.4190241598, 128437.28106466307, 0.05, 0.93, 0.35000000000000003, 192.0, 0.0, 0.0, 0.0, 0.0, 0.0, 0.0, 0.0, 0.0, 0.0, 1.7401441194705E9, 0.0, 2025-02-21 10:21:59.470
79.0, 128369.06354058547, 128271.34171382687, 128464.05845452052, 128437.54928559653, 128429.70382329272, 128415.91279696379, 128420.9642912107, 128404.89338694733, 0.05, 0.93, 0.35000000000000003, 192.0, 0.0, 0.0, 0.0, 0.0, 0.0, 0.0, 0.0, 0.0, 0.0, 1.7401441194705672E9, 0.0, 2025-02-21 10:21:59.470
80.0, 128336.02766228052, 128238.32818726638, 128430.97787272667, 128404.46870380268, 128396.60088975441, 128382.8992704033, 128387.83900592793, 128371.79045340902, 0.05, 0.93, 0.35000000000000003, 192.0, 0.0, 0.0, 0.0, 0.0, 0.0, 0.0, 0.0, 0.0, 0.0, 1.7401441194706025E9, 0.0, 2025-02-21 10:21:59.470
81.0, 128297.76147577305, 128200.17375948117, 128392.801093197, 128366.2025172952, 128358.49116545811, 128344.70013912919, 128349.6398746538, 128333.63602562381, 0.05, 0.93, 0.35000000000000003, 192.0, 0.0, 0.0, 0.0, 0.0, 0.0, 0.0, 0.0, 0.0, 0.0, 1.7401441194706287E9, 0.0, 2025-02-21 10:21:59.470
82.0, 128259.36117879882, 128161.79581425141, 128354.40079622279, 128327.6904615987, 128320.04616499499, 128306.29984215497, 128311.23957767959, 128295.25808039405, 0.05, 0.928, 0.354, 192.0, 1.0, 144.0, 29.0, 0.0, 11.0, 16.0, 0.0, 0.0, 0.0, 1.7401441194706585E9, 0.0, 2025-02-21 10:21:59.470
83.0, 128229.14162029525, 128131.6433109812, 128324.0918307414, 128297.42619960621, 128289.93836521369, 128276.12498714031, 128280.99766743157, 128265.10557712383, 0.05, 0.928, 0.354, 192.0, 0.0, 0.0, 0.0, 0.0, 0.0, 0.0, 0.0, 0.0, 0.0, 1.7401441194706876E9, 0.0, 2025-02-21 10:21:59.470
84.0, 128196.03868675695, 128098.54037744289, 128291.05595243645, 128264.3232660679, 128256.79072818646, 128243.08910883537, 128247.89473389325, 128231.98029184107, 0.05, 0.928, 0.354, 192.0, 0.0, 0.0, 0.0, 0.0, 0.0, 0.0, 0.0, 0.0, 0.0, 1.740144119470854E9, 0.0, 2025-02-21 10:21:59.470
85.0, 128156.92313396015, 128059.4248246461, 128251.73923393956, 128225.07360280439, 128217.51871317849, 128203.77239033848, 128208.57801539637, 128192.7082768331, 0.05, 0.928, 0.354, 192.0, 0.0, 0.0, 0.0, 0.0, 0.0, 0.0, 0.0, 0.0, 0.0, 1.740144119470883E9, 0.0, 2025-02-21 10:21:59.470
86.0, 128120.73565968701, 128023.25970211742, 128215.55175966643, 128188.9531837646, 128181.39829413871, 128167.60726780978, 128172.41289286768, 128156.61020953777, 0.05, 0.928, 0.354, 192.0, 0.0, 0.0, 0.0, 0.0, 0.0, 0.0, 0.0, 0.0, 0.0, 1.74014411947091E9, 0.0, 2025-02-21 10:21:59.470
87.0, 128087.2303947485, 127989.70973369, 128181.97943949455, 128155.4032153372, 128147.80362222239, 128134.14670636019, 128138.84057269582, 128122.993185877, 0.05, 0.928, 0.354, 192.0, 0.0, 0.0, 0.0, 0.0, 0.0, 0.0, 0.0, 0.0, 0.0, 1.7401441194709392E9, 0.0, 2025-02-21 10:21:59.470
88.0, 128055.35680715524, 127957.9032013301, 128150.17290713465, 128123.52962774392, 128115.93003462911, 128102.29547051138, 128107.0340403359, 128091.07489479482, 0.05, 0.928, 0.354, 192.0, 0.0, 0.0, 0.0, 0.0, 0.0, 0.0, 0.0, 0.0, 0.0, 1.7401441194709651E9, 0.0, 2025-02-21 10:21:59.470
89.0, 128020.35397533822, 127922.81096253527, 128115.14772357319, 128088.59385116027, 128080.9272028121, 128067.29263869437, 128071.94180154108, 128056.04971123335, 0.05, 0.928, 0.354, 192.0, 0.0, 0.0, 0.0, 0.0, 0.0, 0.0, 0.0, 0.0, 0.0, 1.740144119470991E9, 0.0, 2025-02-21 10:21:59.470
90.0, 127982.80304465331, 127885.08121789471, 128077.44033067708, 128050.84175477526, 128043.26451340492, 128029.47348707599, 128034.30146387834, 128018.38702182616, 0.05, 0.928, 0.354, 192.0, 0.0, 0.0, 0.0, 0.0, 0.0, 0.0, 0.0, 0.0, 0.0, 1.7401441194710171E9, 0.0, 2025-02-21 10:21:59.471
91.0, 127945.60974187969, 127847.93261861, 128040.31408313682, 128013.64845200164, 128006.09356237574, 127992.32488779127, 127997.13051284917, 127981.23842254144, 0.05, 0.928, 0.354, 192.0, 0.0, 0.0, 0.0, 0.0, 0.0, 0.0, 0.0, 0.0, 0.0, 1.740144119471044E9, 0.0, 2025-02-21 10:21:59.471
92.0, 127912.17153217454, 127814.60616762712, 128006.87587343168, 127980.34435276323, 127972.74475964843, 127959.06549204177, 127963.73700663293, 127947.82256458075, 0.056, 0.926, 0.352, 192.0, 1.0, 192.0, 28.0, 240.0, 11.0, 0.0, 0.0, 0.0, 0.0, 1.740144119471071E9, 0.0, 2025-02-21 10:21:59.471
93.0, 127874.24062183389, 127776.65290554201, 127968.94496309102, 127942.36873893366, 127934.85855279668, 127921.17928519002, 127925.85079978118, 127909.84695075119, 0.056, 0.926, 0.352, 192.0, 0.0, 0.0, 0.0, 0.0, 0.0, 0.0, 0.0, 0.0, 0.0, 1.7401441194711008E9, 0.0, 2025-02-21 10:21:59.471
94.0, 127836.0191388153, 127738.4984777568, 127930.72348007244, 127904.191959404, 127896.59236628919, 127882.95780217146, 127887.65166850707, 127871.69252296598, 0.056, 0.926, 0.352, 192.0, 0.0, 0.0, 0.0, 0.0, 0.0, 0.0, 0.0, 0.0, 0.0, 1.7401441194711797E9, 0.0, 2025-02-21 10:21:59.471
95.0, 127801.88802503205, 127704.32266048464, 127896.54766280028, 127869.99379038738, 127862.39419727257, 127848.8266883882, 127853.45349949045, 127837.4720022049, 0.056, 0.926, 0.352, 192.0, 0.0, 0.0, 0.0, 0.0, 0.0, 0.0, 0.0, 0.0, 0.0, 1.7401441194712238E9, 0.0, 2025-02-21 10:21:59.471
96.0, 127768.8074432382, 127671.21972694634, 127863.51178449533, 127836.80144987124, 127829.31361547872, 127815.7237548499, 127820.32821420768, 127804.39142041105, 0.056, 0.926, 0.352, 192.0, 0.0, 0.0, 0.0, 0.0, 0.0, 0.0, 0.0, 0.0, 0.0, 1.7401441194712515E9, 0.0, 2025-02-21 10:21:59.471
97.0, 127731.61414046458, 127633.95936893934, 127826.29612997726, 127799.49638837534, 127792.05325747172, 127778.5081003318, 127783.04550445623, 127767.17576589296, 0.056, 0.926, 0.352, 192.0, 0.0, 0.0, 0.0, 0.0, 0.0, 0.0, 0.0, 0.0, 0.0, 1.740144119471282E9, 0.0, 2025-02-21 10:21:59.471
98.0, 127692.85621557907, 127595.2684992872, 127787.58290858066, 127760.73846348983, 127753.31768433067, 127739.79487893521, 127744.28757957072, 127728.44019275192, 0.056, 0.926, 0.352, 192.0, 0.0, 0.0, 0.0, 0.0, 0.0, 0.0, 0.0, 0.0, 0.0, 1.7401441194713187E9, 0.0, 2025-02-21 10:21:59.471
99.0, 127658.92626749592, 127561.45030992632, 127753.58590526413, 127726.83086715113, 127719.45479148088, 127705.77552387424, 127710.2905762542, 127694.57729990213, 0.056, 0.926, 0.352, 192.0, 0.0, 0.0, 0.0, 0.0, 0.0, 0.0, 0.0, 0.0, 0.0, 1.740144119471388E9, 0.0, 2025-02-21 10:21:59.471
100.0, 127626.13625837998, 127528.7497077882, 127720.7958961482, 127694.13026501302, 127686.77654108722, 127673.03021824721, 127677.5899741161, 127661.74258729728, 0.056, 0.926, 0.352, 192.0, 0.0, 0.0, 0.0, 0.0, 0.0, 0.0, 0.0, 0.0, 0.0, 1.7401441194714158E9, 0.0, 2025-02-21 10:21:59.471
101.0, 127590.82050214059, 127493.36689631545, 127685.36838118653, 127658.72510179582, 127651.46078484783, 127637.75916549674, 127642.20716264335, 127626.33742408008, 0.056, 0.926, 0.352, 192.0, 0.0, 0.0, 0.0, 0.0, 0.0, 0.0, 0.0, 0.0, 0.0, 1.740144119471442E9, 0.0, 2025-02-21 10:21:59.471
102.0, 127552.44255691083, 127454.87719236342, 127646.96808421232, 127620.25774958823, 127612.94872915135, 127599.33651677806, 127603.69510694685, 127587.95947885032, 0.048, 0.928, 0.352, 192.0, 1.0, 128.0, 29.0, 0.0, 11.0, 0.0, 0.0, 0.0, 0.0, 1.7401441194715085E9, 0.0, 2025-02-21 10:21:59.471
103.0, 127516.21037914878, 127418.75677332364, 127610.73590645027, 127584.07027531508, 127576.67184790038, 127563.14904250493, 127567.44057744034, 127551.81670806608, 0.048, 0.928, 0.352, 192.0, 0.0, 0.0, 0.0, 0.0, 0.0, 0.0, 0.0, 0.0, 0.0, 1.7401441194715571E9, 0.0, 2025-02-21 10:21:59.471
104.0, 127483.77799794413, 127386.12322641889, 127578.12471128997, 127551.59319062153, 127544.21711495127, 127530.6496060669, 127534.8517340245, 127519.22786465024, 0.048, 0.928, 0.352, 192.0, 0.0, 0.0, 0.0, 0.0, 0.0, 0.0, 0.0, 0.0, 0.0, 1.7401441194715853E9, 0.0, 2025-02-21 10:21:59.471
105.0, 127449.62453241642, 127352.03681612454, 127544.01594925117, 127517.50678032718, 127510.17540814585, 127496.4961405392, 127500.7429719857, 127485.1414543559, 0.048, 0.928, 0.352, 192.0, 0.0, 0.0, 0.0, 0.0, 0.0, 0.0, 0.0, 0.0, 0.0, 1.7401441194716125E9, 0.0, 2025-02-21 10:21:59.471
106.0, 127411.85008428694, 127314.39647846181, 127506.26385286616, 127479.66527696436, 127472.37860827192, 127458.72169240973, 127463.05793083405, 127447.43406145979, 0.048, 0.928, 0.352, 192.0, 0.0, 0.0, 0.0, 0.0, 0.0, 0.0, 0.0, 0.0, 0.0, 1.7401441194716551E9, 0.0, 2025-02-21 10:21:59.471
107.0, 127375.48379605816, 127278.00783848857, 127469.89756463737, 127443.29898873557, 127435.98996829867, 127422.44481115877, 127426.75869783864, 127411.11247671992, 0.048, 0.928, 0.352, 192.0, 0.0, 0.0, 0.0, 0.0, 0.0, 0.0, 0.0, 0.0, 0.0, 1.7401441194716828E9, 0.0, 2025-02-21 10:21:59.471
108.0, 127343.78902242053, 127246.26836136203, 127438.22514274421, 127411.58186335348, 127404.29519466106, 127390.72768577668, 127395.04157245655, 127379.28359261557, 0.048, 0.928, 0.352, 192.0, 0.0, 0.0, 0.0, 0.0, 0.0, 0.0, 0.0, 0.0, 0.0, 1.740144119471709E9, 0.0, 2025-02-21 10:21:59.471
0.0, 0.0, 0.0, 0.0, 0.0, 0.0, 0.0, 0.0, 0.0, 0.044, 0.928, 0.356, 192.0, 1.0, 96.0, 29.0, 0.0, 11.0, 32.0, 0.0, 0.0, 0.0, 1.7401441195539255E9, 0.0, 2025-02-21 10:21:59.553
1.0, 95432.04700136745, 95338.77317175546, 95507.68530460421, 95478.96331297915, 95485.71353980465, 95478.71744379014, 95462.91476046023, 95458.51146680253, 0.044, 0.928, 0.356, 192.0, 0.0, 0.0, 0.0, 0.0, 0.0, 0.0, 0.0, 0.0, 0.0, 1.740144120032245E9, 0.0, 2025-02-21 10:22:00.032
2.0, 95390.80803284742, 95297.51185149097, 95466.44633608418, 95437.76904794801, 95444.45221954015, 95437.45612352564, 95421.6757919402, 95417.2277947936, 0.044, 0.928, 0.356, 192.0, 0.0, 0.0, 0.0, 0.0, 0.0, 0.0, 0.0, 0.0, 0.0, 1.740144120032339E9, 0.0, 2025-02-21 10:22:00.032
3.0, 95351.62542481726, 95258.26218822744, 95427.10726584283, 95398.40762596222, 95405.04609406544, 95398.20646026212, 95382.40377693222, 95377.97813153006, 0.044, 0.928, 0.356, 192.0, 0.0, 0.0, 0.0, 0.0, 0.0, 0.0, 0.0, 0.0, 0.0, 1.7401441200323668E9, 0.0, 2025-02-21 10:22:00.032
4.0, 95314.34271506581, 95220.86771975372, 95389.73514911356, 95360.96845399958, 95367.71868082508, 95360.85669527731, 95345.0093084585, 95340.6060148008, 0.044, 0.928, 0.356, 192.0, 0.0, 0.0, 0.0, 0.0, 0.0, 0.0, 0.0, 0.0, 0.0, 1.7401441200323915E9, 0.0, 2025-02-21 10:22:00.032
5.0, 95275.16010703566, 95181.64040823466, 95350.44078236113, 95321.74114248052, 95328.51372105048, 95321.74114248052, 95305.6925899616, 95301.42340677064, 0.044, 0.928, 0.356, 192.0, 0.0, 0.0, 0.0, 0.0, 0.0, 0.0, 0.0, 0.0, 0.0, 1.7401441200324166E9, 0.0, 2025-02-21 10:22:00.032
6.0, 95234.97167050501, 95141.51902693737, 95310.36410455276, 95281.59740943878, 95288.3923397532, 95281.55270594987, 95265.54885691988, 95261.25732198445, 0.044, 0.928, 0.356, 192.0, 0.0, 0.0, 0.0, 0.0, 0.0, 0.0, 0.0, 0.0, 0.0, 1.7401441200324416E9, 0.0, 2025-02-21 10:22:00.032
7.0, 95195.78906247485, 95102.33641890722, 95271.02503431143, 95242.25833919745, 95249.2320834675, 95242.32539443081, 95226.2768419119, 95222.00765872093, 0.044, 0.928, 0.356, 192.0, 0.0, 0.0, 0.0, 0.0, 0.0, 0.0, 0.0, 0.0, 0.0, 1.7401441200324664E9, 0.0, 2025-02-21 10:22:00.032
8.0, 95160.5627132133, 95067.06536615675, 95235.75398156095, 95206.98728644697, 95213.98338246148, 95207.14374865816, 95190.96108567252, 95186.71425422601, 0.054, 0.934, 0.356, 192.0, 1.0, 176.0, 29.0, 48.0, 11.0, 32.0, 0.0, 0.0, 0.0, 1.740144120032491E9, 0.0, 2025-02-21 10:22:00.032
9.0, 95120.1507592381, 95026.74281915938, 95195.47613805249, 95166.7094429385, 95173.63848371965, 95166.7094429385, 95150.68324216406, 95146.41405897308, 0.054, 0.934, 0.356, 192.0, 0.0, 0.0, 0.0, 0.0, 0.0, 0.0, 0.0, 0.0, 0.0, 1.740144120032518E9, 0.0, 2025-02-21 10:22:00.032
10.0, 95079.93997096301, 94986.50967913982, 95155.17594279957, 95126.36454419668, 95133.33828846674, 95126.54335815232, 95110.4501021445, 95106.18091895354, 0.054, 0.934, 0.356, 192.0, 0.0, 0.0, 0.0, 0.0, 0.0, 0.0, 0.0, 0.0, 0.0, 1.740144120032543E9, 0.0, 2025-02-21 10:22:00.032
11.0, 95038.29867104276, 94944.75662049731, 95113.35582892368, 95084.65618904307, 95091.60758156868, 95084.79029950981, 95068.62998826861, 95064.36080507765, 0.054, 0.934, 0.356, 192.0, 0.0, 0.0, 0.0, 0.0, 0.0, 0.0, 0.0, 0.0, 0.0, 1.740144120032578E9, 0.0, 2025-02-21 10:22:00.032
12.0, 95002.08884502517, 94908.65855320198, 95077.25776162837, 95048.46871476993, 95055.5318660178, 95048.62517698112, 95032.42016225102, 95028.1286273156, 0.054, 0.934, 0.356, 192.0, 0.0, 0.0, 0.0, 0.0, 0.0, 0.0, 0.0, 0.0, 0.0, 1.7401441200326025E9, 0.0, 2025-02-21 10:22:00.032
13.0, 94964.20263817342, 94870.83940158361, 95039.37155477662, 95010.56015617373, 95017.69036265498, 95010.80602536273, 94994.55630714374, 94990.33182744168, 0.054, 0.934, 0.356, 192.0, 0.0, 0.0, 0.0, 0.0, 0.0, 0.0, 0.0, 0.0, 0.0, 1.7401441200326276E9, 0.0, 2025-02-21 10:22:00.032
14.0, 94924.41653304298, 94830.96388947534, 94999.36193220162, 94970.6175888321, 94977.77014705779, 94970.90816151001, 94954.6137398021, 94950.45631533342, 0.054, 0.934, 0.356, 192.0, 0.0, 0.0, 0.0, 0.0, 0.0, 0.0, 0.0, 0.0, 0.0, 1.740144120032652E9, 0.0, 2025-02-21 10:22:00.032
15.0, 94885.7927186242, 94792.34007505656, 94960.73811778285, 94931.97142266887, 94939.14633263902, 94932.3066988357, 94915.98992538333, 94911.83250091464, 0.054, 0.934, 0.356, 192.0, 0.0, 0.0, 0.0, 0.0, 0.0, 0.0, 0.0, 0.0, 0.0, 1.7401441200326762E9, 0.0, 2025-02-21 10:22:00.032
16.0, 94849.11350597304, 94755.59380717204, 94924.08125687615, 94895.31456176216, 94902.46711998786, 94895.53807920672, 94879.28836098772, 94875.10858477457, 0.054, 0.934, 0.356, 192.0, 0.0, 0.0, 0.0, 0.0, 0.0, 0.0, 0.0, 0.0, 0.0, 1.740144120032722E9, 0.0, 2025-02-21 10:22:00.032
17.0, 94810.19911887636, 94716.54530960863, 94885.12216629054, 94856.24371245429, 94863.35156719107, 94856.46722989884, 94840.28456691321, 94836.12714244451, 0.054, 0.934, 0.356, 192.0, 0.0, 0.0, 0.0, 0.0, 0.0, 0.0, 0.0, 0.0, 0.0, 1.7401441200327468E9, 0.0, 2025-02-21 10:22:00.032
18.0, 94768.80368814513, 94675.23928585522, 94843.63732858149, 94814.7812264897, 94821.88908122649, 94815.07179916762, 94798.88913618197, 94794.68700822437, 0.048, 0.932, 0.36, 192.0, 1.0, 128.0, 29.0, 32.0, 11.0, 64.0, 0.0, 0.0, 0.0, 1.7401441200327783E9, 0.0, 2025-02-21 10:22:00.032
19.0, 94727.05062950261, 94633.53093070161, 94801.9289734279, 94773.11757482501, 94780.2701330507, 94773.36344401402, 94757.15842928391, 94752.97865307078, 0.048, 0.932, 0.36, 192.0, 0.0, 0.0, 0.0, 0.0, 0.0, 0.0, 0.0, 0.0, 0.0, 1.7401441200328045E9, 0.0, 2025-02-21 10:22:00.032
20.0, 94688.80679473959, 94595.3317994275, 94763.70749040932, 94734.87374006197, 94742.07100177658, 94735.1643127399, 94718.89224277643, 94714.77952179665, 0.048, 0.932, 0.36, 192.0, 0.0, 0.0, 0.0, 0.0, 0.0, 0.0, 0.0, 0.0, 0.0, 1.7401441200328388E9, 0.0, 2025-02-21 10:22:00.032
21.0, 94650.76412567665, 94557.2220751312, 94725.59776611302, 94696.78636751013, 94703.96127748028, 94697.21105065478, 94680.80487022459, 94676.69214924482, 0.048, 0.932, 0.36, 192.0, 0.0, 0.0, 0.0, 0.0, 0.0, 0.0, 0.0, 0.0, 0.0, 1.7401441200328643E9, 0.0, 2025-02-21 10:22:00.032
22.0, 94611.7826833466, 94518.3076880345, 94686.63867552741, 94657.84962866899, 94665.06924212805, 94658.31901530255, 94641.84577963898, 94637.71070691476, 0.048, 0.932, 0.36, 192.0, 0.0, 0.0, 0.0, 0.0, 0.0, 0.0, 0.0, 0.0, 0.0, 1.7401441200328891E9, 0.0, 2025-02-21 10:22:00.032
23.0, 94572.08598519397, 94478.7003968597, 94646.87492214143, 94618.15293051636, 94625.41724746434, 94618.71172412774, 94602.21613671973, 94598.12576748441, 0.048, 0.932, 0.36, 192.0, 0.0, 0.0, 0.0, 0.0, 0.0, 0.0, 0.0, 0.0, 0.0, 1.740144120032914E9, 0.0, 2025-02-21 10:22:00.032
24.0, 94536.05497313202, 94442.64703305329, 94610.79920659057, 94582.14427019886, 94589.31918016901, 94582.68071206579, 94566.25217989113, 94562.13945891136, 0.048, 0.932, 0.36, 192.0, 0.0, 0.0, 0.0, 0.0, 0.0, 0.0, 0.0, 0.0, 0.0, 1.7401441200329385E9, 0.0, 2025-02-21 10:22:00.032
25.0, 94496.87236510187, 94403.39736978977, 94571.54954332704, 94542.80519995753, 94550.09186864995, 94543.38634531335, 94526.89075790535, 94522.82274041447, 0.048, 0.932, 0.36, 192.0, 0.0, 0.0, 0.0, 0.0, 0.0, 0.0, 0.0, 0.0, 0.0, 1.7401441200329635E9, 0.0, 2025-02-21 10:22:00.032
26.0, 94455.76750704856, 94362.33721522537, 94530.5117405071, 94501.72269364867, 94508.89760361883, 94502.23678377114, 94485.80825159649, 94481.74023410561, 0.048, 0.932, 0.36, 192.0, 0.0, 0.0, 0.0, 0.0, 0.0, 0.0, 0.0, 0.0, 0.0, 1.740144120032988E9, 0.0, 2025-02-21 10:22:00.032
27.0, 94415.17673911771, 94321.76879903898, 94489.92097257626, 94461.10957397337, 94468.3962426658, 94461.66836758476, 94445.26218715456, 94441.14946617479, 0.048, 0.932, 0.36, 192.0, 0.0, 0.0, 0.0, 0.0, 0.0, 0.0, 0.0, 0.0, 0.0, 1.7401441200330124E9, 0.0, 2025-02-21 10:22:00.033
28.0, 94376.41881423221, 94283.07792938685, 94451.16304769076, 94422.32929734341, 94429.68302126921, 94422.91044269926, 94406.4819105246, 94402.34683780037, 0.052000000000000005, 0.932, 0.35000000000000003, 192.0, 1.0, 160.0, 29.0, 32.0, 10.0, 240.0, 0.0, 0.0, 0.0, 1.7401441200330367E9, 0.0, 2025-02-21 10:22:00.033
29.0, 94339.5160841365, 94246.1975510356, 94414.21561410614, 94385.40421550325, 94392.71323594013, 94386.030064348, 94369.46742170662, 94365.46645944912, 0.052000000000000005, 0.932, 0.35000000000000003, 192.0, 0.0, 0.0, 0.0, 0.0, 0.0, 0.0, 0.0, 0.0, 0.0, 1.7401441200330632E9, 0.0, 2025-02-21 10:22:00.033
30.0, 94299.99819993952, 94206.65731509415, 94374.74243339806, 94345.93103479517, 94353.28475872097, 94346.6239388733, 94329.94953750963, 94326.03798222996, 0.052000000000000005, 0.932, 0.35000000000000003, 192.0, 0.0, 0.0, 0.0, 0.0, 0.0, 0.0, 0.0, 0.0, 0.0, 1.7401441200330873E9, 0.0, 2025-02-21 10:22:00.033
31.0, 94260.61442620927, 94167.25118961945, 94335.24690094554, 94306.43550234265, 94313.87863324626, 94307.19546165413, 94290.56576377938, 94286.58715326633, 0.052000000000000005, 0.932, 0.35000000000000003, 192.0, 0.0, 0.0, 0.0, 0.0, 0.0, 0.0, 0.0, 0.0, 0.0, 1.7401441200331113E9, 0.0, 2025-02-21 10:22:00.033
32.0, 94223.28701296891, 94130.0131833569, 94297.96419119409, 94269.21984782456, 94276.5512200059, 94269.8456966693, 94253.28305402792, 94249.32679525935, 0.052000000000000005, 0.932, 0.35000000000000003, 192.0, 0.0, 0.0, 0.0, 0.0, 0.0, 0.0, 0.0, 0.0, 0.0, 1.7401441200331488E9, 0.0, 2025-02-21 10:22:00.033
33.0, 94186.49604159547, 94093.1104532612, 94261.19557156511, 94232.40652470668, 94239.71554514355, 94233.01002180697, 94216.46973091003, 94212.491120397, 0.052000000000000005, 0.932, 0.35000000000000003, 192.0, 0.0, 0.0, 0.0, 0.0, 0.0, 0.0, 0.0, 0.0, 0.0, 1.7401441200331805E9, 0.0, 2025-02-21 10:22:00.033
34.0, 94146.73228820947, 94053.36905161967, 94221.34241120129, 94192.57571608732, 94199.9294400131, 94193.17921318761, 94176.7283292685, 94172.57090479981, 0.052000000000000005, 0.932, 0.35000000000000003, 192.0, 0.0, 0.0, 0.0, 0.0, 0.0, 0.0, 0.0, 0.0, 0.0, 1.7401441200332048E9, 0.0, 2025-02-21 10:22:00.033
35.0, 94103.28049698836, 94009.939612143, 94177.75650951345, 94149.03451788837, 94156.45529704753, 94149.68271847758, 94133.18713106956, 94129.1191135787, 0.052000000000000005, 0.932, 0.35000000000000003, 192.0, 0.0, 0.0, 0.0, 0.0, 0.0, 0.0, 0.0, 0.0, 0.0, 1.740144120033229E9, 0.0, 2025-02-21 10:22:00.033
36.0, 94066.22130468146, 93972.92512332501, 94140.69731720655, 94111.99767732593, 94119.35140125173, 94112.64587791513, 94096.12793876267, 94092.14932824962, 0.052000000000000005, 0.932, 0.35000000000000003, 192.0, 0.0, 0.0, 0.0, 0.0, 0.0, 0.0, 0.0, 0.0, 0.0, 1.7401441200332537E9, 0.0, 2025-02-21 10:22:00.033
37.0, 94029.87736819714, 93936.58118684069, 94104.44278770004, 94075.72079607497, 94083.02981651186, 94076.39134840862, 94059.80635402279, 94055.8500952542, 0.052000000000000005, 0.932, 0.35000000000000003, 192.0, 0.0, 0.0, 0.0, 0.0, 0.0, 0.0, 0.0, 0.0, 0.0, 1.740144120033281E9, 0.0, 2025-02-21 10:22:00.033
38.0, 93991.52177471183, 93898.27029684429, 94066.10954595919, 94037.27579561184, 94044.6518712821, 94038.05810666777, 94021.36135355967, 94017.40509479107, 0.044, 0.928, 0.34600000000000003, 192.0, 1.0, 96.0, 29.0, 0.0, 10.0, 208.0, 0.0, 0.0, 0.0, 1.7401441200333054E9, 0.0, 2025-02-21 10:22:00.033
39.0, 93950.84159980317, 93857.61247368008, 94025.31761232825, 93996.4838619809, 94003.94934462897, 93997.3332282702, 93980.54706818427, 93976.59080941568, 0.044, 0.928, 0.34600000000000003, 192.0, 0.0, 0.0, 0.0, 0.0, 0.0, 0.0, 0.0, 0.0, 0.0, 1.7401441200333312E9, 0.0, 2025-02-21 10:22:00.033
40.0, 93910.25083187233, 93817.02170574924, 93984.65978916404, 93955.8260388167, 93963.3809284426, 93956.74246033937, 93939.86689327561, 93936.0223932293, 0.044, 0.928, 0.34600000000000003, 192.0, 0.0, 0.0, 0.0, 0.0, 0.0, 0.0, 0.0, 0.0, 0.0, 1.740144120033356E9, 0.0, 2025-02-21 10:22:00.033
41.0, 93871.53761047575, 93778.26378086374, 93945.924216023, 93916.97870695338, 93924.667707046, 93918.05159068723, 93901.13132013456, 93897.28682008825, 0.044, 0.928, 0.34600000000000003, 192.0, 0.0, 0.0, 0.0, 0.0, 0.0, 0.0, 0.0, 0.0, 0.0, 1.74014412003338E9, 0.0, 2025-02-21 10:22:00.033
42.0, 93834.38901119102, 93741.18223681238, 93908.8203202272, 93879.91951464648, 93887.51910776128, 93880.88063965806, 93863.98272084985, 93860.22762778135, 0.044, 0.928, 0.34600000000000003, 192.0, 0.0, 0.0, 0.0, 0.0, 0.0, 0.0, 0.0, 0.0, 0.0, 1.740144120033404E9, 0.0, 2025-02-21 10:22:00.033
43.0, 93793.57472581563, 93700.25619271472, 93867.91662787397, 93839.08287752663, 93846.61541540807, 93840.02165079376, 93823.12373198554, 93819.3462871726, 0.044, 0.928, 0.34600000000000003, 192.0, 0.0, 0.0, 0.0, 0.0, 0.0, 0.0, 0.0, 0.0, 0.0, 1.740144120033428E9, 0.0, 2025-02-21 10:22:00.033
44.0, 93752.87219916252, 93659.64307303943, 93827.21410122086, 93798.44740610689, 93805.95759224387, 93799.36382762955, 93782.46590882134, 93778.73316749731, 0.044, 0.928, 0.34600000000000003, 192.0, 0.0, 0.0, 0.0, 0.0, 0.0, 0.0, 0.0, 0.0, 0.0, 1.740144120033452E9, 0.0, 2025-02-21 10:22:00.033
45.0, 93716.19298651135, 93622.94150864381, 93790.51253682525, 93761.634082989, 93769.27837959271, 93762.6846149784, 93745.74199268127, 93742.0763065906, 0.044, 0.928, 0.34600000000000003, 192.0, 0.0, 0.0, 0.0, 0.0, 0.0, 0.0, 0.0, 0.0, 0.0, 1.740144120033476E9, 0.0, 2025-02-21 10:22:00.033
46.0, 93676.45158486982, 93583.17775525783, 93750.77113518372, 93721.84797785855, 93729.49227446226, 93722.87615810349, 93705.91118406192, 93702.2678497157, 0.044, 0.928, 0.34600000000000003, 192.0, 0.0, 0.0, 0.0, 0.0, 0.0, 0.0, 0.0, 0.0, 0.0, 1.7401441200335004E9, 0.0, 2025-02-21 10:22:00.033
47.0, 93635.3020233276, 93542.13995243788, 93709.62157364149, 93680.74311980524, 93688.32036117559, 93681.77130005018, 93664.73927077524, 93661.09593642902, 0.044, 0.928, 0.34600000000000003, 192.0, 0.0, 0.0, 0.0, 0.0, 0.0, 0.0, 0.0, 0.0, 0.0, 1.7401441200335245E9, 0.0, 2025-02-21 10:22:00.033
48.0, 93595.65002866388, 93502.44325428526, 93669.76841327768, 93641.09112514152, 93648.69071825633, 93642.11930538647, 93625.02022087816, 93621.42159002085, 0.042, 0.922, 0.34400000000000003, 192.0, 1.0, 80.0, 28.0, 208.0, 10.0, 192.0, 0.0, 0.0, 0.0, 1.7401441200335615E9, 0.0, 2025-02-21 10:22:00.033
49.0, 93557.94263576779, 93464.69115790023, 93632.19513084831, 93603.31667701206, 93610.96097361577, 93604.43426423482, 93587.3351797265, 93583.71419712475, 0.042, 0.922, 0.34400000000000003, 192.0, 0.0, 0.0, 0.0, 0.0, 0.0, 0.0, 0.0, 0.0, 0.0, 1.740144120033594E9, 0.0, 2025-02-21 10:22:00.033
50.0, 93520.34700159395, 93427.16257895977, 93594.53244144112, 93565.60928411596, 93573.36533944194, 93566.77157482762, 93549.69484206378, 93545.98445248419, 0.042, 0.922, 0.34400000000000003, 192.0, 0.0, 0.0, 0.0, 0.0, 0.0, 0.0, 0.0, 0.0, 0.0, 1.7401441200336187E9, 0.0, 2025-02-21 10:22:00.033
51.0, 93479.28684702955, 93386.10242439539, 93553.40523164335, 93524.5267778071, 93532.30518487755, 93525.7784754966, 93508.63468749938, 93504.94664966424, 0.042, 0.922, 0.34400000000000003, 192.0, 0.0, 0.0, 0.0, 0.0, 0.0, 0.0, 0.0, 0.0, 0.0, 1.7401441200336428E9, 0.0, 2025-02-21 10:22:00.033
52.0, 93438.15963723179, 93344.95286285316, 93512.27802184559, 93483.42191975379, 93491.13327159086, 93484.67361744329, 93467.46277421269, 93463.79708812202, 0.042, 0.922, 0.34400000000000003, 192.0, 0.0, 0.0, 0.0, 0.0, 0.0, 0.0, 0.0, 0.0, 0.0, 1.740144120033667E9, 0.0, 2025-02-21 10:22:00.033
53.0, 93400.25107863559, 93307.08900774588, 93474.4141667383, 93445.5580646465, 93453.26941648358, 93446.76505884709, 93429.62127084986, 93425.9555847592, 0.042, 0.922, 0.34400000000000003, 192.0, 0.0, 0.0, 0.0, 0.0, 0.0, 0.0, 0.0, 0.0, 0.0, 1.7401441200336914E9, 0.0, 2025-02-21 10:22:00.033
54.0, 93364.77886018502, 93271.68384452866, 93438.91959654327, 93410.01879096255, 93417.73014279964, 93411.20343341869, 93394.05964542147, 93390.48336630862, 0.042, 0.922, 0.34400000000000003, 192.0, 0.0, 0.0, 0.0, 0.0, 0.0, 0.0, 0.0, 0.0, 0.0, 1.7401441200337155E9, 0.0, 2025-02-21 10:22:00.033
55.0, 93322.95874630913, 93229.75197193051, 93397.01007568957, 93368.13162185332, 93375.84297369039, 93369.36096779835, 93352.17247631222, 93348.55149371046, 0.042, 0.922, 0.34400000000000003, 192.0, 0.0, 0.0, 0.0, 0.0, 0.0, 0.0, 0.0, 0.0, 0.0, 1.74014412003374E9, 0.0, 2025-02-21 10:22:00.033
56.0, 93282.72560628959, 93189.42942493313, 93356.77693567002, 93327.89848183376, 93335.67688890421, 93329.23958650108, 93311.89463280376, 93308.273650202, 0.042, 0.922, 0.34400000000000003, 192.0, 0.0, 0.0, 0.0, 0.0, 0.0, 0.0, 0.0, 0.0, 0.0, 1.7401441200337644E9, 0.0, 2025-02-21 10:22:00.033
57.0, 93245.5099517715, 93152.30317739287, 93319.60598464085, 93290.63812382676, 93298.48358613058, 93292.00158023853, 93274.70133003013, 93271.12505091728, 0.042, 0.922, 0.34400000000000003, 192.0, 0.0, 0.0, 0.0, 0.0, 0.0, 0.0, 0.0, 0.0, 0.0, 1.7401441200337887E9, 0.0, 2025-02-21 10:22:00.033
58.0, 93208.83073912034, 93115.62396474171, 93282.90442024522, 93253.9589111756, 93261.73731824606, 93255.23296060956, 93237.99976563452, 93234.46819001058, 0.05, 0.92, 0.34800000000000003, 192.0, 1.0, 144.0, 28.0, 192.0, 10.0, 224.0, 0.0, 0.0, 0.0, 1.7401441200338132E9, 0.0, 2025-02-21 10:22:00.033
59.0, 93168.12821246723, 93075.07790029979, 93242.26894882548, 93213.32343975586, 93221.12419857076, 93214.64219267872, 93197.2972389814, 93193.81036684637, 0.05, 0.92, 0.34800000000000003, 192.0, 0.0, 0.0, 0.0, 0.0, 0.0, 0.0, 0.0, 0.0, 0.0, 1.7401441200338476E9, 0.0, 2025-02-21 10:22:00.033
60.0, 93124.38584856818, 93031.33553640074, 93198.5489366709, 93169.62577934573, 93177.42653816064, 93170.92218052414, 93153.71133729356, 93150.04565120288, 0.05, 0.92, 0.34800000000000003, 192.0, 0.0, 0.0, 0.0, 0.0, 0.0, 0.0, 0.0, 0.0, 0.0, 1.740144120033872E9, 0.0, 2025-02-21 10:22:00.033
61.0, 93085.91849636061, 92992.82348070425, 93159.92512225213, 93131.13607539369, 93138.89213071969, 93132.41012482764, 93115.15457810815, 93111.5335955064, 0.05, 0.92, 0.34800000000000003, 192.0, 0.0, 0.0, 0.0, 0.0, 0.0, 0.0, 0.0, 0.0, 0.0, 1.7401441200338967E9, 0.0, 2025-02-21 10:22:00.033
62.0, 93049.50750464291, 92956.45719247547, 93123.51413053443, 93094.63567669818, 93102.48113900199, 93096.08854008777, 93078.65417941262, 93075.14495553315, 0.05, 0.92, 0.34800000000000003, 192.0, 0.0, 0.0, 0.0, 0.0, 0.0, 0.0, 0.0, 0.0, 0.0, 1.7401441200339212E9, 0.0, 2025-02-21 10:22:00.033
63.0, 93011.17426290206, 92918.12395073462, 93085.09148181576, 93056.19067623504, 93064.17024900559, 93057.75529834692, 93040.32093767179, 93036.72230681448, 0.05, 0.92, 0.34800000000000003, 192.0, 0.0, 0.0, 0.0, 0.0, 0.0, 0.0, 0.0, 0.0, 0.0, 1.740144120033959E9, 0.0, 2025-02-21 10:22:00.033
64.0, 92969.8458874042, 92876.70616825893, 93043.71840282899, 93014.72819027046, 93022.79717001882, 93016.24810889341, 92998.92550694055, 92995.28217259434, 0.05, 0.92, 0.34800000000000003, 192.0, 0.0, 0.0, 0.0, 0.0, 0.0, 0.0, 0.0, 0.0, 0.0, 1.7401441200339837E9, 0.0, 2025-02-21 10:22:00.033
65.0, 92930.41741018504, 92837.34474627314, 93004.31227735429, 92975.32206479575, 92983.32398931075, 92976.81963167425, 92959.47467797693, 92955.89839886408, 0.05, 0.92, 0.34800000000000003, 192.0, 0.0, 0.0, 0.0, 0.0, 0.0, 0.0, 0.0, 0.0, 0.0, 1.7401441200340147E9, 0.0, 2025-02-21 10:22:00.034
66.0, 92894.20758416744, 92801.29138246672, 92968.12480308114, 92939.2910527338, 92947.22592201542, 92940.85567484566, 92923.35425893716, 92919.93444203549, 0.05, 0.92, 0.34800000000000003, 192.0, 0.0, 0.0, 0.0, 0.0, 0.0, 0.0, 0.0, 0.0, 0.0, 1.7401441200340393E9, 0.0, 2025-02-21 10:22:00.034
67.0, 92857.50601977183, 92764.5004110933, 92931.35618345215, 92902.52243310481, 92910.45730238645, 92904.04235172777, 92886.63034279709, 92883.18817415097, 0.05, 0.92, 0.34800000000000003, 192.0, 0.0, 0.0, 0.0, 0.0, 0.0, 0.0, 0.0, 0.0, 0.0, 1.7401441200340633E9, 0.0, 2025-02-21 10:22:00.034
68.0, 92817.47404545237, 92724.37902979601, 92891.34656087715, 92862.42340355199, 92870.425328067, 92863.98802566386, 92846.57601673318, 92843.08914459815, 0.056, 0.918, 0.352, 192.0, 1.0, 192.0, 28.0, 176.0, 11.0, 0.0, 0.0, 0.0, 0.0, 1.7401441200340881E9, 0.0, 2025-02-21 10:22:00.034
69.0, 92777.93380951093, 92684.9282008324, 92851.89573191354, 92823.01727807728, 92831.01920259229, 92824.62660367807, 92807.08048428065, 92803.63831563454, 0.056, 0.918, 0.352, 192.0, 0.0, 0.0, 0.0, 0.0, 0.0, 0.0, 0.0, 0.0, 0.0, 1.740144120034114E9, 0.0, 2025-02-21 10:22:00.034
70.0, 92740.06995440365, 92647.17610444738, 92813.98717331733, 92785.10871948108, 92793.2000509739, 92786.78510031523, 92769.21662917336, 92765.8415157606, 0.056, 0.918, 0.352, 192.0, 0.0, 0.0, 0.0, 0.0, 0.0, 0.0, 0.0, 0.0, 0.0, 1.7401441200341384E9, 0.0, 2025-02-21 10:22:00.034
71.0, 92700.97675335131, 92607.94879292832, 92774.67045482046, 92745.83670447311, 92753.92803596593, 92747.49073356281, 92729.94461416539, 92726.59185249709, 0.056, 0.918, 0.352, 192.0, 0.0, 0.0, 0.0, 0.0, 0.0, 0.0, 0.0, 0.0, 0.0, 1.740144120034163E9, 0.0, 2025-02-21 10:22:00.034
72.0, 92660.34128193156, 92567.24626627521, 92733.9902799118, 92705.17888130891, 92713.24786105727, 92706.81055865415, 92689.26443925673, 92685.7775671217, 0.056, 0.918, 0.352, 192.0, 0.0, 0.0, 0.0, 0.0, 0.0, 0.0, 0.0, 0.0, 0.0, 1.7401441200341873E9, 0.0, 2025-02-21 10:22:00.034
73.0, 92621.02456343468, 92527.92954777832, 92694.71826490381, 92665.83981106756, 92673.88643907147, 92667.49384015726, 92649.85831378202, 92646.48320036927, 0.056, 0.918, 0.352, 192.0, 0.0, 0.0, 0.0, 0.0, 0.0, 0.0, 0.0, 0.0, 0.0, 1.7401441200342116E9, 0.0, 2025-02-21 10:22:00.034
74.0, 92583.29481879412, 92490.26685837113, 92656.9661685188, 92628.13241817146, 92636.13434268646, 92629.7640955167, 92611.99445867473, 92608.77580747317, 0.056, 0.918, 0.352, 192.0, 0.0, 0.0, 0.0, 0.0, 0.0, 0.0, 0.0, 0.0, 0.0, 1.740144120034236E9, 0.0, 2025-02-21 10:22:00.034
75.0, 92544.46983867524, 92451.53128523008, 92618.09648491103, 92589.3074380526, 92597.42112128987, 92591.02852237565, 92573.23653378923, 92570.01788258766, 0.056, 0.918, 0.352, 192.0, 0.0, 0.0, 0.0, 0.0, 0.0, 0.0, 0.0, 0.0, 0.0, 1.7401441200342603E9, 0.0, 2025-02-21 10:22:00.034
76.0, 92502.76148352165, 92409.86763356539, 92576.43283324633, 92547.59908289899, 92555.77982136964, 92549.36487071095, 92531.52817863562, 92528.30952743406, 0.056, 0.918, 0.352, 192.0, 0.0, 0.0, 0.0, 0.0, 0.0, 0.0, 0.0, 0.0, 0.0, 1.7401441200342848E9, 0.0, 2025-02-21 10:22:00.034
77.0, 92460.24846556765, 92367.33226386693, 92533.85276005897, 92505.06371320054, 92513.22209992673, 92506.91890799033, 92488.97045719271, 92485.84121296898, 0.056, 0.918, 0.352, 192.0, 0.0, 0.0, 0.0, 0.0, 0.0, 0.0, 0.0, 0.0, 0.0, 1.740144120034309E9, 0.0, 2025-02-21 10:22:00.034
78.0, 92422.18344476026, 92329.22253957063, 92495.74303576267, 92466.90928541533, 92475.02296865261, 92468.74212846067, 92450.90543638534, 92447.6644334393, 0.054, 0.916, 0.352, 192.0, 1.0, 176.0, 28.0, 160.0, 11.0, 0.0, 0.0, 0.0, 0.0, 1.7401441200343332E9, 0.0, 2025-02-21 10:22:00.034
79.0, 92384.14077569733, 92291.20222225216, 92457.6780149553, 92428.79956111903, 92436.95794784522, 92430.63240416437, 92412.81806383349, 92409.57706088747, 0.054, 0.916, 0.352, 192.0, 0.0, 0.0, 0.0, 0.0, 0.0, 0.0, 0.0, 0.0, 0.0, 1.740144120034373E9, 0.0, 2025-02-21 10:22:00.034
80.0, 92343.5947112554, 92250.54439908796, 92417.1095987689, 92388.14173795484, 92396.43423514775, 92390.08633972245, 92372.22729590264, 92369.12040342337, 0.054, 0.916, 0.352, 192.0, 0.0, 0.0, 0.0, 0.0, 0.0, 0.0, 0.0, 0.0, 0.0, 1.740144120034403E9, 0.0, 2025-02-21 10:22:00.034
81.0, 92303.60744042486, 92210.55712825741, 92377.055272705, 92348.15446712429, 92356.42461257275, 92350.0990688919, 92332.28472856102, 92329.06607735946, 0.054, 0.916, 0.352, 192.0, 0.0, 0.0, 0.0, 0.0, 0.0, 0.0, 0.0, 0.0, 0.0, 1.7401441200344276E9, 0.0, 2025-02-21 10:22:00.034
82.0, 92267.35291091834, 92174.34730223982, 92340.73368796513, 92311.89993761778, 92320.08067608842, 92313.8892428743, 92295.9854955656, 92292.7891961085, 0.054, 0.916, 0.352, 192.0, 0.0, 0.0, 0.0, 0.0, 0.0, 0.0, 0.0, 0.0, 0.0, 1.7401441200344517E9, 0.0, 2025-02-21 10:22:00.034
83.0, 92231.79128548996, 92138.80802855588, 92305.23911777009, 92276.40536742275, 92284.6308093823, 92278.34996919036, 92260.46857362612, 92257.24992242455, 0.054, 0.916, 0.352, 192.0, 0.0, 0.0, 0.0, 0.0, 0.0, 0.0, 0.0, 0.0, 0.0, 1.740144120034476E9, 0.0, 2025-02-21 10:22:00.034
84.0, 92191.46873849258, 92098.48548155851, 92264.82716379491, 92236.01576519202, 92244.28591064048, 92237.98271870408, 92220.01191616201, 92216.83796844936, 0.054, 0.916, 0.352, 192.0, 0.0, 0.0, 0.0, 0.0, 0.0, 0.0, 0.0, 0.0, 0.0, 1.7401441200345E9, 0.0, 2025-02-21 10:22:00.034
85.0, 92150.92267405066, 92058.0288240944, 92224.34815458635, 92195.49205249453, 92203.71749445409, 92197.45900600661, 92179.510555209, 92176.26955226298, 0.054, 0.916, 0.352, 192.0, 0.0, 0.0, 0.0, 0.0, 0.0, 0.0, 0.0, 0.0, 0.0, 1.740144120034525E9, 0.0, 2025-02-21 10:22:00.034
86.0, 92112.76824626545, 92019.80734107582, 92186.19372680112, 92157.29292122042, 92165.56306666888, 92159.34928171031, 92141.28907219043, 92138.15982796668, 0.054, 0.916, 0.352, 192.0, 0.0, 0.0, 0.0, 0.0, 0.0, 0.0, 0.0, 0.0, 0.0, 1.7401441200345492E9, 0.0, 2025-02-21 10:22:00.034
87.0, 92075.23966732499, 91982.36816911318, 92148.66514786067, 92119.83139751332, 92128.07919121733, 92121.91010974767, 92103.80519673887, 92100.7877112374, 0.054, 0.916, 0.352, 192.0, 0.0, 0.0, 0.0, 0.0, 0.0, 0.0, 0.0, 0.0, 0.0, 1.740144120034574E9, 0.0, 2025-02-21 10:22:00.034
88.0, 92038.33693722928, 91945.44308727302, 92111.71771427605, 92082.79455695087, 92091.0870541438, 92084.91797267413, 92066.85776315424, 92063.79557416387, 0.054, 0.92, 0.34800000000000003, 192.0, 1.0, 176.0, 28.0, 192.0, 10.0, 224.0, 0.0, 0.0, 0.0, 1.7401441200345984E9, 0.0, 2025-02-21 10:22:00.034
89.0, 91996.82974777577, 91903.91354607505, 92070.14346958918, 92041.15325703064, 92049.51280945692, 92043.43313496509, 92025.28351846737, 92022.24368122146, 0.054, 0.92, 0.34800000000000003, 192.0, 0.0, 0.0, 0.0, 0.0, 0.0, 0.0, 0.0, 0.0, 0.0, 1.7401441200346246E9, 0.0, 2025-02-21 10:22:00.034
90.0, 91956.82012520077, 91863.81451652224, 92030.08914352527, 92001.12128271119, 92009.45848339301, 92003.33410541226, 91985.18448891456, 91982.12229992417, 0.054, 0.92, 0.34800000000000003, 192.0, 0.0, 0.0, 0.0, 0.0, 0.0, 0.0, 0.0, 0.0, 0.0, 1.740144120034649E9, 0.0, 2025-02-21 10:22:00.034
91.0, 91919.49271196041, 91826.59886200415, 91992.71702679599, 91963.92797993755, 91972.26518061939, 91966.14080263863, 91947.96883439647, 91944.88429366164, 0.054, 0.92, 0.34800000000000003, 192.0, 0.0, 0.0, 0.0, 0.0, 0.0, 0.0, 0.0, 0.0, 0.0, 1.7401441200346751E9, 0.0, 2025-02-21 10:22:00.034
92.0, 91880.95830451946, 91788.17621328548, 91954.24967458841, 91925.30416551878, 91933.64136620062, 91927.56169170878, 91909.38972346661, 91906.37223796514, 0.054, 0.92, 0.34800000000000003, 192.0, 0.0, 0.0, 0.0, 0.0, 0.0, 0.0, 0.0, 0.0, 0.0, 1.7401441200346997E9, 0.0, 2025-02-21 10:22:00.034
93.0, 91837.30534759825, 91744.54560810872, 91910.61906941165, 91881.71826383093, 91890.10016800168, 91883.90873478756, 91865.69206305649, 91862.71928104393, 0.054, 0.92, 0.34800000000000003, 192.0, 0.0, 0.0, 0.0, 0.0, 0.0, 0.0, 0.0, 0.0, 0.0, 1.7401441200347235E9, 0.0, 2025-02-21 10:22:00.034
94.0, 91795.6193441891, 91702.70314248839, 91868.77660379131, 91839.8757982106, 91848.36946110362, 91842.11097265614, 91823.93900441397, 91820.87681542359, 0.054, 0.92, 0.34800000000000003, 192.0, 0.0, 0.0, 0.0, 0.0, 0.0, 0.0, 0.0, 0.0, 0.0, 1.740144120034748E9, 0.0, 2025-02-21 10:22:00.034
95.0, 91760.34829143863, 91667.32033101564, 91833.43849580748, 91804.56004197121, 91813.00900137532, 91806.8175681612, 91788.51148945231, 91785.49400395084, 0.054, 0.92, 0.34800000000000003, 192.0, 0.0, 0.0, 0.0, 0.0, 0.0, 0.0, 0.0, 0.0, 0.0, 1.7401441200347886E9, 0.0, 2025-02-21 10:22:00.034
96.0, 91722.90911947598, 91630.05997300864, 91796.04402733374, 91767.16557349749, 91775.63688464605, 91769.49015492084, 91751.16172446749, 91748.23364594384, 0.054, 0.92, 0.34800000000000003, 192.0, 0.0, 0.0, 0.0, 0.0, 0.0, 0.0, 0.0, 0.0, 0.0, 1.7401441200348191E9, 0.0, 2025-02-21 10:22:00.034
97.0, 91681.69250270039, 91588.8657079775, 91754.87211404707, 91725.92660497745, 91734.44261961491, 91728.27353814525, 91710.01216292527, 91707.01702916826, 0.054, 0.92, 0.34800000000000003, 192.0, 0.0, 0.0, 0.0, 0.0, 0.0, 0.0, 0.0, 0.0, 0.0, 1.7401441200348432E9, 0.0, 2025-02-21 10:22:00.034
98.0, 91642.24167373677, 91549.39252726943, 91715.39893333899, 91686.43107252492, 91694.94708716239, 91688.82270918164, 91670.44957523937, 91667.40973799345, 0.05, 0.93, 0.34800000000000003, 192.0, 1.0, 144.0, 29.0, 16.0, 10.0, 224.0, 0.0, 0.0, 0.0, 1.7401441200348675E9, 0.0, 2025-02-21 10:22:00.034
99.0, 91604.1766529294, 91511.3498582065, 91677.35626427607, 91648.38840346198, 91656.92676984392, 91650.84709535207, 91632.36220268754, 91629.38942067498, 0.05, 0.93, 0.34800000000000003, 192.0, 0.0, 0.0, 0.0, 0.0, 0.0, 0.0, 0.0, 0.0, 0.0, 1.7401441200348933E9, 0.0, 2025-02-21 10:22:00.034
100.0, 91565.12815536596, 91472.34606413198, 91638.19600799037, 91609.2728506652, 91617.81121704713, 91611.73154255528, 91593.38076035748, 91590.3185713671, 0.05, 0.93, 0.34800000000000003, 192.0, 0.0, 0.0, 0.0, 0.0, 0.0, 0.0, 0.0, 0.0, 0.0, 1.740144120034917E9, 0.0, 2025-02-21 10:22:00.034
101.0, 91523.97859382375, 91431.10709561195, 91596.97939121479, 91568.07858563407, 91576.63930376046, 91570.58198101306, 91552.25355055972, 91549.10195459152, 0.05, 0.93, 0.34800000000000003, 192.0, 0.0, 0.0, 0.0, 0.0, 0.0, 0.0, 0.0, 0.0, 0.0, 1.7401441200349407E9, 0.0, 2025-02-21 10:22:00.034
102.0, 91483.36547414845, 91390.44927244775, 91556.29921630613, 91527.44311421431, 91535.93677710734, 91529.87945435995, 91511.52867216214, 91508.51118666067, 0.05, 0.93, 0.34800000000000003, 192.0, 0.0, 0.0, 0.0, 0.0, 0.0, 0.0, 0.0, 0.0, 0.0, 1.7401441200349648E9, 0.0, 2025-02-21 10:22:00.034
103.0, 91447.87090395343, 91354.95470225271, 91520.78229436664, 91491.85913704147, 91500.41985516786, 91494.27312544265, 91475.87763975593, 91473.01661646565, 0.05, 0.93, 0.34800000000000003, 192.0, 0.0, 0.0, 0.0, 0.0, 0.0, 0.0, 0.0, 0.0, 0.0, 1.7401441200349889E9, 0.0, 2025-02-21 10:22:00.034
104.0, 91410.99052560217, 91318.07432390146, 91483.90191601538, 91454.8893517124, 91463.5394768166, 91457.4374505803, 91439.06431663803, 91436.09153462548, 0.05, 0.93, 0.34800000000000003, 192.0, 0.0, 0.0, 0.0, 0.0, 0.0, 0.0, 0.0, 0.0, 0.0, 1.7401441200350125E9, 0.0, 2025-02-21 10:22:00.035
105.0, 91368.16458322581, 91275.27073326954, 91441.07597363902, 91412.13046456939, 91420.71353444023, 91414.6785634373, 91396.26072600612, 91393.33264748247, 0.05, 0.93, 0.34800000000000003, 192.0, 0.0, 0.0, 0.0, 0.0, 0.0, 0.0, 0.0, 0.0, 0.0, 1.7401441200350363E9, 0.0, 2025-02-21 10:22:00.035
106.0, 91327.0597251725, 91234.23293044961, 91400.03817081907, 91371.09266174946, 91379.7204351092, 91373.61840887289, 91355.17821969726, 91352.22778942916, 0.05, 0.93, 0.34800000000000003, 192.0, 0.0, 0.0, 0.0, 0.0, 0.0, 0.0, 0.0, 0.0, 0.0, 1.7401441200350604E9, 0.0, 2025-02-21 10:22:00.035
107.0, 91290.58167822144, 91197.75488349854, 91363.49306863465, 91334.54755956502, 91343.13062943587, 91337.11801017738, 91318.63311751284, 91315.77209422256, 0.05, 0.93, 0.34800000000000003, 192.0, 0.0, 0.0, 0.0, 0.0, 0.0, 0.0, 0.0, 0.0, 0.0, 1.7401441200350845E9, 0.0, 2025-02-21 10:22:00.035
108.0, 91252.06962252494, 91159.19812431313, 91324.91395770479, 91295.92374514625, 91304.59622199491, 91298.60595448088, 91280.1434135608, 91277.26003852607, 0.048, 0.932, 0.35000000000000003, 192.0, 1.0, 128.0, 29.0, 32.0, 10.0, 240.0, 0.0, 0.0, 0.0, 1.740144120035108E9, 0.0, 2025-02-21 10:22:00.035
109.0, 91213.69167729518, 91120.82017908337, 91286.55836421948, 91257.61285514986, 91266.21827676515, 91260.1386022733, 91241.7878200755, 91238.90444504077, 0.048, 0.932, 0.35000000000000003, 192.0, 0.0, 0.0, 0.0, 0.0, 0.0, 0.0, 0.0, 0.0, 0.0, 1.740144120035134E9, 0.0, 2025-02-21 10:22:00.035
110.0, 91172.9667988976, 91080.0505971969, 91245.8334858219, 91216.88797675229, 91225.67221232322, 91219.39137213129, 91201.01823818902, 91198.11251140982, 0.048, 0.932, 0.35000000000000003, 192.0, 0.0, 0.0, 0.0, 0.0, 0.0, 0.0, 0.0, 0.0, 0.0, 1.740144120035158E9, 0.0, 2025-02-21 10:22:00.035
111.0, 91133.87359784528, 91040.9350444001, 91206.6285260473, 91177.70536872213, 91186.55665952644, 91180.27581933449, 91161.85798190332, 91158.92990337967, 0.048, 0.932, 0.35000000000000003, 192.0, 0.0, 0.0, 0.0, 0.0, 0.0, 0.0, 0.0, 0.0, 0.0, 1.7401441200351975E9, 0.0, 2025-02-21 10:22:00.035
112.0, 91097.08262647183, 91004.18877651558, 91169.81520292941, 91140.89204560424, 91149.69863291964, 91143.57425493888, 91124.95525180761, 91122.13893200624, 0.048, 0.932, 0.35000000000000003, 192.0, 0.0, 0.0, 0.0, 0.0, 0.0, 0.0, 0.0, 0.0, 0.0, 1.740144120035228E9, 0.0, 2025-02-21 10:22:00.035
113.0, 91058.03412890842, 90965.27438941889, 91130.85611234381, 91101.88825152973, 91110.76189407849, 91104.65986784219, 91085.996161222, 91083.22454490955, 0.048, 0.932, 0.35000000000000003, 192.0, 0.0, 0.0, 0.0, 0.0, 0.0, 0.0, 0.0, 0.0, 0.0, 1.7401441200352523E9, 0.0, 2025-02-21 10:22:00.035
114.0, 91015.5881661878, 90922.82842669827, 91088.34309438981, 91059.39758532018, 91068.36063484677, 91062.21390512156, 91043.50549501246, 91040.77858218893, 0.048, 0.932, 0.35000000000000003, 192.0, 0.0, 0.0, 0.0, 0.0, 0.0, 0.0, 0.0, 0.0, 0.0, 1.7401441200352764E9, 0.0, 2025-02-21 10:22:00.035
115.0, 90975.89146803516, 90883.08702505672, 91048.55698925936, 91019.5891284453, 91028.55217797187, 91022.45015173557, 91003.71938988203, 91001.03718054738, 0.048, 0.932, 0.35000000000000003, 192.0, 0.0, 0.0, 0.0, 0.0, 0.0, 0.0, 0.0, 0.0, 0.0, 1.7401441200353005E9, 0.0, 2025-02-21 10:22:00.035
116.0, 90939.14520015064, 90846.3407571722, 91011.90012835266, 90982.95461928305, 90991.80591008734, 90985.6815321066, 90966.9731219975, 90964.24620917394, 0.048, 0.932, 0.35000000000000003, 192.0, 0.0, 0.0, 0.0, 0.0, 0.0, 0.0, 0.0, 0.0, 0.0, 1.740144120035377E9, 0.0, 2025-02-21 10:22:00.035
117.0, 90900.27551654285, 90807.44872181996, 90973.03044474489, 90944.0625839308, 90952.95857822402, 90946.7671450099, 90928.08108664527, 90925.35417382172, 0.048, 0.932, 0.35000000000000003, 192.0, 0.0, 0.0, 0.0, 0.0, 0.0, 0.0, 0.0, 0.0, 0.0, 1.7401441200354035E9, 0.0, 2025-02-21 10:22:00.035
118.0, 90859.12595500064, 90766.34386376665, 90931.76912448039, 90902.82361541076, 90911.83136842625, 90905.68463870104, 90886.9538768475, 90884.27166751286, 0.044, 0.93, 0.352, 192.0, 1.0, 96.0, 29.0, 16.0, 11.0, 0.0, 0.0, 0.0, 0.0, 1.74014412003544E9, 0.0, 2025-02-21 10:22:00.035
119.0, 90820.01040220386, 90727.20595922542, 90892.63121993914, 90863.61865563615, 90872.73816737393, 90866.5914376487, 90847.77126881735, 90845.17846646052, 0.044, 0.93, 0.352, 192.0, 0.0, 0.0, 0.0, 0.0, 0.0, 0.0, 0.0, 0.0, 0.0, 1.740144120035476E9, 0.0, 2025-02-21 10:22:00.035
120.0, 90784.20290758646, 90691.39846460802, 90856.84607706619, 90827.90056799658, 90836.90832101206, 90830.87335000913, 90812.03082943331, 90809.2815648653, 0.044, 0.93, 0.352, 192.0, 0.0, 0.0, 0.0, 0.0, 0.0, 0.0, 0.0, 0.0, 0.0, 1.7401441200355158E9, 0.0, 2025-02-21 10:22:00.035
121.0, 90745.10970653412, 90652.30526355568, 90817.66346903605, 90788.85207043316, 90797.77041647083, 90791.75779721234, 90772.98233186989, 90770.16601206851, 0.044, 0.93, 0.352, 192.0, 0.0, 0.0, 0.0, 0.0, 0.0, 0.0, 0.0, 0.0, 0.0, 1.7401441205117185E9, 0.0, 2025-02-21 10:22:00.511
122.0, 90700.96501123489, 90608.18292000091, 90773.58582897019, 90744.68502338947, 90753.62572117159, 90747.54604667975, 90728.65882261502, 90726.02131676929, 0.044, 0.93, 0.352, 192.0, 0.0, 0.0, 0.0, 0.0, 0.0, 0.0, 0.0, 0.0, 0.0, 1.7401441205117855E9, 0.0, 2025-02-21 10:22:00.511
123.0, 90659.92720841494, 90567.18982066987, 90732.4139156835, 90703.53546184725, 90712.49851137382, 90706.41883688199, 90687.55396456171, 90684.98351394934, 0.044, 0.93, 0.352, 192.0, 0.0, 0.0, 0.0, 0.0, 0.0, 0.0, 0.0, 0.0, 0.0, 1.7401441205118124E9, 0.0, 2025-02-21 10:22:00.511
124.0, 90623.49386495279, 90530.622366741, 90695.93586873244, 90667.01271140728, 90675.99811267831, 90670.00784516429, 90651.03121412173, 90648.37135653156, 0.044, 0.93, 0.352, 192.0, 0.0, 0.0, 0.0, 0.0, 0.0, 0.0, 0.0, 0.0, 0.0, 1.740144120511838E9, 0.0, 2025-02-21 10:22:00.511
125.0, 90584.95945751184, 90492.1550145334, 90657.46851652487, 90628.56771094415, 90637.57546395964, 90631.60754819006, 90612.58621365861, 90609.92635606842, 0.044, 0.93, 0.352, 192.0, 0.0, 0.0, 0.0, 0.0, 0.0, 0.0, 0.0, 0.0, 0.0, 1.7401441205118632E9, 0.0, 2025-02-21 10:22:00.511
126.0, 90543.51932329171, 90450.75958380218, 90615.9389753269, 90587.01581800173, 90596.11297799504, 90590.0780069921, 90571.05667246065, 90568.48622184829, 0.044, 0.93, 0.352, 192.0, 0.0, 0.0, 0.0, 0.0, 0.0, 0.0, 0.0, 0.0, 0.0, 1.7401441205119743E9, 0.0, 2025-02-21 10:22:00.511
127.0, 90502.39211349394, 90409.76648447114, 90574.96822774032, 90546.00036692624, 90555.119878664, 90549.06255591662, 90530.08592487406, 90527.5154742617, 0.044, 0.93, 0.352, 192.0, 0.0, 0.0, 0.0, 0.0, 0.0, 0.0, 0.0, 0.0, 0.0, 1.7401441205120003E9, 0.0, 2025-02-21 10:22:00.512
128.0, 90463.67889209735, 90370.94150435227, 90536.18795111036, 90507.19773855183, 90516.25019505623, 90510.28227928666, 90491.32799998856, 90488.7575493762, 0.04, 0.9380000000000001, 0.352, 192.0, 1.0, 64.0, 29.0, 80.0, 11.0, 0.0, 0.0, 0.0, 0.0, 1.7401441205120358E9, 0.0, 2025-02-21 10:22:00.512
129.0, 90425.41270558986, 90332.65296610034, 90497.92176460288, 90468.88684855543, 90477.96165680428, 90471.99374103472, 90453.12886871444, 90450.49136286872, 0.04, 0.9380000000000001, 0.352, 192.0, 0.0, 0.0, 0.0, 0.0, 0.0, 0.0, 0.0, 0.0, 0.0, 1.740144120512063E9, 0.0, 2025-02-21 10:22:00.512
130.0, 90383.59259171398, 90290.83285222446, 90456.03459549363, 90427.06673467955, 90436.16389467286, 90430.15127541439, 90411.21934786074, 90408.62654550392, 0.04, 0.9380000000000001, 0.352, 192.0, 0.0, 0.0, 0.0, 0.0, 0.0, 0.0, 0.0, 0.0, 0.0, 1.7401441205120876E9, 0.0, 2025-02-21 10:22:00.512
131.0, 90343.49356216117, 90250.800877905, 90415.77910372963, 90386.85594640445, 90396.02016163114, 90389.96283888374, 90370.96385609673, 90368.39340548437, 0.04, 0.9380000000000001, 0.352, 192.0, 0.0, 0.0, 0.0, 0.0, 0.0, 0.0, 0.0, 0.0, 0.0, 1.740144120512112E9, 0.0, 2025-02-21 10:22:00.512
132.0, 90305.54030007606, 90212.84761581989, 90377.78113815561, 90348.85798083043, 90358.0221960571, 90352.03192854309, 90332.9211870338, 90330.44014339926, 0.04, 0.9380000000000001, 0.352, 192.0, 0.0, 0.0, 0.0, 0.0, 0.0, 0.0, 0.0, 0.0, 0.0, 1.7401441205121365E9, 0.0, 2025-02-21 10:22:00.512
133.0, 90268.79403219152, 90176.16840316873, 90341.14662899336, 90312.17876817928, 90321.23122468368, 90315.2633089141, 90296.2196226382, 90293.69387551474, 0.04, 0.9380000000000001, 0.352, 192.0, 0.0, 0.0, 0.0, 0.0, 0.0, 0.0, 0.0, 0.0, 0.0, 1.7401441205121613E9, 0.0, 2025-02-21 10:22:00.512
134.0, 90230.39373521731, 90137.76810619452, 90302.72398027468, 90273.73376771614, 90282.89798294283, 90276.81830845098, 90257.7522704306, 90255.2488750516, 0.04, 0.9380000000000001, 0.352, 192.0, 0.0, 0.0, 0.0, 0.0, 0.0, 0.0, 0.0, 0.0, 0.0, 1.7401441205121856E9, 0.0, 2025-02-21 10:22:00.512
135.0, 90190.49587136459, 90097.84789059733, 90262.71435769968, 90233.79120037452, 90242.91071211228, 90236.98749983162, 90217.85440657788, 90215.30630770998, 0.04, 0.9380000000000001, 0.352, 192.0, 0.0, 0.0, 0.0, 0.0, 0.0, 0.0, 0.0, 0.0, 0.0, 1.74014412051221E9, 0.0, 2025-02-21 10:22:00.512
136.0, 90150.1286208783, 90057.43593662215, 90222.30240372449, 90193.35689465486, 90202.58816511491, 90196.6426010898, 90177.39774911378, 90175.02846420152, 0.04, 0.9380000000000001, 0.352, 192.0, 0.0, 0.0, 0.0, 0.0, 0.0, 0.0, 0.0, 0.0, 0.0, 1.7401441205122344E9, 0.0, 2025-02-21 10:22:00.512
137.0, 90111.12482680379, 90018.43214254764, 90183.36566488334, 90154.28604534699, 90163.56201929593, 90157.61645527082, 90138.41630678372, 90135.84585617136, 0.04, 0.9380000000000001, 0.352, 192.0, 0.0, 0.0, 0.0, 0.0, 0.0, 0.0, 0.0, 0.0, 0.0, 1.7401441205122583E9, 0.0, 2025-02-21 10:22:00.512
138.0, 90070.91403852869, 89978.22135427254, 90143.13252486379, 90114.07525707189, 90123.32887927639, 90117.45037048464, 90098.20551850862, 90095.65741964072, 0.04, 0.936, 0.34400000000000003, 192.0, 1.0, 64.0, 29.0, 64.0, 10.0, 192.0, 0.0, 0.0, 0.0, 1.740144120512282E9, 0.0, 2025-02-21 10:22:00.512
139.0, 90030.16680838667, 89937.4741241305, 90102.36294297731, 90073.37273041878, 90082.62635262328, 90076.63608510925, 90057.4135848777, 90054.9548929876, 0.04, 0.936, 0.34400000000000003, 192.0, 0.0, 0.0, 0.0, 0.0, 0.0, 0.0, 0.0, 0.0, 0.0, 1.7401441205123084E9, 0.0, 2025-02-21 10:22:00.512
140.0, 89990.2912962784, 89897.66566725561, 90062.46507912458, 90033.54192179942, 90042.72848877055, 90036.76057300098, 90017.47101753605, 90015.12408436825, 0.04, 0.936, 0.34400000000000003, 192.0, 0.0, 0.0, 0.0, 0.0, 0.0, 0.0, 0.0, 0.0, 0.0, 1.7401441205123324E9, 0.0, 2025-02-21 10:22:00.512
141.0, 89953.90265630516, 89861.34408251573, 90026.14349438471, 89997.08622659282, 90006.36220054177, 90000.39428477219, 89981.12708105172, 89978.71309265055, 0.04, 0.936, 0.34400000000000003, 192.0, 0.0, 0.0, 0.0, 0.0, 0.0, 0.0, 0.0, 0.0, 0.0, 1.7401441205123563E9, 0.0, 2025-02-21 10:22:00.512
142.0, 89915.9717459645, 89823.43552391953, 89988.1455288107, 89959.04355752988, 89968.40893845665, 89962.50807792046, 89943.21852245553, 89940.71512707653, 0.04, 0.936, 0.34400000000000003, 192.0, 0.0, 0.0, 0.0, 0.0, 0.0, 0.0, 0.0, 0.0, 0.0, 1.7401441205123937E9, 0.0, 2025-02-21 10:22:00.512
143.0, 89875.49273675594, 89782.95651471097, 89947.64416785767, 89918.54219657686, 89927.92992924809, 89922.0290687119, 89902.76186499142, 89900.25846961242, 0.04, 0.936, 0.34400000000000003, 192.0, 0.0, 0.0, 0.0, 0.0, 0.0, 0.0, 0.0, 0.0, 0.0, 1.7401441205124247E9, 0.0, 2025-02-21 10:22:00.512
144.0, 89834.87961708065, 89742.20928456895, 89906.96399294901, 89877.88437341266, 89887.18269910607, 89881.37124554769, 89862.05933833831, 89859.55594295931, 0.04, 0.936, 0.34400000000000003, 192.0, 0.0, 0.0, 0.0, 0.0, 0.0, 0.0, 0.0, 0.0, 0.0, 1.7401441205124493E9, 0.0, 2025-02-21 10:22:00.512
145.0, 89795.45113986148, 89702.75845560533, 89867.60257096322, 89838.52295142686, 89847.84362886472, 89841.96512007299, 89822.58615763023, 89820.19452097351, 0.04, 0.936, 0.34400000000000003, 192.0, 0.0, 0.0, 0.0, 0.0, 0.0, 0.0, 0.0, 0.0, 0.0, 1.7401441205124738E9, 0.0, 2025-02-21 10:22:00.512
146.0, 89757.92256092103, 89665.2075249204, 89830.07399202276, 89800.90496550858, 89810.27034643535, 89804.3918376436, 89785.01287520086, 89782.62123854415, 0.04, 0.936, 0.34400000000000003, 192.0, 0.0, 0.0, 0.0, 0.0, 0.0, 0.0, 0.0, 0.0, 0.0, 1.7401441205124981E9, 0.0, 2025-02-21 10:22:00.512
147.0, 89716.57183367871, 89623.85679767809, 89788.61150605817, 89759.55423826627, 89768.94197093749, 89762.99640691238, 89743.57274098072, 89741.22580781291, 0.04, 0.936, 0.34400000000000003, 192.0, 0.0, 0.0, 0.0, 0.0, 0.0, 0.0, 0.0, 0.0, 0.0, 1.740144120512523E9, 0.0, 2025-02-21 10:22:00.512
148.0, 89675.51167911431, 89582.88605009152, 89747.52899974931, 89718.4270284685, 89727.90416811754, 89722.04801107026, 89702.4678829274, 89700.18800499298, 0.04, 0.936, 0.34600000000000003, 192.0, 1.0, 64.0, 29.0, 64.0, 10.0, 208.0, 0.0, 0.0, 0.0, 1.7401441205125477E9, 0.0, 2025-02-21 10:22:00.512
149.0, 89637.5584170292, 89544.95513975086, 89709.6204411531, 89680.42906289447, 89689.99560952134, 89684.1171007296, 89664.5146208423, 89662.30179814123, 0.04, 0.936, 0.34600000000000003, 192.0, 0.0, 0.0, 0.0, 0.0, 0.0, 0.0, 0.0, 0.0, 0.0, 1.740144120512574E9, 0.0, 2025-02-21 10:22:00.512
150.0, 89602.1979573009, 89509.50527304475, 89674.2152779359, 89645.04625142172, 89654.63514979306, 89648.66723402348, 89629.10945762509, 89627.00839364629, 0.04, 0.936, 0.34600000000000003, 192.0, 0.0, 0.0, 0.0, 0.0, 0.0, 0.0, 0.0, 0.0, 0.0, 1.7401441205125983E9, 0.0, 2025-02-21 10:22:00.512
151.0, 89562.36714868154, 89469.67446442539, 89634.27271059426, 89605.17073931346, 89614.67023070696, 89608.83642540412, 89589.21159377237, 89587.04347456021, 0.04, 0.936, 0.34600000000000003, 192.0, 0.0, 0.0, 0.0, 0.0, 0.0, 0.0, 0.0, 0.0, 0.0, 1.7401441205126226E9, 0.0, 2025-02-21 10:22:00.512
152.0, 89520.50233131676, 89427.78729531614, 89592.2961345072, 89563.30592194867, 89572.6936546199, 89566.85984931706, 89547.27972117421, 89545.0892502176, 0.04, 0.936, 0.34600000000000003, 192.0, 0.0, 0.0, 0.0, 0.0, 0.0, 0.0, 0.0, 0.0, 0.0, 1.7401441205126472E9, 0.0, 2025-02-21 10:22:00.512
153.0, 89482.54906923164, 89389.78932974213, 89554.29816893318, 89525.30795637464, 89534.74039253479, 89528.97364246532, 89509.3264590891, 89507.1806916214, 0.04, 0.936, 0.34600000000000003, 192.0, 0.0, 0.0, 0.0, 0.0, 0.0, 0.0, 0.0, 0.0, 0.0, 1.7401441205126712E9, 0.0, 2025-02-21 10:22:00.512
154.0, 89444.84167633553, 89352.10428859048, 89516.59077603708, 89487.53350824518, 89497.1224066165, 89491.26624956922, 89471.64141793746, 89469.4732987253, 0.04, 0.936, 0.34600000000000003, 192.0, 0.0, 0.0, 0.0, 0.0, 0.0, 0.0, 0.0, 0.0, 0.0, 1.7401441205126953E9, 0.0, 2025-02-21 10:22:00.512
155.0, 89405.54730958311, 89312.89932881587, 89477.2740575402, 89448.21678974829, 89457.85039160853, 89452.03893805014, 89432.36940292949, 89430.13422848395, 0.04, 0.936, 0.34600000000000003, 192.0, 0.0, 0.0, 0.0, 0.0, 0.0, 0.0, 0.0, 0.0, 0.0, 1.7401441205127192E9, 0.0, 2025-02-21 10:22:00.512
156.0, 89364.42009978535, 89271.7721190181, 89436.12449599797, 89407.00017297271, 89416.67847832186, 89410.84467301902, 89391.21984138725, 89388.96231519728, 0.04, 0.936, 0.34600000000000003, 192.0, 0.0, 0.0, 0.0, 0.0, 0.0, 0.0, 0.0, 0.0, 0.0, 1.7401441205127437E9, 0.0, 2025-02-21 10:22:00.512
157.0, 89325.6845266443, 89233.05889762151, 89397.41127460139, 89368.37635855394, 89377.92055343636, 89372.10909987797, 89352.48426824622, 89350.22674205623, 0.04, 0.936, 0.34600000000000003, 192.0, 0.0, 0.0, 0.0, 0.0, 0.0, 0.0, 0.0, 0.0, 0.0, 1.7401441205127678E9, 0.0, 2025-02-21 10:22:00.512
158.0, 89287.93243025929, 89195.21739425867, 89359.61447472745, 89330.66896565784, 89340.12375356242, 89334.35700349296, 89314.62041313892, 89312.47464567122, 0.038, 0.932, 0.34800000000000003, 192.0, 1.0, 48.0, 29.0, 32.0, 10.0, 224.0, 0.0, 0.0, 0.0, 1.7401441205128052E9, 0.0, 2025-02-21 10:22:00.512
159.0, 89247.20755186172, 89154.53721935001, 89318.84489284098, 89289.8770320269, 89299.42122690931, 89293.6768285843, 89273.94023823027, 89271.81682250701, 0.038, 0.932, 0.34800000000000003, 192.0, 0.0, 0.0, 0.0, 0.0, 0.0, 0.0, 0.0, 0.0, 0.0, 1.7401441205128376E9, 0.0, 2025-02-21 10:22:00.512
160.0, 89207.17557754226, 89114.57230026393, 89278.85762201043, 89249.84505770744, 89259.41160433431, 89253.82366822049, 89233.99767088862, 89231.80719993201, 0.038, 0.932, 0.34800000000000003, 192.0, 0.0, 0.0, 0.0, 0.0, 0.0, 0.0, 0.0, 0.0, 0.0, 1.7401441205128624E9, 0.0, 2025-02-21 10:22:00.512
161.0, 89167.90356253428, 89075.27793351149, 89239.563255258, 89210.52833921056, 89220.18429281525, 89214.52930146805, 89194.6586006473, 89192.44577794621, 0.038, 0.932, 0.34800000000000003, 192.0, 0.0, 0.0, 0.0, 0.0, 0.0, 0.0, 0.0, 0.0, 0.0, 1.7401441205128868E9, 0.0, 2025-02-21 10:22:00.512
162.0, 89129.99500393808, 89037.36937491529, 89201.69940015071, 89172.57507712544, 89182.25338247459, 89176.5983911274, 89156.68298681772, 89154.60427458338, 0.038, 0.932, 0.34800000000000003, 192.0, 0.0, 0.0, 0.0, 0.0, 0.0, 0.0, 0.0, 0.0, 0.0, 1.740144120512911E9, 0.0, 2025-02-21 10:22:00.512
163.0, 89090.99120986357, 88998.41028432969, 89162.60619909837, 89133.52657956202, 89143.24958840008, 89137.54989356398, 89117.70154448766, 89115.55577701995, 0.038, 0.932, 0.34800000000000003, 192.0, 0.0, 0.0, 0.0, 0.0, 0.0, 0.0, 0.0, 0.0, 0.0, 1.740144120512935E9, 0.0, 2025-02-21 10:22:00.512
164.0, 89048.67935760968, 88956.0984320758, 89120.24964335558, 89091.21472730812, 89101.00479137956, 89095.26039305454, 89075.34498874487, 89073.26627651052, 0.038, 0.932, 0.34800000000000003, 192.0, 0.0, 0.0, 0.0, 0.0, 0.0, 0.0, 0.0, 0.0, 0.0, 1.7401441205129592E9, 0.0, 2025-02-21 10:22:00.512
165.0, 89008.04388618993, 88915.46296065605, 89079.59182019137, 89050.51220065501, 89060.3246164709, 89054.6249216348, 89034.73186906957, 89032.60845334631, 0.038, 0.932, 0.34800000000000003, 192.0, 0.0, 0.0, 0.0, 0.0, 0.0, 0.0, 0.0, 0.0, 0.0, 1.7401441205129836E9, 0.0, 2025-02-21 10:22:00.512
166.0, 88969.91181014918, 88877.3308846153, 89041.50444763953, 89012.44717984763, 89022.2148921746, 89016.5599008274, 88996.57744128436, 88994.4540255611, 0.038, 0.932, 0.34800000000000003, 192.0, 0.0, 0.0, 0.0, 0.0, 0.0, 0.0, 0.0, 0.0, 0.0, 1.740144120513008E9, 0.0, 2025-02-21 10:22:00.513
167.0, 88931.8914928307, 88839.33291904128, 89003.48413032104, 88974.42686252914, 88984.28398183394, 88978.62899048674, 88958.49006873251, 88956.43370824262, 0.038, 0.932, 0.34800000000000003, 192.0, 0.0, 0.0, 0.0, 0.0, 0.0, 0.0, 0.0, 0.0, 0.0, 1.740144120513032E9, 0.0, 2025-02-21 10:22:00.513
168.0, 88891.09955919976, 88798.47393017697, 88962.62514145675, 88933.54552192039, 88943.35793773628, 88937.68059464463, 88917.60872812376, 88915.61942286724, 0.048, 0.928, 0.35000000000000003, 192.0, 1.0, 128.0, 29.0, 0.0, 10.0, 240.0, 0.0, 0.0, 0.0, 1.7401441205130563E9, 0.0, 2025-02-21 10:22:00.513
169.0, 88849.83823893526, 88757.16790642357, 88921.3414694478, 88892.17244293362, 88902.02956223841, 88896.30751565786, 88876.3250561148, 88874.24634388046, 0.048, 0.928, 0.35000000000000003, 192.0, 0.0, 0.0, 0.0, 0.0, 0.0, 0.0, 0.0, 0.0, 0.0, 1.7401441205130813E9, 0.0, 2025-02-21 10:22:00.513
170.0, 88813.1143227952, 88720.51104551686, 88884.61755330772, 88855.44852679355, 88865.30564609834, 88859.71770998451, 88839.6681952081, 88837.58948297375, 0.048, 0.928, 0.35000000000000003, 192.0, 0.0, 0.0, 0.0, 0.0, 0.0, 0.0, 0.0, 0.0, 0.0, 1.7401441205131052E9, 0.0, 2025-02-21 10:22:00.513
171.0, 88775.18341245454, 88682.7365973874, 88846.68664296706, 88817.53996819735, 88827.35238401323, 88821.83150313277, 88801.73728486744, 88799.63622088864, 0.048, 0.928, 0.35000000000000003, 192.0, 0.0, 0.0, 0.0, 0.0, 0.0, 0.0, 0.0, 0.0, 0.0, 1.7401441205131297E9, 0.0, 2025-02-21 10:22:00.513
172.0, 88732.91626368955, 88640.4247451335, 88804.35243896872, 88775.2504676879, 88785.0628835038, 88779.4078921566, 88759.47013610246, 88757.3020168903, 0.048, 0.928, 0.35000000000000003, 192.0, 0.0, 0.0, 0.0, 0.0, 0.0, 0.0, 0.0, 0.0, 0.0, 1.7401441205131536E9, 0.0, 2025-02-21 10:22:00.513
173.0, 88692.99604809238, 88600.50452953632, 88764.49927860491, 88735.39730732409, 88745.23207488444, 88739.53238004833, 88719.61697573865, 88717.47120827094, 0.048, 0.928, 0.35000000000000003, 192.0, 0.0, 0.0, 0.0, 0.0, 0.0, 0.0, 0.0, 0.0, 0.0, 1.7401441205131922E9, 0.0, 2025-02-21 10:22:00.513
174.0, 88656.18272497448, 88563.66885467398, 88727.61890025364, 88698.49457722838, 88708.30699304426, 88702.69670518598, 88682.62483866511, 88680.6355334086, 0.048, 0.928, 0.35000000000000003, 192.0, 0.0, 0.0, 0.0, 0.0, 0.0, 0.0, 0.0, 0.0, 0.0, 1.7401441205132165E9, 0.0, 2025-02-21 10:22:00.513
175.0, 88618.87766347858, 88526.36379317807, 88690.26913526883, 88661.18951573248, 88671.00193154835, 88665.41399543453, 88645.20801844694, 88643.30812016824, 0.048, 0.928, 0.35000000000000003, 192.0, 0.0, 0.0, 0.0, 0.0, 0.0, 0.0, 0.0, 0.0, 0.0, 1.7401441205132475E9, 0.0, 2025-02-21 10:22:00.513
176.0, 88577.14695658052, 88484.76719674673, 88648.58313185968, 88619.43645708996, 88629.40533511703, 88623.81739900321, 88603.54436678224, 88601.59976501463, 0.048, 0.928, 0.35000000000000003, 192.0, 0.0, 0.0, 0.0, 0.0, 0.0, 0.0, 0.0, 0.0, 0.0, 1.7401441205132718E9, 0.0, 2025-02-21 10:22:00.513
177.0, 88535.17038049345, 88442.70121368185, 88606.5618522837, 88577.37047402507, 88587.42875902996, 88581.81847117167, 88561.52308720627, 88559.62318892757, 0.048, 0.928, 0.35000000000000003, 192.0, 0.0, 0.0, 0.0, 0.0, 0.0, 0.0, 0.0, 0.0, 0.0, 1.740144120513296E9, 0.0, 2025-02-21 10:22:00.513
178.0, 88498.51351958675, 88405.95494579732, 88569.92734312145, 88540.78066835174, 88550.77189812326, 88545.16161026497, 88524.8438745551, 88523.01103150977, 0.05, 0.924, 0.34800000000000003, 192.0, 1.0, 144.0, 28.0, 224.0, 10.0, 224.0, 0.0, 0.0, 0.0, 1.7401441205133204E9, 0.0, 2025-02-21 10:22:00.513
179.0, 88462.61661799153, 88370.10274769101, 88533.96338629286, 88504.8390632676, 88514.76323780576, 88509.1976534364, 88488.90226947097, 88487.09177817008, 0.05, 0.924, 0.34800000000000003, 192.0, 0.0, 0.0, 0.0, 0.0, 0.0, 0.0, 0.0, 0.0, 0.0, 1.7401441205133462E9, 0.0, 2025-02-21 10:22:00.513
180.0, 88422.58464367207, 88330.16018034938, 88493.95376371787, 88464.8294406926, 88474.84302220857, 88469.21038260584, 88448.89264689597, 88447.01510036172, 0.05, 0.924, 0.34800000000000003, 192.0, 0.0, 0.0, 0.0, 0.0, 0.0, 0.0, 0.0, 0.0, 0.0, 1.7401441205133705E9, 0.0, 2025-02-21 10:22:00.513
181.0, 88378.43994837283, 88285.90372632787, 88449.74201318527, 88420.61769016001, 88430.60891993153, 88425.0209838177, 88404.68089636337, 88402.80334982912, 0.05, 0.924, 0.34800000000000003, 192.0, 0.0, 0.0, 0.0, 0.0, 0.0, 0.0, 0.0, 0.0, 0.0, 1.7401441205133944E9, 0.0, 2025-02-21 10:22:00.513
182.0, 88336.97746240825, 88244.48594385218, 88408.25717547622, 88379.08814896205, 88389.10173047803, 88383.53614610866, 88363.17370690986, 88361.36321560899, 0.05, 0.924, 0.34800000000000003, 192.0, 0.0, 0.0, 0.0, 0.0, 0.0, 0.0, 0.0, 0.0, 0.0, 1.740144120513419E9, 0.0, 2025-02-21 10:22:00.513
183.0, 88300.9911538352, 88208.61139400142, 88372.24851515872, 88343.16889562237, 88353.16012539389, 88347.66159625788, 88327.16504659236, 88325.46631401376, 0.05, 0.924, 0.34800000000000003, 192.0, 0.0, 0.0, 0.0, 0.0, 0.0, 0.0, 0.0, 0.0, 0.0, 1.7401441205134523E9, 0.0, 2025-02-21 10:22:00.513
184.0, 88262.6355603499, 88170.2110970272, 88333.78116295114, 88304.7909503926, 88314.75982841967, 88309.1942440503, 88288.69769438478, 88287.02131355063, 0.05, 0.924, 0.34800000000000003, 192.0, 0.0, 0.0, 0.0, 0.0, 0.0, 0.0, 0.0, 0.0, 0.0, 1.740144120513477E9, 0.0, 2025-02-21 10:22:00.513
185.0, 88220.10019065144, 88127.8545412844, 88291.31284848605, 88262.21087720525, 88272.26916221013, 88266.6365226074, 88246.27408340861, 88244.50829559664, 0.05, 0.924, 0.34800000000000003, 192.0, 0.0, 0.0, 0.0, 0.0, 0.0, 0.0, 0.0, 0.0, 0.0, 1.7401441205135016E9, 0.0, 2025-02-21 10:22:00.513
186.0, 88179.66588493179, 88087.39788382029, 88250.85619102194, 88221.73186799668, 88231.79015300157, 88226.20221688774, 88205.88448117787, 88204.073989877, 0.05, 0.924, 0.34800000000000003, 192.0, 0.0, 0.0, 0.0, 0.0, 0.0, 0.0, 0.0, 0.0, 0.0, 1.740144120513526E9, 0.0, 2025-02-21 10:22:00.513
187.0, 88144.50659090359, 88052.10447932535, 88215.58513827148, 88186.43846350175, 88196.58615548446, 88191.1099780929, 88170.65813191631, 88168.89234410434, 0.05, 0.924, 0.34800000000000003, 192.0, 0.0, 0.0, 0.0, 0.0, 0.0, 0.0, 0.0, 0.0, 0.0, 1.7401441205135503E9, 0.0, 2025-02-21 10:22:00.513
188.0, 88106.48627358512, 88014.03945851797, 88177.58717269746, 88148.37344269437, 88158.49878293261, 88153.0002537966, 88132.57075936446, 88130.76026806359, 0.058, 0.922, 0.34800000000000003, 192.0, 1.0, 208.0, 28.0, 208.0, 10.0, 224.0, 0.0, 0.0, 0.0, 1.7401441205135748E9, 0.0, 2025-02-21 10:22:00.513
189.0, 88063.8391451644, 87971.32527486388, 88134.8506372989, 88105.68161078473, 88115.82930276744, 88110.37547712034, 88089.81187222146, 88088.0907878984, 0.058, 0.922, 0.34800000000000003, 192.0, 0.0, 0.0, 0.0, 0.0, 0.0, 0.0, 0.0, 0.0, 0.0, 1.740144120513616E9, 0.0, 2025-02-21 10:22:00.513
190.0, 88025.05886853444, 87932.58970172283, 88096.02565718004, 88066.87898241032, 88077.07137788193, 88071.66225572376, 88051.0762990804, 88049.31051126844, 0.058, 0.922, 0.34800000000000003, 192.0, 0.0, 0.0, 0.0, 0.0, 0.0, 0.0, 0.0, 0.0, 0.0, 1.7401441205136468E9, 0.0, 2025-02-21 10:22:00.513
191.0, 87988.89374600575, 87896.49163442751, 88059.8828863958, 88030.75856337055, 88040.90625535324, 88035.4300779617, 88014.86647306282, 88013.1230369953, 0.058, 0.922, 0.34800000000000003, 192.0, 0.0, 0.0, 0.0, 0.0, 0.0, 0.0, 0.0, 0.0, 0.0, 1.7401441205136712E9, 0.0, 2025-02-21 10:22:00.513
192.0, 87949.53232401995, 87857.17491593062, 88020.54381615446, 87991.33008615137, 88001.56718511191, 87996.09100772036, 87975.50505107702, 87973.80631849842, 0.058, 0.922, 0.34800000000000003, 192.0, 0.0, 0.0, 0.0, 0.0, 0.0, 0.0, 0.0, 0.0, 0.0, 1.7401441205136955E9, 0.0, 2025-02-21 10:22:00.513
193.0, 87906.52756768794, 87814.10310436525, 87977.49435633354, 87948.21357109709, 87958.49537354654, 87952.99684441053, 87932.4555912561, 87930.77921042196, 0.058, 0.922, 0.34800000000000003, 192.0, 0.0, 0.0, 0.0, 0.0, 0.0, 0.0, 0.0, 0.0, 0.0, 1.74014412051372E9, 0.0, 2025-02-21 10:22:00.513
194.0, 87863.9921979895, 87771.54538292234, 87934.95898663509, 87905.67820139864, 87915.91530035918, 87910.43912296763, 87889.92022155765, 87888.15443374569, 0.058, 0.922, 0.34800000000000003, 192.0, 0.0, 0.0, 0.0, 0.0, 0.0, 0.0, 0.0, 0.0, 0.0, 1.7401441205137444E9, 0.0, 2025-02-21 10:22:00.513
195.0, 87829.74932548396, 87737.21310343899, 87900.73846587402, 87871.36827365974, 87881.62772436473, 87876.19625046209, 87855.5879420743, 87853.8892094957, 0.058, 0.922, 0.34800000000000003, 192.0, 0.0, 0.0, 0.0, 0.0, 0.0, 0.0, 0.0, 0.0, 0.0, 1.7401441205137684E9, 0.0, 2025-02-21 10:22:00.513
196.0, 87793.45009248855, 87701.00327742139, 87864.28277066741, 87835.04668891987, 87845.35084311377, 87839.89701746668, 87819.26635733442, 87817.52292126691, 0.058, 0.922, 0.34800000000000003, 192.0, 0.0, 0.0, 0.0, 0.0, 0.0, 0.0, 0.0, 0.0, 0.0, 1.7401441205137928E9, 0.0, 2025-02-21 10:22:00.513
197.0, 87752.52404839087, 87660.07723332373, 87823.22261610301, 87794.09829307775, 87804.40244727164, 87798.97097336901, 87778.25090625894, 87776.52982193588, 0.058, 0.922, 0.34800000000000003, 192.0, 0.0, 0.0, 0.0, 0.0, 0.0, 0.0, 0.0, 0.0, 0.0, 1.740144120513817E9, 0.0, 2025-02-21 10:22:00.513
198.0, 87710.61452753718, 87618.19006421448, 87781.42485397159, 87752.25582745741, 87762.55998165131, 87757.2179147265, 87736.52019936088, 87734.77676329337, 0.056, 0.926, 0.34400000000000003, 192.0, 1.0, 192.0, 28.0, 240.0, 10.0, 192.0, 0.0, 0.0, 0.0, 1.7401441205138416E9, 0.0, 2025-02-21 10:22:00.513
199.0, 87670.5378497288, 87578.13573815057, 87741.34817616323, 87712.22385313796, 87722.55035907631, 87717.16358866259, 87696.46587329697, 87694.74478897391, 0.056, 0.926, 0.34400000000000003, 192.0, 0.0, 0.0, 0.0, 0.0, 0.0, 0.0, 0.0, 0.0, 0.0, 1.7401441205138674E9, 0.0, 2025-02-21 10:22:00.513
200.0, 87631.75757309885, 87539.37781326506, 87702.63495476663, 87673.46592825245, 87683.72537895745, 87678.42801552154, 87657.57383794473, 87656.00921583286, 0.056, 0.926, 0.34400000000000003, 192.0, 0.0, 0.0, 0.0, 0.0, 0.0, 0.0, 0.0, 0.0, 0.0, 1.7401441205138917E9, 0.0, 2025-02-21 10:22:00.513
201.0, 87591.54678482376, 87499.0552662677, 87662.40181474708, 87633.21043648844, 87643.46988719344, 87638.19487550198, 87617.34069792517, 87615.79842755776, 0.056, 0.926, 0.34400000000000003, 192.0, 0.0, 0.0, 0.0, 0.0, 0.0, 0.0, 0.0, 0.0, 0.0, 1.7401441205139158E9, 0.0, 2025-02-21 10:22:00.513
202.0, 87551.35834829311, 87458.82212624814, 87622.12397123862, 87592.91024123553, 87603.28145066279, 87597.91703199352, 87577.15226139454, 87575.56528753821, 0.056, 0.926, 0.34400000000000003, 192.0, 0.0, 0.0, 0.0, 0.0, 0.0, 0.0, 0.0, 0.0, 0.0, 1.7401441205139396E9, 0.0, 2025-02-21 10:22:00.513
203.0, 87511.16991176247, 87418.81250367314, 87581.91318296352, 87552.65474947152, 87563.13771762107, 87557.72859546288, 87536.89676963053, 87535.33214751865, 0.056, 0.926, 0.34400000000000003, 192.0, 0.0, 0.0, 0.0, 0.0, 0.0, 0.0, 0.0, 0.0, 0.0, 1.7401441205139632E9, 0.0, 2025-02-21 10:22:00.513
204.0, 87473.97660898884, 87381.64155264397, 87544.65282495652, 87515.4614466979, 87525.96676659188, 87520.46823745588, 87499.61405987908, 87498.07178951167, 0.056, 0.926, 0.34400000000000003, 192.0, 0.0, 0.0, 0.0, 0.0, 0.0, 0.0, 0.0, 0.0, 0.0, 1.7401441205139947E9, 0.0, 2025-02-21 10:22:00.513
205.0, 87432.62588174653, 87340.20141842382, 87503.2573942253, 87474.0436642222, 87484.57133586066, 87479.13986195801, 87458.21862914784, 87456.69871052488, 0.056, 0.926, 0.34400000000000003, 192.0, 0.0, 0.0, 0.0, 0.0, 0.0, 0.0, 0.0, 0.0, 0.0, 1.7401441205140257E9, 0.0, 2025-02-21 10:22:00.514
206.0, 87389.5764219256, 87297.12960685845, 87460.23028614883, 87430.90479742347, 87441.45482080636, 87436.02334690373, 87415.16916932692, 87413.62689895951, 0.056, 0.926, 0.34400000000000003, 192.0, 0.0, 0.0, 0.0, 0.0, 0.0, 0.0, 0.0, 0.0, 0.0, 1.7401441205140572E9, 0.0, 2025-02-21 10:22:00.514
207.0, 87351.35493890702, 87258.8410686065, 87421.94174789688, 87392.61625917153, 87403.16628255443, 87397.84656737406, 87376.85827933052, 87375.36071245202, 0.056, 0.926, 0.34400000000000003, 192.0, 0.0, 0.0, 0.0, 0.0, 0.0, 0.0, 0.0, 0.0, 0.0, 1.7401441205140817E9, 0.0, 2025-02-21 10:22:00.514
208.0, 87313.35697333301, 87220.86545477694, 87383.8767270895, 87354.6182935975, 87365.21302046931, 87359.8709535445, 87338.83796201205, 87337.34039513355, 0.058, 0.928, 0.342, 192.0, 1.0, 208.0, 29.0, 0.0, 10.0, 176.0, 0.0, 0.0, 0.0, 1.740144120514106E9, 0.0, 2025-02-21 10:22:00.514
209.0, 87275.02373159215, 87182.66632350282, 87345.72229930428, 87316.41916232338, 87326.94683396183, 87321.64947052592, 87300.57177550456, 87299.0518568816, 0.058, 0.928, 0.342, 192.0, 0.0, 0.0, 0.0, 0.0, 0.0, 0.0, 0.0, 0.0, 0.0, 1.7401441205141315E9, 0.0, 2025-02-21 10:22:00.514
210.0, 87234.85764680596, 87142.54494220555, 87305.44445579582, 87276.20837404828, 87286.75839743119, 87281.41633050637, 87260.33863548502, 87258.8410686065, 0.058, 0.928, 0.342, 192.0, 0.0, 0.0, 0.0, 0.0, 0.0, 0.0, 0.0, 0.0, 0.0, 1.740144120514156E9, 0.0, 2025-02-21 10:22:00.514
211.0, 87196.4797015762, 87104.16699697578, 87267.02180707715, 87237.71867009625, 87248.35810045697, 87243.01603353216, 87221.89363502189, 87220.39606814338, 0.058, 0.928, 0.342, 192.0, 0.0, 0.0, 0.0, 0.0, 0.0, 0.0, 0.0, 0.0, 0.0, 1.740144120514181E9, 0.0, 2025-02-21 10:22:00.514
212.0, 87158.03470111308, 87065.74434825711, 87228.59915835848, 87199.3854283554, 87209.89074824938, 87204.59338481347, 87183.51568979213, 87182.04047465808, 0.058, 0.928, 0.342, 192.0, 0.0, 0.0, 0.0, 0.0, 0.0, 0.0, 0.0, 0.0, 0.0, 1.7401441205142052E9, 0.0, 2025-02-21 10:22:00.514
213.0, 87117.15336050432, 87024.79595241499, 87187.60605902744, 87158.41468076881, 87168.96470415172, 87163.64498897135, 87142.50023871663, 87141.09207881596, 0.058, 0.928, 0.342, 192.0, 0.0, 0.0, 0.0, 0.0, 0.0, 0.0, 0.0, 0.0, 0.0, 1.7401441205142298E9, 0.0, 2025-02-21 10:22:00.514
214.0, 87075.06502569497, 86982.70761760564, 87145.42831724028, 87116.23693898164, 87126.85401759793, 87121.55665416202, 87100.36720041839, 87099.00374400661, 0.058, 0.928, 0.342, 192.0, 0.0, 0.0, 0.0, 0.0, 0.0, 0.0, 0.0, 0.0, 0.0, 1.740144120514254E9, 0.0, 2025-02-21 10:22:00.514
215.0, 87035.30127230898, 86942.94386421966, 87105.59750862092, 87076.47318559566, 87087.09026421193, 87081.7034937982, 87060.51404005456, 87059.17293538725, 0.058, 0.928, 0.342, 192.0, 0.0, 0.0, 0.0, 0.0, 0.0, 0.0, 0.0, 0.0, 0.0, 1.7401441205142784E9, 0.0, 2025-02-21 10:22:00.514
216.0, 86998.64441140227, 86906.24229982404, 87068.94064771422, 87039.83867643341, 87050.45575504968, 87045.06898463596, 87023.96893787014, 87022.51607448055, 0.058, 0.928, 0.342, 192.0, 0.0, 0.0, 0.0, 0.0, 0.0, 0.0, 0.0, 0.0, 0.0, 1.7401441205143025E9, 0.0, 2025-02-21 10:22:00.514
217.0, 86959.26063767204, 86866.88087783825, 87029.55687398397, 87000.3878474698, 87010.96022259716, 87005.70756265016, 86984.47340541762, 86983.10994900584, 0.058, 0.928, 0.342, 192.0, 0.0, 0.0, 0.0, 0.0, 0.0, 0.0, 0.0, 0.0, 0.0, 1.7401441205143268E9, 0.0, 2025-02-21 10:22:00.514
218.0, 86919.13925637475, 86826.87125526325, 86989.4801961756, 86960.31116966144, 86970.83884129988, 86965.56382960842, 86944.41907935371, 86943.05562294193, 0.052000000000000005, 0.928, 0.34600000000000003, 192.0, 1.0, 160.0, 29.0, 0.0, 10.0, 208.0, 0.0, 0.0, 0.0, 1.7401441205143511E9, 0.0, 2025-02-21 10:22:00.514
219.0, 86880.44838672262, 86788.20273735556, 86950.9234369902, 86921.59794826484, 86932.1703233922, 86926.85060821184, 86905.81761667939, 86904.43180852316, 0.052000000000000005, 0.928, 0.34600000000000003, 192.0, 0.0, 0.0, 0.0, 0.0, 0.0, 0.0, 0.0, 0.0, 0.0, 1.7401441205143769E9, 0.0, 2025-02-21 10:22:00.514
220.0, 86842.51747638197, 86750.38358573719, 86912.92547141618, 86883.59998269081, 86894.32882002936, 86888.98675310455, 86867.84200284982, 86866.50089818251, 0.052000000000000005, 0.928, 0.34600000000000003, 192.0, 0.0, 0.0, 0.0, 0.0, 0.0, 0.0, 0.0, 0.0, 0.0, 1.7401441205144148E9, 0.0, 2025-02-21 10:22:00.514
221.0, 86804.09482766328, 86712.00564050743, 86874.43576746414, 86845.1996857166, 86855.97322654405, 86850.63115961924, 86829.37465064225, 86828.1006012083, 0.052000000000000005, 0.928, 0.34600000000000003, 192.0, 0.0, 0.0, 0.0, 0.0, 0.0, 0.0, 0.0, 0.0, 0.0, 1.7401441205144453E9, 0.0, 2025-02-21 10:22:00.514
222.0, 86763.59346671027, 86671.41487257658, 86833.86735127776, 86804.54186255239, 86815.44951384659, 86810.12979866622, 86788.7838827114, 86787.44277804409, 0.052000000000000005, 0.928, 0.34600000000000003, 192.0, 0.0, 0.0, 0.0, 0.0, 0.0, 0.0, 0.0, 0.0, 0.0, 1.7401441205144696E9, 0.0, 2025-02-21 10:22:00.514
223.0, 86721.75100108994, 86629.50535172288, 86792.00253391296, 86762.60998995423, 86773.51764124843, 86768.26498130143, 86746.8743618577, 86745.60031242375, 0.052000000000000005, 0.928, 0.34600000000000003, 192.0, 0.0, 0.0, 0.0, 0.0, 0.0, 0.0, 0.0, 0.0, 0.0, 1.7401441205144942E9, 0.0, 2025-02-21 10:22:00.514
224.0, 86681.31669537029, 86589.11574949215, 86751.54587644886, 86722.19803597905, 86733.10568727323, 86727.8753790707, 86706.50711137142, 86705.27776542638, 0.052000000000000005, 0.928, 0.34600000000000003, 192.0, 0.0, 0.0, 0.0, 0.0, 0.0, 0.0, 0.0, 0.0, 0.0, 1.7401441205145185E9, 0.0, 2025-02-21 10:22:00.514
225.0, 86645.03981411933, 86552.79416475227, 86715.24664345344, 86685.85409949471, 86696.73939904445, 86691.55379433082, 86670.09611965372, 86668.86677370868, 0.052000000000000005, 0.928, 0.34600000000000003, 192.0, 0.0, 0.0, 0.0, 0.0, 0.0, 0.0, 0.0, 0.0, 0.0, 1.7401441205145428E9, 0.0, 2025-02-21 10:22:00.514
226.0, 86602.6385548876, 86510.39290552055, 86672.89008771064, 86643.4975437519, 86654.36049155719, 86649.197238588, 86627.67250867756, 86626.46551447696, 0.052000000000000005, 0.928, 0.34600000000000003, 192.0, 0.0, 0.0, 0.0, 0.0, 0.0, 0.0, 0.0, 0.0, 0.0, 1.740144120514567E9, 0.0, 2025-02-21 10:22:00.514
227.0, 86561.44428985647, 86469.17628874497, 86631.67347093504, 86602.23622348742, 86613.1438747816, 86607.9359183235, 86586.43354015751, 86585.24889770137, 0.052000000000000005, 0.928, 0.34600000000000003, 192.0, 0.0, 0.0, 0.0, 0.0, 0.0, 0.0, 0.0, 0.0, 0.0, 1.7401441205145912E9, 0.0, 2025-02-21 10:22:00.514
228.0, 86525.27916732778, 86433.03351796074, 86595.32953445072, 86566.00404572536, 86576.91169701955, 86571.74844405038, 86550.22371413991, 86549.06142342824, 0.054, 0.9380000000000001, 0.35000000000000003, 192.0, 1.0, 176.0, 29.0, 80.0, 10.0, 240.0, 0.0, 0.0, 0.0, 1.7401441205146155E9, 0.0, 2025-02-21 10:22:00.514
229.0, 86487.52707094277, 86395.393180298, 86557.59978981016, 86528.36370806262, 86539.20430412344, 86534.01869940982, 86512.49396949935, 86511.33167878768, 0.054, 0.9380000000000001, 0.35000000000000003, 192.0, 0.0, 0.0, 0.0, 0.0, 0.0, 0.0, 0.0, 0.0, 0.0, 1.7401441205146415E9, 0.0, 2025-02-21 10:22:00.514
230.0, 86446.84689603411, 86354.57889492261, 86516.83020792367, 86487.57177443168, 86498.41237049252, 86493.29382101224, 86471.76909110179, 86470.6068003901, 0.054, 0.9380000000000001, 0.35000000000000003, 192.0, 0.0, 0.0, 0.0, 0.0, 0.0, 0.0, 0.0, 0.0, 0.0, 1.7401441205146656E9, 0.0, 2025-02-21 10:22:00.514
231.0, 86403.57391876864, 86311.39532463496, 86473.57958240266, 86444.32114891066, 86455.07233799367, 86450.17730595796, 86428.49611383631, 86427.28911963572, 0.054, 0.9380000000000001, 0.35000000000000003, 192.0, 0.0, 0.0, 0.0, 0.0, 0.0, 0.0, 0.0, 0.0, 0.0, 1.7401441205146897E9, 0.0, 2025-02-21 10:22:00.514
232.0, 86363.36313049354, 86271.18453635985, 86433.36879412757, 86404.13271238003, 86414.9956601853, 86409.9441659384, 86388.2406220723, 86387.10068310508, 0.054, 0.9380000000000001, 0.35000000000000003, 192.0, 0.0, 0.0, 0.0, 0.0, 0.0, 0.0, 0.0, 0.0, 0.0, 1.740144120514714E9, 0.0, 2025-02-21 10:22:00.514
233.0, 86325.85690329754, 86233.6559574194, 86395.8402151871, 86366.5370782062, 86377.4894329893, 86372.30382827566, 86350.71204313183, 86349.57210416462, 0.054, 0.9380000000000001, 0.35000000000000003, 192.0, 0.0, 0.0, 0.0, 0.0, 0.0, 0.0, 0.0, 0.0, 0.0, 1.7401441205147383E9, 0.0, 2025-02-21 10:22:00.514
234.0, 86286.24961212273, 86194.02631450014, 86356.16586877893, 86326.90743528694, 86337.8821418145, 86332.71888884532, 86311.19415893486, 86310.03186822317, 0.054, 0.9380000000000001, 0.35000000000000003, 192.0, 0.0, 0.0, 0.0, 0.0, 0.0, 0.0, 0.0, 0.0, 0.0, 1.7401441205147626E9, 0.0, 2025-02-21 10:22:00.514
235.0, 86243.17780055736, 86150.88744770139, 86313.11640895801, 86283.90267895492, 86294.78797850467, 86289.69178076884, 86267.98823690275, 86266.9153531689, 0.054, 0.9380000000000001, 0.35000000000000003, 192.0, 0.0, 0.0, 0.0, 0.0, 0.0, 0.0, 0.0, 0.0, 0.0, 1.7401441205147867E9, 0.0, 2025-02-21 10:22:00.514
236.0, 86202.13999773741, 86109.89434837036, 86272.14566137144, 86242.82017264607, 86253.77252742917, 86248.67632969336, 86226.9504340828, 86225.85519860449, 0.054, 0.9380000000000001, 0.35000000000000003, 192.0, 0.0, 0.0, 0.0, 0.0, 0.0, 0.0, 0.0, 0.0, 0.0, 1.7401441205148253E9, 0.0, 2025-02-21 10:22:00.514
237.0, 86164.85728798596, 86072.70104559672, 86234.86295161999, 86205.55981463907, 86216.46746593327, 86211.43832343082, 86189.69007607581, 86188.68424757532, 0.054, 0.9380000000000001, 0.35000000000000003, 192.0, 0.0, 0.0, 0.0, 0.0, 0.0, 0.0, 0.0, 0.0, 0.0, 1.7401441205148675E9, 0.0, 2025-02-21 10:22:00.514
238.0, 86128.1780753348, 86036.02183294557, 86198.20609071328, 86168.85825024346, 86179.81060502656, 86174.6920555463, 86152.98851168019, 86151.98268317971, 0.052000000000000005, 0.9420000000000001, 0.354, 192.0, 1.0, 160.0, 29.0, 112.0, 11.0, 16.0, 0.0, 0.0, 0.0, 1.7401441205148923E9, 0.0, 2025-02-21 10:22:00.514
239.0, 86085.32978121398, 85993.1958905692, 86155.20133438127, 86125.96525263373, 86136.85055218346, 86131.79905793656, 86110.05081058155, 86109.00027859215, 0.052000000000000005, 0.9420000000000001, 0.354, 192.0, 0.0, 0.0, 0.0, 0.0, 0.0, 0.0, 0.0, 0.0, 0.0, 1.7401441205149183E9, 0.0, 2025-02-21 10:22:00.514
240.0, 86044.22492316067, 85952.06868077144, 86113.98471760568, 86084.74863585814, 86095.81274936351, 86090.76125511662, 86068.92360078379, 86067.89542053884, 0.052000000000000005, 0.9420000000000001, 0.354, 192.0, 0.0, 0.0, 0.0, 0.0, 0.0, 0.0, 0.0, 0.0, 0.0, 1.740144120514943E9, 0.0, 2025-02-21 10:22:00.514
241.0, 86006.67399247576, 85914.49539834207, 86076.45613866522, 86047.13064993986, 86058.23946693414, 86053.25502792062, 86031.37267009886, 86030.36684159838, 0.052000000000000005, 0.9420000000000001, 0.354, 192.0, 0.0, 0.0, 0.0, 0.0, 0.0, 0.0, 0.0, 0.0, 0.0, 1.7401441209925127E9, 0.0, 2025-02-21 10:22:00.992
242.0, 85967.4466809567, 85875.29043856746, 86037.31823412397, 86007.94804190971, 86018.98980367063, 86014.00536465709, 85992.16771032425, 85991.20658531268, 0.052000000000000005, 0.9420000000000001, 0.354, 192.0, 0.0, 0.0, 0.0, 0.0, 0.0, 0.0, 0.0, 0.0, 0.0, 1.7401441209925725E9, 0.0, 2025-02-21 10:22:00.992
243.0, 85926.90061651476, 85834.74437412553, 85996.7498179376, 85967.46903270115, 85978.48844271761, 85973.48165195962, 85951.64399762679, 85950.6381691263, 0.052000000000000005, 0.9420000000000001, 0.354, 192.0, 0.0, 0.0, 0.0, 0.0, 0.0, 0.0, 0.0, 0.0, 0.0, 1.7401441209926107E9, 0.0, 2025-02-21 10:22:00.992
244.0, 85886.44395905065, 85794.3547718948, 85956.27080872904, 85926.99002349259, 85938.05413699796, 85933.02499449551, 85911.14263667377, 85910.02504945101, 0.052000000000000005, 0.9420000000000001, 0.354, 192.0, 0.0, 0.0, 0.0, 0.0, 0.0, 0.0, 0.0, 0.0, 0.0, 1.7401441209926448E9, 0.0, 2025-02-21 10:22:00.992
245.0, 85848.51304871, 85756.4462132986, 85918.27284315502, 85888.99205791856, 85900.05617142394, 85895.0270289215, 85873.12231935529, 85872.16119434372, 0.052000000000000005, 0.9420000000000001, 0.354, 192.0, 0.0, 0.0, 0.0, 0.0, 0.0, 0.0, 0.0, 0.0, 0.0, 1.74014412099267E9, 0.0, 2025-02-21 10:22:00.992
246.0, 85811.6550221032, 85719.47642796951, 85881.28070608148, 85852.02227258949, 85863.17579307269, 85858.05724359241, 85836.15253402622, 85835.258464248, 0.052000000000000005, 0.9420000000000001, 0.354, 192.0, 0.0, 0.0, 0.0, 0.0, 0.0, 0.0, 0.0, 0.0, 0.0, 1.740144120992695E9, 0.0, 2025-02-21 10:22:00.992
247.0, 85773.29942861789, 85681.1208344842, 85842.90276085172, 85813.5549203819, 85824.77549609846, 85819.61224312929, 85797.752237052, 85796.8581672738, 0.052000000000000005, 0.9420000000000001, 0.354, 192.0, 0.0, 0.0, 0.0, 0.0, 0.0, 0.0, 0.0, 0.0, 0.0, 1.74014412099272E9, 0.0, 2025-02-21 10:22:00.992
248.0, 85731.36755601973, 85639.14425839714, 85800.97088825356, 85771.60069603928, 85782.8436235003, 85777.72507402004, 85755.8427161983, 85754.88159118671, 0.046, 0.9420000000000001, 0.352, 192.0, 1.0, 112.0, 29.0, 112.0, 11.0, 0.0, 0.0, 0.0, 0.0, 1.7401441209927447E9, 0.0, 2025-02-21 10:22:00.992
249.0, 85691.40263693365, 85599.22404279996, 85761.02832091192, 85731.65812869766, 85742.94575964758, 85737.84956191177, 85715.96720409003, 85714.983727334, 0.046, 0.9420000000000001, 0.352, 192.0, 0.0, 0.0, 0.0, 0.0, 0.0, 0.0, 0.0, 0.0, 0.0, 1.740144120992771E9, 0.0, 2025-02-21 10:22:00.992
250.0, 85652.84587774824, 85560.66728361456, 85722.3821547487, 85693.16842474561, 85704.27724173991, 85699.24809923746, 85677.41044490463, 85676.42696814859, 0.046, 0.9420000000000001, 0.352, 192.0, 0.0, 0.0, 0.0, 0.0, 0.0, 0.0, 0.0, 0.0, 0.0, 1.7401441209927955E9, 0.0, 2025-02-21 10:22:00.992
251.0, 85613.88678716264, 85521.75289651786, 85683.46776765201, 85654.29874113784, 85665.36285464322, 85660.44547086305, 85638.38429908566, 85637.55728454082, 0.046, 0.9420000000000001, 0.352, 192.0, 0.0, 0.0, 0.0, 0.0, 0.0, 0.0, 0.0, 0.0, 0.0, 1.7401441209928975E9, 0.0, 2025-02-21 10:22:00.992
252.0, 85574.72653087694, 85482.59264023216, 85644.24045613295, 85615.02672612986, 85626.15789486861, 85621.24051108844, 85599.20169105551, 85598.37467651066, 0.046, 0.9420000000000001, 0.352, 192.0, 0.0, 0.0, 0.0, 0.0, 0.0, 0.0, 0.0, 0.0, 0.0, 1.740144120992923E9, 0.0, 2025-02-21 10:22:00.992
253.0, 85536.61680658064, 85444.46056419141, 85606.06367660328, 85576.96170532248, 85588.09287406121, 85583.13078679214, 85561.11431850366, 85560.26495221436, 0.046, 0.9420000000000001, 0.352, 192.0, 0.0, 0.0, 0.0, 0.0, 0.0, 0.0, 0.0, 0.0, 0.0, 1.7401441209929705E9, 0.0, 2025-02-21 10:22:00.992
254.0, 85498.79765496227, 85406.59670908413, 85568.19982149599, 85538.9860914929, 85550.20666720947, 85545.2445799404, 85523.16105641855, 85522.26698664034, 0.046, 0.9420000000000001, 0.352, 192.0, 0.0, 0.0, 0.0, 0.0, 0.0, 0.0, 0.0, 0.0, 0.0, 1.7401441209929955E9, 0.0, 2025-02-21 10:22:00.992
255.0, 85456.99989283085, 85364.86600218607, 85526.44676285348, 85497.16597761703, 85508.45360856695, 85503.44681780897, 85481.38564603159, 85480.42452102, 0.046, 0.9420000000000001, 0.352, 192.0, 0.0, 0.0, 0.0, 0.0, 0.0, 0.0, 0.0, 0.0, 0.0, 1.7401441209930243E9, 0.0, 2025-02-21 10:22:00.993
0.0, 85416.49853187782, 85324.36464123306, 85485.92305015601, 85456.66461666401, 85467.95224761394, 85462.96780860041, 85440.95134031193, 85439.99021530035, 0.046, 0.9420000000000001, 0.352, 192.0, 0.0, 0.0, 0.0, 0.0, 0.0, 0.0, 0.0, 0.0, 0.0, 1.7401441209930494E9, 0.0, 2025-02-21 10:22:00.993
1.0, 85376.8018337252, 85284.64559133597, 85446.22635200339, 85416.94556676692, 85428.27790120577, 85423.29346219223, 85401.16523518148, 85400.33822063664, 0.046, 0.9420000000000001, 0.352, 192.0, 0.0, 0.0, 0.0, 0.0, 0.0, 0.0, 0.0, 0.0, 0.0, 1.740144120993074E9, 0.0, 2025-02-21 10:22:00.993
2.0, 85338.40153675099, 85246.2229426173, 85407.66959281798, 85378.43351107044, 85389.83290074265, 85384.78140649575, 85362.60847599608, 85361.82616494014, 0.048, 0.9420000000000001, 0.35000000000000003, 192.0, 1.0, 128.0, 29.0, 112.0, 10.0, 240.0, 0.0, 0.0, 0.0, 1.7401441209930985E9, 0.0, 2025-02-21 10:22:00.993
3.0, 85298.05663800915, 85205.94509910884, 85367.36939756507, 85338.06626058415, 85349.5997607231, 85344.50356298729, 85322.28592899871, 85321.59302492058, 0.048, 0.9420000000000001, 0.35000000000000003, 192.0, 0.0, 0.0, 0.0, 0.0, 0.0, 0.0, 0.0, 0.0, 0.0, 1.7401441209931247E9, 0.0, 2025-02-21 10:22:00.993
4.0, 85256.72826251129, 85164.63907535543, 85326.08572555611, 85296.80494031965, 85308.1819782474, 85303.17518748943, 85280.95755350085, 85280.30935291164, 0.048, 0.9420000000000001, 0.35000000000000003, 192.0, 0.0, 0.0, 0.0, 0.0, 0.0, 0.0, 0.0, 0.0, 0.0, 1.7401441209931853E9, 0.0, 2025-02-21 10:22:00.993
5.0, 85214.99755561323, 85122.90836845737, 85284.39972214696, 85254.94012295487, 85266.42891960489, 85261.53388756918, 85239.22684660279, 85238.57864601359, 0.048, 0.9420000000000001, 0.35000000000000003, 192.0, 0.0, 0.0, 0.0, 0.0, 0.0, 0.0, 0.0, 0.0, 0.0, 1.7401441209932113E9, 0.0, 2025-02-21 10:22:00.993
6.0, 85176.7537208502, 85084.66453369433, 85246.15588738392, 85216.5621777251, 85228.1180296085, 85223.24534931724, 85200.91595660639, 85200.22305252828, 0.048, 0.9420000000000001, 0.35000000000000003, 192.0, 0.0, 0.0, 0.0, 0.0, 0.0, 0.0, 0.0, 0.0, 0.0, 1.7401441209932363E9, 0.0, 2025-02-21 10:22:00.993
7.0, 85137.25818839767, 85045.07959426398, 85206.4591892313, 85177.04429352812, 85188.53309017814, 85183.57100290907, 85161.28631368713, 85160.66046484238, 0.048, 0.9420000000000001, 0.35000000000000003, 192.0, 0.0, 0.0, 0.0, 0.0, 0.0, 0.0, 0.0, 0.0, 0.0, 1.740144120993261E9, 0.0, 2025-02-21 10:22:00.993
8.0, 85095.95216464427, 85003.70651527721, 85165.06375850008, 85135.6935662858, 85147.16001119137, 85142.24262741121, 85119.93558644482, 85119.26503411116, 0.048, 0.9420000000000001, 0.35000000000000003, 192.0, 0.0, 0.0, 0.0, 0.0, 0.0, 0.0, 0.0, 0.0, 0.0, 1.7401441209932857E9, 0.0, 2025-02-21 10:22:00.993
9.0, 85054.33321646848, 84962.1993258237, 85123.44481032429, 85094.11932159893, 85105.56341476005, 85100.60132749096, 85078.33899001348, 85077.66843767982, 0.048, 0.9420000000000001, 0.35000000000000003, 192.0, 0.0, 0.0, 0.0, 0.0, 0.0, 0.0, 0.0, 0.0, 0.0, 1.74014412099331E9, 0.0, 2025-02-21 10:22:00.993
10.0, 85016.37995438337, 84924.35782246088, 85085.62565870592, 85056.25546649164, 85067.6325044194, 85062.8268793615, 85040.5198383951, 85039.826934317, 0.048, 0.9420000000000001, 0.35000000000000003, 192.0, 0.0, 0.0, 0.0, 0.0, 0.0, 0.0, 0.0, 0.0, 0.0, 1.740144120993335E9, 0.0, 2025-02-21 10:22:00.993
11.0, 84977.80084345351, 84885.80106327547, 85047.06889952051, 85017.60930032842, 85029.07574523399, 85024.15836145382, 85001.9183757208, 85001.27017513159, 0.048, 0.9420000000000001, 0.35000000000000003, 192.0, 0.0, 0.0, 0.0, 0.0, 0.0, 0.0, 0.0, 0.0, 0.0, 1.7401441209933753E9, 0.0, 2025-02-21 10:22:00.993
12.0, 84936.4501162112, 84844.49503952207, 85005.69582053374, 84976.2585730861, 84987.74736973613, 84982.80763421151, 84960.54529673401, 84959.8970961448, 0.04, 0.936, 0.352, 192.0, 1.0, 64.0, 29.0, 64.0, 11.0, 0.0, 0.0, 0.0, 0.0, 1.7401441209934E9, 0.0, 2025-02-21 10:22:00.993
13.0, 84896.08286572491, 84804.0160303135, 84965.26151481409, 84935.86897085536, 84947.38011924984, 84942.52979070303, 84920.06628752545, 84919.48514216962, 0.04, 0.936, 0.352, 192.0, 0.0, 0.0, 0.0, 0.0, 0.0, 0.0, 0.0, 0.0, 0.0, 1.7401441209934337E9, 0.0, 2025-02-21 10:22:00.993
14.0, 84859.7836327295, 84767.78385255145, 84928.91757832975, 84899.5920896044, 84911.05853450997, 84906.25290945207, 84883.72235104113, 84883.20826091865, 0.04, 0.936, 0.352, 192.0, 0.0, 0.0, 0.0, 0.0, 0.0, 0.0, 0.0, 0.0, 0.0, 1.7401441209934585E9, 0.0, 2025-02-21 10:22:00.993
15.0, 84821.60685319983, 84729.71883174406, 84890.785502289, 84861.43766181919, 84872.92645846921, 84868.09848166686, 84845.63497848928, 84845.05383313344, 0.04, 0.936, 0.352, 192.0, 0.0, 0.0, 0.0, 0.0, 0.0, 0.0, 0.0, 0.0, 0.0, 1.7401441209934828E9, 0.0, 2025-02-21 10:22:00.993
16.0, 84780.27847770197, 84688.4351597351, 84849.34536806887, 84819.97517585459, 84831.5757312269, 84826.79245791346, 84804.28425124697, 84803.59134716885, 0.04, 0.936, 0.352, 192.0, 0.0, 0.0, 0.0, 0.0, 0.0, 0.0, 0.0, 0.0, 0.0, 1.740144120993511E9, 0.0, 2025-02-21 10:22:00.993
17.0, 84740.67118652716, 84648.67140634912, 84809.69337340516, 84780.25612595752, 84791.9684400521, 84787.27457371648, 84764.63225658325, 84763.98405599405, 0.04, 0.936, 0.352, 192.0, 0.0, 0.0, 0.0, 0.0, 0.0, 0.0, 0.0, 0.0, 0.0, 1.7401441209935355E9, 0.0, 2025-02-21 10:22:00.993
18.0, 84702.22618606403, 84610.24875763044, 84771.22602119757, 84741.83347723883, 84753.54579133342, 84748.74016627553, 84726.0978491423, 84725.62846250874, 0.04, 0.936, 0.352, 192.0, 0.0, 0.0, 0.0, 0.0, 0.0, 0.0, 0.0, 0.0, 0.0, 1.7401441209935603E9, 0.0, 2025-02-21 10:22:00.993
19.0, 84663.91529606764, 84571.89316414513, 84732.89277945671, 84703.50023549798, 84715.21254959257, 84710.38457279022, 84687.742255657, 84687.31757251234, 0.04, 0.936, 0.352, 192.0, 0.0, 0.0, 0.0, 0.0, 0.0, 0.0, 0.0, 0.0, 0.0, 1.7401441209935849E9, 0.0, 2025-02-21 10:22:00.993
20.0, 84623.19041767006, 84531.1012305142, 84692.1902528036, 84662.79770884487, 84674.44296770608, 84669.6373426482, 84647.01737725943, 84646.5256388814, 0.04, 0.936, 0.352, 192.0, 0.0, 0.0, 0.0, 0.0, 0.0, 0.0, 0.0, 0.0, 0.0, 1.7401441209936097E9, 0.0, 2025-02-21 10:22:00.993
21.0, 84583.42666428408, 84491.40453236157, 84652.44885116206, 84623.1233624367, 84634.70156606456, 84629.8735892622, 84607.29832736234, 84606.73953375097, 0.04, 0.936, 0.352, 192.0, 0.0, 0.0, 0.0, 0.0, 0.0, 0.0, 0.0, 0.0, 0.0, 1.7401441209936347E9, 0.0, 2025-02-21 10:22:00.993
22.0, 84544.33346323174, 84452.44544177597, 84613.35565010973, 84584.05251312883, 84595.58601326776, 84590.8697951877, 84568.24982979892, 84567.66868444308, 0.044, 0.93, 0.354, 192.0, 1.0, 96.0, 29.0, 16.0, 11.0, 16.0, 0.0, 0.0, 0.0, 1.7401441209936595E9, 0.0, 2025-02-21 10:22:00.993
23.0, 84506.55901510228, 84414.6262901576, 84575.55885023582, 84546.14395453263, 84557.76686164939, 84553.09534705822, 84530.38597469163, 84529.89423631362, 0.044, 0.93, 0.354, 192.0, 0.0, 0.0, 0.0, 0.0, 0.0, 0.0, 0.0, 0.0, 0.0, 1.7401441209936855E9, 0.0, 2025-02-21 10:22:00.993
24.0, 84465.85648844916, 84373.96846699339, 84534.65515788259, 84505.37437264614, 84517.01963150736, 84512.37046866065, 84489.54933757179, 84489.12465442714, 0.044, 0.93, 0.354, 192.0, 0.0, 0.0, 0.0, 0.0, 0.0, 0.0, 0.0, 0.0, 0.0, 1.7401441209937105E9, 0.0, 2025-02-21 10:22:00.993
25.0, 84422.96349083942, 84331.12017287257, 84491.82921550622, 84462.48137503641, 84474.19368913099, 84469.54452628428, 84446.6786917065, 84446.2316568174, 0.044, 0.93, 0.354, 192.0, 0.0, 0.0, 0.0, 0.0, 0.0, 0.0, 0.0, 0.0, 0.0, 1.7401441209937348E9, 0.0, 2025-02-21 10:22:00.993
26.0, 84385.1666909655, 84293.32337299864, 84454.05476737676, 84424.63987167357, 84436.30748227924, 84431.77007815482, 84408.92659532149, 84408.43485694348, 0.044, 0.93, 0.354, 192.0, 0.0, 0.0, 0.0, 0.0, 0.0, 0.0, 0.0, 0.0, 0.0, 1.7401441209937594E9, 0.0, 2025-02-21 10:22:00.993
