%OpenBCI Raw EXG Data
%Number of channels = 8
%Sample Rate = 250 Hz
%Board = OpenBCI_GUI$BoardCytonSerial
Sample Index, EXG Channel 0, EXG Channel 1, EXG Channel 2, EXG Channel 3, EXG Channel 4, EXG Channel 5, EXG Channel 6, EXG Channel 7, Accel Channel 0, Accel Channel 1, Accel Channel 2, Not Used, Digital Channel 0 (D11), Digital Channel 1 (D12), Digital Channel 2 (D13), Digital Channel 3 (D17), Not Used, Digital Channel 4 (D18), Analog Channel 0, Analog Channel 1, Analog Channel 2, Timestamp, Marker Channel, Timestamp (Formatted)
0.0, 0.0, 0.0, 0.0, 0.0, 0.0, 0.0, 0.0, 0.0, -0.032, 0.9500000000000001, 0.266, 192.0, 255.0, 0.0, 29.0, 176.0, 8.0, 80.0, 0.0, 0.0, 0.0, 1.7401428762421975E9, 0.0, 2025-02-21 10:01:16.242
1.0, -461054.43967037677, -334882.7314237036, -735205.9167868992, -482541.26102224126, -469332.45293288864, -460026.326480666, -479330.1870620474, -482652.8409305622, -0.032, 0.9500000000000001, 0.266, 192.0, 0.0, 0.0, 0.0, 0.0, 0.0, 0.0, 0.0, 0.0, 0.0, 1.7401428762582693E9, 0.0, 2025-02-21 10:01:16.258
2.0, -491559.29584017943, -334878.3951852793, -711975.569960543, -467755.31384412217, -481477.0944687241, -475202.9374483749, -460347.2528275553, -471058.52169496083, -0.032, 0.9500000000000001, 0.266, 192.0, 0.0, 0.0, 0.0, 0.0, 0.0, 0.0, 0.0, 0.0, 0.0, 1.7401428767296653E9, 0.0, 2025-02-21 10:01:16.729
3.0, -495608.44845872506, -334874.1483538328, -704628.7303720391, -461922.9167011877, -484020.70063599356, -483165.7464105781, -455355.7283110295, -465162.1538593953, -0.032, 0.9500000000000001, 0.266, 192.0, 0.0, 0.0, 0.0, 0.0, 0.0, 0.0, 0.0, 0.0, 0.0, 1.74014287672973E9, 0.0, 2025-02-21 10:01:16.729
4.0, -464862.8192976498, -334869.0074526081, -727939.9458098348, -478042.05602908804, -477231.96175479435, -472478.28215101745, -474212.26343062683, -477337.7749130458, -0.032, 0.9500000000000001, 0.266, 192.0, 0.0, 0.0, 0.0, 0.0, 0.0, 0.0, 0.0, 0.0, 0.0, 1.7401428767297666E9, 0.0, 2025-02-21 10:01:16.729
5.0, -457573.6472098407, -334862.8830746273, -737956.3883491026, -483259.08729542344, -468205.3215152409, -459442.00717711536, -480913.83050845034, -483158.1021139744, -0.032, 0.9500000000000001, 0.266, 192.0, 0.0, 0.0, 0.0, 0.0, 0.0, 0.0, 0.0, 0.0, 0.0, 1.7401428767297976E9, 0.0, 2025-02-21 10:01:16.729
6.0, -486357.86609147384, -334861.0055280931, -717129.7034179812, -471145.6264431032, -479813.8564603158, -472180.89219103963, -463994.6551912612, -473711.6290583169, -0.032, 0.9500000000000001, 0.266, 192.0, 0.0, 0.0, 0.0, 0.0, 0.0, 0.0, 0.0, 0.0, 0.0, 1.7401428767298324E9, 0.0, 2025-02-21 10:01:16.729
7.0, -498571.21688976494, -334858.14450480277, -703777.9335710923, -460544.1269927177, -484046.51690083946, -483032.9099932802, -453817.48125761526, -464478.45869999635, -0.032, 0.9500000000000001, 0.266, 192.0, 0.0, 0.0, 0.0, 0.0, 0.0, 0.0, 0.0, 0.0, 0.0, 1.7401428767298613E9, 0.0, 2025-02-21 10:01:16.729
8.0, -470012.30359224125, -334851.9754233331, -724296.5667601308, -475500.19329788606, -479364.18406536395, -475520.30986789585, -470951.166266342, -475097.8618976906, -0.048, 0.9500000000000001, 0.28400000000000003, 192.0, 254.0, 128.0, 29.0, 176.0, 8.0, 224.0, 0.0, 0.0, 0.0, 1.7401428767299228E9, 0.0, 2025-02-21 10:01:16.729
9.0, -455348.75456675945, -334850.00846982107, -739670.4542244023, -483486.1363156005, -467908.66916283005, -459751.73530003254, -481701.05894816626, -483223.4809665062, -0.048, 0.9500000000000001, 0.28400000000000003, 192.0, 0.0, 0.0, 0.0, 0.0, 0.0, 0.0, 0.0, 0.0, 0.0, 1.7401428767299435E9, 0.0, 2025-02-21 10:01:16.729
10.0, -480673.9068834671, -334849.7849523765, -722460.7285810385, -474453.9304916776, -477765.25202575355, -469008.7773214314, -467783.14176596905, -476288.0922899357, -0.048, 0.9500000000000001, 0.28400000000000003, 192.0, 0.0, 0.0, 0.0, 0.0, 0.0, 0.0, 0.0, 0.0, 0.0, 1.7401428767299645E9, 0.0, 2025-02-21 10:01:16.729
11.0, -500132.70975741267, -334845.94045233016, -704118.0377147243, -460143.1366971895, -483937.6862570866, -482391.2584652017, -453227.99870109546, -464529.62184305454, -0.048, 0.9500000000000001, 0.28400000000000003, 192.0, 0.0, 0.0, 0.0, 0.0, 0.0, 0.0, 0.0, 0.0, 0.0, 1.740142876729986E9, 0.0, 2025-02-21 10:01:16.729
12.0, -476014.9092692029, -334840.2631092385, -720186.6173966668, -472453.0023280385, -481240.1883292423, -478324.3585615586, -467201.4376165197, -472575.2440184646, -0.048, 0.9500000000000001, 0.28400000000000003, 192.0, 0.0, 0.0, 0.0, 0.0, 0.0, 0.0, 0.0, 0.0, 0.0, 1.7401428767300045E9, 0.0, 2025-02-21 10:01:16.730
13.0, -454562.1519758883, -334840.0842952829, -740159.68920704, -483245.4080278168, -468711.05208528665, -461199.12251223595, -481610.46732788894, -482812.7006069065, -0.048, 0.9500000000000001, 0.28400000000000003, 192.0, 0.0, 0.0, 0.0, 0.0, 0.0, 0.0, 0.0, 0.0, 0.0, 1.740142876730024E9, 0.0, 2025-02-21 10:01:16.730
14.0, -474854.04906917206, -334837.40208594827, -727700.6927371852, -477400.20333530946, -475382.6454737956, -465936.7759152384, -471490.5585635375, -478589.8972856876, -0.048, 0.9500000000000001, 0.28400000000000003, 192.0, 0.0, 0.0, 0.0, 0.0, 0.0, 0.0, 0.0, 0.0, 0.0, 1.7401428767300427E9, 0.0, 2025-02-21 10:01:16.730
15.0, -499968.2009182216, -334835.5692429029, -705823.6546306199, -460919.3010234, -483667.25250092184, -481204.582000325, -453804.94192897587, -465406.23490884725, -0.048, 0.9500000000000001, 0.28400000000000003, 192.0, 0.0, 0.0, 0.0, 0.0, 0.0, 0.0, 0.0, 0.0, 0.0, 1.7401428767302024E9, 0.0, 2025-02-21 10:01:16.730
16.0, -482014.38570194074, -334828.2825742105, -716300.9007335784, -469278.0711386289, -482550.6487549125, -480493.59536094614, -463514.2044441944, -470119.8154830713, -0.048, 0.9500000000000001, 0.28400000000000003, 192.0, 0.0, 0.0, 0.0, 0.0, 0.0, 0.0, 0.0, 0.0, 0.0, 1.7401428767302232E9, 0.0, 2025-02-21 10:01:16.730
17.0, -455376.11310197273, -334824.4380741642, -739402.2332909385, -482537.908260573, -470435.0421351245, -463574.420043757, -480647.7553424544, -481925.0904828418, -0.048, 0.9500000000000001, 0.28400000000000003, 192.0, 0.0, 0.0, 0.0, 0.0, 0.0, 0.0, 0.0, 0.0, 0.0, 1.7401428767302427E9, 0.0, 2025-02-21 10:01:16.730
18.0, -469251.8078388939, -334824.5721846309, -732576.6810866215, -479784.1509919347, -472893.15287985245, -463194.75331243913, -474858.7429355077, -480471.66829963546, -0.052000000000000005, 0.9440000000000001, 0.294, 192.0, 254.0, 96.0, 29.0, 128.0, 9.0, 48.0, 0.0, 0.0, 0.0, 1.7401428767303002E9, 0.0, 2025-02-21 10:01:16.730
19.0, -498137.59304733196, -334818.49251013907, -708766.1723811832, -462731.5357603474, -483145.22750916815, -479432.04396153026, -455448.93508540816, -467016.231061963, -0.052000000000000005, 0.9440000000000001, 0.294, 192.0, 0.0, 0.0, 0.0, 0.0, 0.0, 0.0, 0.0, 0.0, 0.0, 1.7401428767303271E9, 0.0, 2025-02-21 10:01:16.730
20.0, -487535.80302426853, -334815.7208938266, -712981.9349028987, -466227.66151757975, -483304.7519093456, -481928.9126311437, -460119.1979788778, -467953.2608930184, -0.052000000000000005, 0.9440000000000001, 0.294, 192.0, 0.0, 0.0, 0.0, 0.0, 0.0, 0.0, 0.0, 0.0, 0.0, 1.7401428767303476E9, 0.0, 2025-02-21 10:01:16.730
21.0, -457554.1564886757, -334813.8880507813, -737683.2053283699, -481373.4270779404, -472586.9116290703, -466424.26746180863, -478980.62813051086, -480650.43755178904, -0.052000000000000005, 0.9440000000000001, 0.294, 192.0, 0.0, 0.0, 0.0, 0.0, 0.0, 0.0, 0.0, 0.0, 0.0, 1.7401428767303667E9, 0.0, 2025-02-21 10:01:16.730
22.0, -464269.06755793904, -334809.4624053791, -736805.45232361, -481539.72405668785, -470658.9395593333, -461080.36769394495, -477646.2960417624, -481862.7291158115, -0.052000000000000005, 0.9440000000000001, 0.294, 192.0, 0.0, 0.0, 0.0, 0.0, 0.0, 0.0, 0.0, 0.0, 0.0, 1.7401428767303855E9, 0.0, 2025-02-21 10:01:16.730
23.0, -494820.68357714225, -334803.1592134427, -712752.740115254, -465385.5818969705, -482295.838868122, -477137.4138757484, -458005.48291271727, -469190.6311143197, -0.052000000000000005, 0.9440000000000001, 0.294, 192.0, 0.0, 0.0, 0.0, 0.0, 0.0, 0.0, 0.0, 0.0, 0.0, 1.7401428767304254E9, 0.0, 2025-02-21 10:01:16.730
24.0, -492674.3796675658, -334794.88906799426, -710175.4051656014, -463423.4787134503, -483749.9986588954, -482805.0563103028, -457056.11491872254, -466078.2624576405, -0.052000000000000005, 0.9440000000000001, 0.294, 192.0, 0.0, 0.0, 0.0, 0.0, 0.0, 0.0, 0.0, 0.0, 0.0, 1.7401428767304509E9, 0.0, 2025-02-21 10:01:16.730
25.0, -461384.88786040404, -334793.547963327, -734731.2998451352, -479570.78123936435, -475261.4766671034, -469921.4661027749, -476397.05704415526, -478814.6664279302, -0.052000000000000005, 0.9440000000000001, 0.294, 192.0, 0.0, 0.0, 0.0, 0.0, 0.0, 0.0, 0.0, 0.0, 0.0, 1.74014287673047E9, 0.0, 2025-02-21 10:01:16.730
26.0, -460006.5004833342, -334792.5644865709, -740273.8172142288, -482678.1207535411, -468928.7804280258, -459771.85187004233, -479788.57663733687, -482736.9952484364, -0.052000000000000005, 0.9440000000000001, 0.294, 192.0, 0.0, 0.0, 0.0, 0.0, 0.0, 0.0, 0.0, 0.0, 0.0, 1.7401428767304888E9, 0.0, 2025-02-21 10:01:16.730
27.0, -490283.81589458184, -334788.6305795468, -717522.3788645719, -468586.5975721595, -480998.7224338916, -474378.2251332075, -461298.0289814507, -471723.64255471743, -0.052000000000000005, 0.9440000000000001, 0.294, 192.0, 0.0, 0.0, 0.0, 0.0, 0.0, 0.0, 0.0, 0.0, 0.0, 1.7401428767305079E9, 0.0, 2025-02-21 10:01:16.730
28.0, -496552.8543654507, -334784.7413760116, -708507.8756222577, -461424.9645382124, -483919.5813440778, -483070.79620013194, -454872.99768602825, -464897.4197980666, -0.054, 0.9380000000000001, 0.302, 192.0, 254.0, 80.0, 29.0, 80.0, 9.0, 112.0, 0.0, 0.0, 0.0, 1.7401428767305267E9, 0.0, 2025-02-21 10:01:16.730
29.0, -466123.63649888476, -334783.35556785535, -731279.9669837913, -477350.5154073853, -477720.0567984649, -473249.7526108924, -473389.16044106014, -476739.4410657217, -0.054, 0.9380000000000001, 0.302, 192.0, 0.0, 0.0, 0.0, 0.0, 0.0, 0.0, 0.0, 0.0, 0.0, 1.7401428767305467E9, 0.0, 2025-02-21 10:01:16.730
30.0, -456899.07156217954, -334778.8405154754, -742734.8783892249, -483258.68496402324, -468022.99833571893, -459422.1588280391, -481138.8678716264, -483126.51909905905, -0.054, 0.9380000000000001, 0.302, 192.0, 0.0, 0.0, 0.0, 0.0, 0.0, 0.0, 0.0, 0.0, 0.0, 1.7401428767306056E9, 0.0, 2025-02-21 10:01:16.730
31.0, -484948.3650861222, -334777.45470731915, -722728.5471831021, -471969.5340954702, -479265.21054091584, -471339.7513436975, -464980.97061884054, -474363.7412028005, -0.054, 0.9380000000000001, 0.302, 192.0, 0.0, 0.0, 0.0, 0.0, 0.0, 0.0, 0.0, 0.0, 0.0, 1.7401428767306252E9, 0.0, 2025-02-21 10:01:16.730
32.0, -499193.6682693563, -334775.97949218506, -707934.2851560456, -460263.50084108126, -483920.38600687817, -482820.74723491044, -453546.4440043502, -464375.93124817987, -0.054, 0.9380000000000001, 0.302, 192.0, 0.0, 0.0, 0.0, 0.0, 0.0, 0.0, 0.0, 0.0, 0.0, 1.7401428767306445E9, 0.0, 2025-02-21 10:01:16.730
33.0, -471575.9422273567, -334768.33519558137, -727435.8245653898, -474653.75508710806, -479828.54155642295, -476279.3080543647, -469952.51267582335, -474396.0618252828, -0.054, 0.9380000000000001, 0.302, 192.0, 0.0, 0.0, 0.0, 0.0, 0.0, 0.0, 0.0, 0.0, 0.0, 1.740142876730664E9, 0.0, 2025-02-21 10:01:16.730
34.0, -454987.5503763617, -334762.83666644536, -744161.6796447849, -483356.85382567096, -467994.03047490487, -460035.6471581039, -481700.3213405993, -483062.28018549446, -0.054, 0.9380000000000001, 0.302, 192.0, 0.0, 0.0, 0.0, 0.0, 0.0, 0.0, 0.0, 0.0, 0.0, 1.7401428767306828E9, 0.0, 2025-02-21 10:01:16.730
35.0, -479186.44299345533, -334763.1942943566, -728070.5694044316, -475191.2027825359, -477092.62097985996, -468162.3391106533, -468768.98780691484, -476871.3387097524, -0.054, 0.9380000000000001, 0.302, 192.0, 0.0, 0.0, 0.0, 0.0, 0.0, 0.0, 0.0, 0.0, 0.0, 1.7401428767307017E9, 0.0, 2025-02-21 10:01:16.730
36.0, -500321.6267015489, -334761.45085828914, -708621.735408513, -460173.51271790423, -483769.64584227157, -482047.1310075678, -453265.81785271387, -464637.44665830693, -0.054, 0.9380000000000001, 0.302, 192.0, 0.0, 0.0, 0.0, 0.0, 0.0, 0.0, 0.0, 0.0, 0.0, 1.7401428767307203E9, 0.0, 2025-02-21 10:01:16.730
37.0, -477602.0619394853, -334757.38284079824, -723371.0704292144, -471594.3600647879, -481539.8581671546, -478896.1385364698, -466249.3874131903, -471897.91910623544, -0.054, 0.9380000000000001, 0.302, 192.0, 0.0, 0.0, 0.0, 0.0, 0.0, 0.0, 0.0, 0.0, 0.0, 1.7401428767307394E9, 0.0, 2025-02-21 10:01:16.730
38.0, -454630.36949996586, -334754.83474193036, -744310.0058209903, -483006.89256273425, -469060.87923775666, -461742.7392891335, -481388.5145054477, -482538.8470338401, -0.054, 0.9400000000000001, 0.308, 192.0, 254.0, 80.0, 29.0, 96.0, 9.0, 160.0, 0.0, 0.0, 0.0, 1.7401428767307653E9, 0.0, 2025-02-21 10:01:16.730
39.0, -473383.4830979685, -334752.33134655136, -733239.4550132102, -478005.71209260373, -474690.6354654593, -465165.1713448967, -472421.08403695637, -479067.79993388656, -0.054, 0.9400000000000001, 0.308, 192.0, 0.0, 0.0, 0.0, 0.0, 0.0, 0.0, 0.0, 0.0, 0.0, 1.7401428767307856E9, 0.0, 2025-02-21 10:01:16.730
40.0, -499706.50669413886, -334747.1904453266, -710670.0045669085, -461244.65301569144, -483445.83612034755, -480715.2799624539, -454138.40760450455, -465729.7764098378, -0.054, 0.9400000000000001, 0.308, 192.0, 0.0, 0.0, 0.0, 0.0, 0.0, 0.0, 0.0, 0.0, 0.0, 1.7401428767308044E9, 0.0, 2025-02-21 10:01:16.730
41.0, -483572.0340695422, -334739.63555570075, -719561.5285112297, -468397.568869301, -482689.4530879799, -480872.45742946357, -462574.02301717084, -469475.7499665916, -0.054, 0.9400000000000001, 0.308, 192.0, 0.0, 0.0, 0.0, 0.0, 0.0, 0.0, 0.0, 0.0, 0.0, 1.7401428767308228E9, 0.0, 2025-02-21 10:01:16.730
42.0, -455865.7057125218, -334733.33236376435, -743233.0987731337, -482162.73422989063, -470968.73473748384, -464313.50282591616, -480198.2841132026, -481524.56957394717, -0.054, 0.9400000000000001, 0.308, 192.0, 0.0, 0.0, 0.0, 0.0, 0.0, 0.0, 0.0, 0.0, 0.0, 1.7401428767308419E9, 0.0, 2025-02-21 10:01:16.730
43.0, -467873.95690369094, -334728.81731138437, -737989.2454134519, -480226.3802559829, -472247.8133139388, -462583.2766393753, -475657.70604106266, -480810.76661476697, -0.054, 0.9400000000000001, 0.308, 192.0, 0.0, 0.0, 0.0, 0.0, 0.0, 0.0, 0.0, 0.0, 0.0, 1.7401428767308605E9, 0.0, 2025-02-21 10:01:16.730
44.0, -497457.65298100153, -334728.99612534, -713923.3903793562, -463317.866720899, -482853.26902309293, -478809.0337883275, -456058.8024328712, -467499.6322392979, -0.054, 0.9400000000000001, 0.308, 192.0, 0.0, 0.0, 0.0, 0.0, 0.0, 0.0, 0.0, 0.0, 0.0, 1.7401428767308788E9, 0.0, 2025-02-21 10:01:16.730
45.0, -488964.7947507852, -334725.68806716066, -716404.0316824951, -465424.27276662266, -483328.82473812404, -482116.13084270136, -459296.8996521115, -467390.801595545, -0.054, 0.9400000000000001, 0.308, 192.0, 0.0, 0.0, 0.0, 0.0, 0.0, 0.0, 0.0, 0.0, 0.0, 1.7401428767309065E9, 0.0, 2025-02-21 10:01:16.730
46.0, -458366.06125427026, -334727.43150322814, -741292.7885404574, -480886.67313893716, -473179.81400249177, -467266.41413765127, -478372.23599818186, -480160.1296854174, -0.054, 0.9400000000000001, 0.308, 192.0, 0.0, 0.0, 0.0, 0.0, 0.0, 0.0, 0.0, 0.0, 0.0, 1.740142876730925E9, 0.0, 2025-02-21 10:01:16.730
47.0, -463073.9644854027, -334720.9494973361, -742038.7109564198, -481807.6767692181, -470123.70468660654, -460639.54658979736, -478259.44909566035, -482060.6761647077, -0.054, 0.9400000000000001, 0.308, 192.0, 0.0, 0.0, 0.0, 0.0, 0.0, 0.0, 0.0, 0.0, 0.0, 1.7401428767309437E9, 0.0, 2025-02-21 10:01:16.730
48.0, -493770.3304016984, -334716.3003344894, -718165.7067734846, -466149.8103916419, -481914.02636933647, -476399.73925348994, -458833.48093431967, -469792.18361284543, -0.062, 0.934, 0.304, 192.0, 254.0, 16.0, 29.0, 48.0, 9.0, 128.0, 0.0, 0.0, 0.0, 1.7401428767309623E9, 0.0, 2025-02-21 10:01:16.730
49.0, -493801.71225091367, -334711.51706117595, -713885.973559138, -462815.95829915506, -483697.89674257004, -482824.9717146125, -456443.967693325, -465682.10013891465, -0.062, 0.934, 0.304, 192.0, 0.0, 0.0, 0.0, 0.0, 0.0, 0.0, 0.0, 0.0, 0.0, 1.7401428767309823E9, 0.0, 2025-02-21 10:01:16.730
50.0, -462513.1145135301, -334704.7668343505, -738149.77564213, -478975.93426417524, -475839.29161301756, -470758.5836361151, -475656.70021256217, -478253.14590372395, -0.062, 0.934, 0.304, 192.0, 0.0, 0.0, 0.0, 0.0, 0.0, 0.0, 0.0, 0.0, 0.0, 1.7401428767310016E9, 0.0, 2025-02-21 10:01:16.731
51.0, -459117.6163098355, -334707.49374717404, -745230.9423960379, -482787.89017056115, -468628.5070930132, -459604.6831732611, -480174.27833965764, -482797.5461241658, -0.062, 0.934, 0.304, 192.0, 0.0, 0.0, 0.0, 0.0, 0.0, 0.0, 0.0, 0.0, 0.0, 1.7401428767310205E9, 0.0, 2025-02-21 10:01:16.731
52.0, -488994.38846044405, -334709.0583692859, -723065.8350069326, -469422.5081112991, -480519.81395719224, -473576.24454215105, -462240.1550102419, -472363.1483153282, -0.062, 0.934, 0.304, 192.0, 0.0, 0.0, 0.0, 0.0, 0.0, 0.0, 0.0, 0.0, 0.0, 1.74014287673108E9, 0.0, 2025-02-21 10:01:16.731
53.0, -497458.3682368241, -334701.27996221546, -712428.8633380965, -460967.98312282364, -483819.1326044956, -482957.9422423771, -454414.6081107388, -464622.6274517331, -0.062, 0.934, 0.304, 192.0, 0.0, 0.0, 0.0, 0.0, 0.0, 0.0, 0.0, 0.0, 0.0, 1.7401428767310994E9, 0.0, 2025-02-21 10:01:16.731
54.0, -467571.85072563303, -334699.4024156812, -734479.5744990796, -476602.1790030216, -478271.72020336636, -474079.22584762884, -472469.2296945131, -476066.0724122611, -0.062, 0.934, 0.304, 192.0, 0.0, 0.0, 0.0, 0.0, 0.0, 0.0, 0.0, 0.0, 0.0, 1.740142876731119E9, 0.0, 2025-02-21 10:01:16.731
55.0, -456284.66681059205, -334698.5530493919, -747437.3277947102, -483233.6733619778, -467942.0626690463, -459511.8116750493, -481319.0452836806, -483059.66503139323, -0.062, 0.934, 0.304, 192.0, 0.0, 0.0, 0.0, 0.0, 0.0, 0.0, 0.0, 0.0, 0.0, 1.740142876731138E9, 0.0, 2025-02-21 10:01:16.731
56.0, -483438.63885863294, -334697.52486914693, -728393.7756292553, -472823.7507133187, -478658.3606789542, -470458.6455772693, -466020.12557031226, -475010.48892861477, -0.062, 0.934, 0.304, 192.0, 0.0, 0.0, 0.0, 0.0, 0.0, 0.0, 0.0, 0.0, 0.0, 1.7401428767311575E9, 0.0, 2025-02-21 10:01:16.731
57.0, -499672.97907745594, -334692.07104349986, -712222.3332193296, -460108.06681013905, -483780.9111214771, -482569.1559993215, -453399.59304327884, -464330.8030761246, -0.062, 0.934, 0.304, 192.0, 0.0, 0.0, 0.0, 0.0, 0.0, 0.0, 0.0, 0.0, 0.0, 1.7401428767311766E9, 0.0, 2025-02-21 10:01:16.731
58.0, -473246.9586428355, -334690.1934969656, -730525.9979398248, -473792.9000011564, -480293.30137888214, -477023.35292379296, -468953.5908643712, -473664.28806356055, -0.06, 0.9420000000000001, 0.31, 192.0, 254.0, 32.0, 29.0, 112.0, 9.0, 176.0, 0.0, 0.0, 0.0, 1.7401428767311952E9, 0.0, 2025-02-21 10:01:16.731
59.0, -454772.7948156351, -334686.08077598584, -748519.0628193693, -483203.7667278966, -468223.89581488323, -460442.3371484682, -481636.6188689016, -482866.27773836587, -0.06, 0.9420000000000001, 0.31, 192.0, 0.0, 0.0, 0.0, 0.0, 0.0, 0.0, 0.0, 0.0, 0.0, 1.7401428767312157E9, 0.0, 2025-02-21 10:01:16.731
60.0, -477605.1911837091, -334682.2362759395, -733725.6054551131, -475951.40796320536, -476448.0190215134, -467330.18366458226, -469811.0931886546, -477449.2877661333, -0.06, 0.9420000000000001, 0.31, 192.0, 0.0, 0.0, 0.0, 0.0, 0.0, 0.0, 0.0, 0.0, 0.0, 1.740142876731261E9, 0.0, 2025-02-21 10:01:16.731
61.0, -500360.2505159677, -334677.76592704846, -713270.5406273056, -460319.55901617516, -483596.71039542084, -481649.2923080078, -453420.2460551555, -464822.58615763026, -0.06, 0.9420000000000001, 0.31, 192.0, 0.0, 0.0, 0.0, 0.0, 0.0, 0.0, 0.0, 0.0, 0.0, 1.7401428767312827E9, 0.0, 2025-02-21 10:01:16.731
62.0, -479206.0231215982, -334673.8320200243, -726561.021990898, -470685.22521081276, -481773.8138763683, -479395.0965279456, -465271.0515583815, -471191.62633319217, -0.06, 0.9420000000000001, 0.31, 192.0, 0.0, 0.0, 0.0, 0.0, 0.0, 0.0, 0.0, 0.0, 0.0, 1.7401428767313037E9, 0.0, 2025-02-21 10:01:16.731
63.0, -454777.0863505705, -334672.7144328016, -748403.0572656462, -482742.4937775724, -469450.6042540794, -462315.05570591165, -481131.1565197893, -482242.79817852954, -0.06, 0.9420000000000001, 0.31, 192.0, 0.0, 0.0, 0.0, 0.0, 0.0, 0.0, 0.0, 0.0, 0.0, 1.740142876731324E9, 0.0, 2025-02-21 10:01:16.731
64.0, -471871.78991696716, -334665.2489501535, -738793.2376615093, -478597.34041659127, -474021.15601553395, -464419.78537080117, -473351.20717897505, -479517.0029422049, -0.06, 0.9420000000000001, 0.31, 192.0, 0.0, 0.0, 0.0, 0.0, 0.0, 0.0, 0.0, 0.0, 0.0, 1.740142876731358E9, 0.0, 2025-02-21 10:01:16.731
65.0, -499267.339619081, -334663.013775708, -715670.3133190052, -461692.24669840897, -483218.0494926035, -480176.4241071253, -454591.3657058914, -466112.93001329066, -0.06, 0.9420000000000001, 0.31, 192.0, 0.0, 0.0, 0.0, 0.0, 0.0, 0.0, 0.0, 0.0, 0.0, 1.7401428767313795E9, 0.0, 2025-02-21 10:01:16.731
66.0, -485034.46400576405, -334659.7057175286, -722915.8995051265, -467543.41930668586, -482767.1030482177, -481156.63750846835, -461702.90848051413, -468860.78642139275, -0.06, 0.9420000000000001, 0.31, 192.0, 0.0, 0.0, 0.0, 0.0, 0.0, 0.0, 0.0, 0.0, 0.0, 1.7401428767314017E9, 0.0, 2025-02-21 10:01:16.731
67.0, -456335.09234608326, -334662.7008512856, -747107.1478256164, -481808.4143767851, -471423.43627493817, -464985.7985956429, -479788.91191350366, -481158.9173864028, -0.06, 0.9420000000000001, 0.31, 192.0, 0.0, 0.0, 0.0, 0.0, 0.0, 0.0, 0.0, 0.0, 0.0, 1.7401428767314618E9, 0.0, 2025-02-21 10:01:16.731
68.0, -466563.25060883176, -334658.1857989056, -743346.4221175221, -480633.2714120473, -471656.7214318182, -462005.5287486945, -476389.2786370848, -481124.2498307526, -0.062, 0.9400000000000001, 0.306, 192.0, 254.0, 16.0, 29.0, 96.0, 9.0, 144.0, 0.0, 0.0, 0.0, 1.740142876731482E9, 0.0, 2025-02-21 10:01:16.731
69.0, -496591.03114498034, -334652.508455814, -719218.742158263, -464000.28783086396, -482564.9315196194, -478153.7700478757, -456761.2730576126, -468062.89619957167, -0.062, 0.9400000000000001, 0.306, 192.0, 0.0, 0.0, 0.0, 0.0, 0.0, 0.0, 0.0, 0.0, 0.0, 1.7401428767315035E9, 0.0, 2025-02-21 10:01:16.731
70.0, -490447.251850039, -334649.42391507915, -719802.2567990132, -464596.0065240868, -483371.1365903779, -482300.53273445764, -458438.12327839417, -466819.2898415673, -0.062, 0.9400000000000001, 0.306, 192.0, 0.0, 0.0, 0.0, 0.0, 0.0, 0.0, 0.0, 0.0, 0.0, 1.7401428767315233E9, 0.0, 2025-02-21 10:01:16.731
71.0, -459486.4200933481, -334648.7086592566, -744642.1974470852, -480326.9631060318, -473951.88795946696, -468283.9773039791, -477621.485605417, -479589.3555390067, -0.062, 0.9400000000000001, 0.306, 192.0, 0.0, 0.0, 0.0, 0.0, 0.0, 0.0, 0.0, 0.0, 0.0, 1.740142876731542E9, 0.0, 2025-02-21 10:01:16.731
72.0, -461960.84761152836, -334645.75822898844, -747162.6695588434, -482045.521681967, -469703.5365943357, -460341.28491178574, -478816.2086982976, -482227.44253008877, -0.062, 0.9400000000000001, 0.306, 192.0, 0.0, 0.0, 0.0, 0.0, 0.0, 0.0, 0.0, 0.0, 0.0, 1.7401428767315612E9, 0.0, 2025-02-21 10:01:16.731
73.0, -492610.36427144584, -334639.72325798555, -723626.4167578717, -466959.971721169, -481514.7124546424, -475656.63315732876, -459717.06774438237, -470424.91679488623, -0.062, 0.9400000000000001, 0.306, 192.0, 0.0, 0.0, 0.0, 0.0, 0.0, 0.0, 0.0, 0.0, 0.0, 1.7401428767315805E9, 0.0, 2025-02-21 10:01:16.731
74.0, -494936.10798550944, -334634.1800253606, -717587.8247723371, -462205.8897859919, -483648.34292511264, -482829.6655809481, -455832.6921859613, -465298.074817428, -0.062, 0.9400000000000001, 0.306, 192.0, 0.0, 0.0, 0.0, 0.0, 0.0, 0.0, 0.0, 0.0, 0.0, 1.7401428767316098E9, 0.0, 2025-02-21 10:01:16.731
75.0, -463895.61461157975, -334631.497816026, -741344.4210701492, -478297.7376339123, -476542.96923195955, -471722.03322911664, -474787.39616720635, -477608.61100061075, -0.062, 0.9400000000000001, 0.306, 192.0, 0.0, 0.0, 0.0, 0.0, 0.0, 0.0, 0.0, 0.0, 0.0, 1.7401428767316303E9, 0.0, 2025-02-21 10:01:16.731
76.0, -458277.4589392494, -334627.3850950462, -750110.1493966758, -482858.8346074623, -468407.4930438391, -459540.0419282963, -480515.8576984236, -482819.6072959432, -0.062, 0.9400000000000001, 0.306, 192.0, 0.0, 0.0, 0.0, 0.0, 0.0, 0.0, 0.0, 0.0, 0.0, 1.7401428767316535E9, 0.0, 2025-02-21 10:01:16.731
77.0, -487557.8865477904, -334628.6367927357, -728707.7282318745, -470314.4097702992, -480004.5615440085, -472731.95209884073, -463281.18750824785, -473055.3594893646, -0.062, 0.9400000000000001, 0.306, 192.0, 0.0, 0.0, 0.0, 0.0, 0.0, 0.0, 0.0, 0.0, 0.0, 1.7401428767316756E9, 0.0, 2025-02-21 10:01:16.731
78.0, -498272.8658047755, -334623.80881593336, -716440.3756189795, -460588.6516676726, -483718.5497544467, -482817.0591970753, -454044.1279463921, -464415.6279463325, -0.066, 0.9380000000000001, 0.314, 192.0, 253.0, 240.0, 29.0, 80.0, 9.0, 208.0, 0.0, 0.0, 0.0, 1.7401428767316985E9, 0.0, 2025-02-21 10:01:16.731
79.0, -469298.0312464275, -334619.65139146463, -737466.6169245979, -475754.26557710953, -478914.37755994534, -475011.49475711526, -471431.14762677526, -475301.37453095615, -0.066, 0.9380000000000001, 0.314, 192.0, 0.0, 0.0, 0.0, 0.0, 0.0, 0.0, 0.0, 0.0, 0.0, 1.7401428767317204E9, 0.0, 2025-02-21 10:01:16.731
80.0, -455805.8924443594, -334615.5833739738, -751984.47727972, -483158.035058741, -468028.9662514885, -459776.21046021115, -481400.7185579203, -482936.41751246667, -0.066, 0.9380000000000001, 0.314, 192.0, 0.0, 0.0, 0.0, 0.0, 0.0, 0.0, 0.0, 0.0, 0.0, 1.7401428767317405E9, 0.0, 2025-02-21 10:01:16.731
81.0, -481895.2062005051, -334613.5270134839, -734050.5551160044, -473656.37554602337, -478052.71781119326, -469612.27442172467, -467073.2950655574, -475643.02094495547, -0.066, 0.9380000000000001, 0.314, 192.0, 0.0, 0.0, 0.0, 0.0, 0.0, 0.0, 0.0, 0.0, 0.0, 1.7401428767317593E9, 0.0, 2025-02-21 10:01:16.731
82.0, -500106.51351291104, -334607.6708564366, -716546.7252190978, -459998.6997245193, -483632.652000505, -482280.3491092145, -453288.750742525, -464309.81478808104, -0.066, 0.9380000000000001, 0.314, 192.0, 0.0, 0.0, 0.0, 0.0, 0.0, 0.0, 0.0, 0.0, 0.0, 1.740142876731816E9, 0.0, 2025-02-21 10:01:16.731
83.0, -474949.62512846297, -334604.00517034595, -733588.6786685799, -472906.3627608255, -480697.77854654536, -477702.3542168563, -467934.61953814264, -472910.18490912736, -0.066, 0.9380000000000001, 0.314, 192.0, 0.0, 0.0, 0.0, 0.0, 0.0, 0.0, 0.0, 0.0, 0.0, 1.7401428767318351E9, 0.0, 2025-02-21 10:01:16.731
84.0, -454687.8581867049, -334600.7418156555, -752769.0235101014, -483017.3531791393, -468525.84553073, -460920.5080176006, -481501.1002422691, -482634.8030727867, -0.066, 0.9380000000000001, 0.314, 192.0, 0.0, 0.0, 0.0, 0.0, 0.0, 0.0, 0.0, 0.0, 0.0, 1.740142876731854E9, 0.0, 2025-02-21 10:01:16.731
85.0, -476043.877130017, -334597.61257143173, -739347.9185519122, -476673.99515795655, -475775.05269945296, -466509.1593872499, -470821.6826107124, -478000.1465082344, -0.066, 0.9380000000000001, 0.314, 192.0, 0.0, 0.0, 0.0, 0.0, 0.0, 0.0, 0.0, 0.0, 0.0, 1.7401428767318735E9, 0.0, 2025-02-21 10:01:16.731
86.0, -500233.29260746157, -334596.9420190981, -718026.2318880835, -460576.5146704334, -483411.9732274978, -481226.71022733575, -453671.4349593443, -465070.6905210842, -0.066, 0.9380000000000001, 0.314, 192.0, 0.0, 0.0, 0.0, 0.0, 0.0, 0.0, 0.0, 0.0, 0.0, 1.7401428767318923E9, 0.0, 2025-02-21 10:01:16.731
87.0, -480890.18236281665, -334591.39878647315, -729701.218569424, -469773.1399265695, -482024.86867009033, -479905.6550747937, -464271.7274155292, -470478.42687111226, -0.066, 0.9380000000000001, 0.314, 192.0, 0.0, 0.0, 0.0, 0.0, 0.0, 0.0, 0.0, 0.0, 0.0, 1.740142876731923E9, 0.0, 2025-02-21 10:01:16.731
88.0, -455121.83965704916, -334587.3754724712, -752312.2432604127, -482425.79191038513, -469979.200658703, -463050.31633976893, -480750.75218090444, -481881.3034154539, -0.056, 0.9400000000000001, 0.31, 192.0, 254.0, 64.0, 29.0, 96.0, 9.0, 176.0, 0.0, 0.0, 0.0, 1.740142876731944E9, 0.0, 2025-02-21 10:01:16.731
89.0, -470409.89642261225, -334586.5708096708, -744275.2712101068, -479129.8930799834, -473360.7960773464, -463742.8627899722, -474206.4966805574, -479929.5937931054, -0.056, 0.9400000000000001, 0.31, 192.0, 0.0, 0.0, 0.0, 0.0, 0.0, 0.0, 0.0, 0.0, 0.0, 1.7401428767319736E9, 0.0, 2025-02-21 10:01:16.731
90.0, -498722.58290321624, -334585.58733291476, -720723.595705461, -462188.65659101686, -482981.27746358846, -479625.02892315737, -455102.72891553986, -466532.0252218277, -0.056, 0.9400000000000001, 0.31, 192.0, 0.0, 0.0, 0.0, 0.0, 0.0, 0.0, 0.0, 0.0, 0.0, 1.740142876731994E9, 0.0, 2025-02-21 10:01:16.731
91.0, -486717.8185841821, -334581.87694333517, -726105.7169563434, -466618.9958595033, -482911.741186588, -481502.0390155362, -460728.52888447396, -468163.21082868706, -0.056, 0.9400000000000001, 0.31, 192.0, 0.0, 0.0, 0.0, 0.0, 0.0, 0.0, 0.0, 0.0, 0.0, 1.7401428767320132E9, 0.0, 2025-02-21 10:01:16.732
92.0, -457249.09988034965, -334577.76422235544, -750569.7459661658, -481332.99277222075, -472226.89208112867, -466003.22765150404, -479135.3916091194, -480632.1985283135, -0.056, 0.9400000000000001, 0.31, 192.0, 0.0, 0.0, 0.0, 0.0, 0.0, 0.0, 0.0, 0.0, 0.0, 1.740142876732033E9, 0.0, 2025-02-21 10:01:16.732
93.0, -465274.44902353873, -334574.7243851095, -748629.703954423, -480989.7370326206, -471110.55655605276, -461532.85640869814, -477089.4693838918, -481387.5757321806, -0.056, 0.9400000000000001, 0.31, 192.0, 0.0, 0.0, 0.0, 0.0, 0.0, 0.0, 0.0, 0.0, 0.0, 1.7401428767320528E9, 0.0, 2025-02-21 10:01:16.732
94.0, -495693.74271556654, -334572.6233211307, -724505.9131986992, -464690.6214583661, -482237.36670462694, -477489.31974045275, -457507.1954735751, -468598.8686798655, -0.056, 0.9400000000000001, 0.31, 192.0, 0.0, 0.0, 0.0, 0.0, 0.0, 0.0, 0.0, 0.0, 0.0, 1.7401428767320728E9, 0.0, 2025-02-21 10:01:16.732
95.0, -491864.62066943897, -334567.1247919947, -723251.5780033562, -463820.51275020995, -483380.1219916489, -482431.08927382104, -457659.3437980824, -466270.040425067, -0.056, 0.9400000000000001, 0.31, 192.0, 0.0, 0.0, 0.0, 0.0, 0.0, 0.0, 0.0, 0.0, 0.0, 1.7401428767320924E9, 0.0, 2025-02-21 10:01:16.732
96.0, -460712.5473871884, -334565.64957686065, -747904.9709922042, -479720.24735453696, -474726.04062867654, -469310.6599820447, -476813.93942999124, -478967.284139071, -0.056, 0.9400000000000001, 0.31, 192.0, 0.0, 0.0, 0.0, 0.0, 0.0, 0.0, 0.0, 0.0, 0.0, 1.7401428767321117E9, 0.0, 2025-02-21 10:01:16.732
97.0, -460822.9650047976, -334561.7156698365, -752274.9605506612, -482234.55038482556, -469267.94579839066, -460046.4430506758, -479332.3998847485, -482352.2323193827, -0.056, 0.9400000000000001, 0.31, 192.0, 0.0, 0.0, 0.0, 0.0, 0.0, 0.0, 0.0, 0.0, 0.0, 1.740142876732169E9, 0.0, 2025-02-21 10:01:16.732
98.0, -491323.976674554, -334556.9323965231, -729174.2985456346, -467824.98423158936, -481062.8942922228, -474843.1861213668, -460699.42691319314, -471096.6090675127, -0.06, 0.9400000000000001, 0.306, 192.0, 254.0, 32.0, 29.0, 96.0, 9.0, 144.0, 0.0, 0.0, 0.0, 1.7401428767321887E9, 0.0, 2025-02-21 10:01:16.732
99.0, -495983.7789516186, -334552.9090825211, -721364.6437364393, -461648.459631021, -483568.2119212404, -482772.9368535205, -455294.84215913323, -464938.5917113533, -0.06, 0.9400000000000001, 0.306, 192.0, 0.0, 0.0, 0.0, 0.0, 0.0, 0.0, 0.0, 0.0, 0.0, 1.7401428767322092E9, 0.0, 2025-02-21 10:01:16.732
100.0, -465127.37454502285, -334550.3609836532, -744660.0341391604, -477632.54971892235, -477051.7172875068, -472520.1916718712, -473983.20275344886, -476993.7815658786, -0.06, 0.9400000000000001, 0.306, 192.0, 0.0, 0.0, 0.0, 0.0, 0.0, 0.0, 0.0, 0.0, 0.0, 1.7401428767322285E9, 0.0, 2025-02-21 10:01:16.732
101.0, -457476.6406389047, -334548.43873363006, -754947.2457107599, -482892.8316107788, -468165.69187232165, -459456.3569970557, -480800.57421929535, -482812.23122027295, -0.06, 0.9400000000000001, 0.306, 192.0, 0.0, 0.0, 0.0, 0.0, 0.0, 0.0, 0.0, 0.0, 0.0, 1.740142876732247E9, 0.0, 2025-02-21 10:01:16.732
102.0, -486046.9086226116, -334545.3988963841, -734361.4231778888, -471218.04609513836, -479470.5336654823, -471868.95124542137, -464337.6427099279, -473749.1129337684, -0.06, 0.9400000000000001, 0.306, 192.0, 0.0, 0.0, 0.0, 0.0, 0.0, 0.0, 0.0, 0.0, 0.0, 1.740142876732266E9, 0.0, 2025-02-21 10:01:16.732
103.0, -498930.9011615397, -334543.7001638055, -720553.543633645, -460306.7514666023, -483601.5383722232, -482622.5990203141, -453778.9244984299, -464289.89938377135, -0.06, 0.9400000000000001, 0.306, 192.0, 0.0, 0.0, 0.0, 0.0, 0.0, 0.0, 0.0, 0.0, 0.0, 1.7401428767322848E9, 0.0, 2025-02-21 10:01:16.732
104.0, -470820.27445081173, -334541.24147191545, -740605.7406193902, -474967.37241356046, -479392.81665001117, -475769.62122555036, -470506.1206824924, -474618.95342099114, -0.06, 0.9400000000000001, 0.306, 192.0, 0.0, 0.0, 0.0, 0.0, 0.0, 0.0, 0.0, 0.0, 0.0, 1.7401428767323122E9, 0.0, 2025-02-21 10:01:16.732
105.0, -455442.006044627, -334536.458198602, -756443.6502985538, -483062.6154616613, -468133.97474693955, -460062.06692005007, -481442.02458167373, -482803.3128742353, -0.06, 0.9400000000000001, 0.306, 192.0, 0.0, 0.0, 0.0, 0.0, 0.0, 0.0, 0.0, 0.0, 0.0, 1.740142876732333E9, 0.0, 2025-02-21 10:01:16.732
106.0, -480360.1777982924, -334529.2609368874, -739660.6641603309, -474449.3036805754, -477452.0370307013, -468792.5912490596, -468109.7007524611, -476261.0690308892, -0.06, 0.9400000000000001, 0.306, 192.0, 0.0, 0.0, 0.0, 0.0, 0.0, 0.0, 0.0, 0.0, 0.0, 1.7401428767323532E9, 0.0, 2025-02-21 10:01:16.732
107.0, -500300.07961989404, -334525.9081752191, -721027.221802142, -460023.0407742311, -483480.7048416978, -481967.13411416224, -453327.776888344, -464414.3538968985, -0.06, 0.9400000000000001, 0.306, 192.0, 0.0, 0.0, 0.0, 0.0, 0.0, 0.0, 0.0, 0.0, 0.0, 1.7401428767323735E9, 0.0, 2025-02-21 10:01:16.732
108.0, -476680.007777215, -334525.0588089298, -736632.7180424593, -472001.72060748585, -481076.17122842924, -478364.4575911114, -466905.0534850423, -472173.0467287358, -0.048, 0.9400000000000001, 0.312, 192.0, 254.0, 128.0, 29.0, 96.0, 9.0, 192.0, 0.0, 0.0, 0.0, 1.740142876732393E9, 0.0, 2025-02-21 10:01:16.732
109.0, -454739.4460129078, -334525.46114033, -756875.0836700301, -482796.8085165988, -468932.7366867944, -461512.60572822165, -481291.1503066004, -482369.4655143578, -0.048, 0.9400000000000001, 0.312, 192.0, 0.0, 0.0, 0.0, 0.0, 0.0, 0.0, 0.0, 0.0, 0.0, 1.7401428767324145E9, 0.0, 2025-02-21 10:01:16.732
110.0, -474502.500832379, -334521.39312283916, -744902.7740839451, -477332.67871531, -475119.1854619009, -465736.6160436411, -471801.82895682205, -478514.1248719841, -0.048, 0.9400000000000001, 0.312, 192.0, 0.0, 0.0, 0.0, 0.0, 0.0, 0.0, 0.0, 0.0, 0.0, 1.7401428767324336E9, 0.0, 2025-02-21 10:01:16.732
111.0, -500047.05787265993, -334517.32510534825, -722796.2729688017, -460860.0241971045, -483219.12237633736, -480772.34396604827, -453979.9560880609, -465346.6228063849, -0.048, 0.9400000000000001, 0.312, 192.0, 0.0, 0.0, 0.0, 0.0, 0.0, 0.0, 0.0, 0.0, 0.0, 1.7401428767324913E9, 0.0, 2025-02-21 10:01:16.732
112.0, -482618.0616161897, -334514.1511576356, -732786.966298457, -468817.53579587175, -482232.0022859576, -480359.0155075807, -463264.08842373954, -469740.61813838704, -0.048, 0.9400000000000001, 0.312, 192.0, 0.0, 0.0, 0.0, 0.0, 0.0, 0.0, 0.0, 0.0, 0.0, 1.7401428767325113E9, 0.0, 2025-02-21 10:01:16.732
113.0, -455583.26906958455, -334509.68080874457, -756101.8027188543, -482079.5857405169, -470556.4791627502, -463835.93545388407, -480325.0855594976, -481490.57257063064, -0.048, 0.9400000000000001, 0.312, 192.0, 0.0, 0.0, 0.0, 0.0, 0.0, 0.0, 0.0, 0.0, 0.0, 1.7401428767325575E9, 0.0, 2025-02-21 10:01:16.732
114.0, -468948.27114919084, -334509.23377385543, -749716.8033977513, -479636.2271471295, -472706.00172352814, -463081.3629128174, -475063.26139727375, -480318.04475999414, -0.048, 0.9400000000000001, 0.312, 192.0, 0.0, 0.0, 0.0, 0.0, 0.0, 0.0, 0.0, 0.0, 0.0, 1.740142876732577E9, 0.0, 2025-02-21 10:01:16.732
115.0, -498050.68946488976, -334504.58461100876, -725849.5659648855, -462780.4860807045, -482715.8057946928, -479020.5259943636, -455724.12976314186, -467030.5808819033, -0.048, 0.9400000000000001, 0.312, 192.0, 0.0, 0.0, 0.0, 0.0, 0.0, 0.0, 0.0, 0.0, 0.0, 1.740142876732596E9, 0.0, 2025-02-21 10:01:16.732
116.0, -488263.3076027999, -334500.1589656066, -729392.7644959408, -465751.0329188148, -482970.74979195, -481738.945155018, -459841.5893127429, -467545.43096368684, -0.048, 0.9400000000000001, 0.312, 192.0, 0.0, 0.0, 0.0, 0.0, 0.0, 0.0, 0.0, 0.0, 0.0, 1.74014287673262E9, 0.0, 2025-02-21 10:01:16.732
117.0, -458095.7839603167, -334501.27655282937, -754092.2914853444, -480858.7111066236, -472887.78846118314, -466904.8523193422, -478527.60297389067, -480141.8906619419, -0.048, 0.9400000000000001, 0.312, 192.0, 0.0, 0.0, 0.0, 0.0, 0.0, 0.0, 0.0, 0.0, 0.0, 1.740142876732643E9, 0.0, 2025-02-21 10:01:16.732
118.0, -463998.8796709633, -334494.79454693734, -753871.8138780373, -481304.8295742071, -470573.7794129586, -461087.40849344834, -477760.021717551, -481624.68303736247, -0.052000000000000005, 0.9400000000000001, 0.316, 192.0, 254.0, 96.0, 29.0, 96.0, 9.0, 224.0, 0.0, 0.0, 0.0, 1.740142876732663E9, 0.0, 2025-02-21 10:01:16.732
119.0, -494614.9581211756, -334489.8324596682, -729903.0548218555, -465484.9577528188, -481882.5774648878, -476775.31561557244, -458382.86976610066, -469235.8933968417, -0.052000000000000005, 0.9400000000000001, 0.316, 192.0, 0.0, 0.0, 0.0, 0.0, 0.0, 0.0, 0.0, 0.0, 0.0, 1.7401428767327232E9, 0.0, 2025-02-21 10:01:16.732
120.0, -493103.1755331964, -334486.16677357757, -726828.7064824947, -463134.1353814764, -483342.3698952639, -482482.7888587462, -456999.1179703615, -465824.25723365037, -0.052000000000000005, 0.9400000000000001, 0.316, 192.0, 0.0, 0.0, 0.0, 0.0, 0.0, 0.0, 0.0, 0.0, 0.0, 1.7401428767327428E9, 0.0, 2025-02-21 10:01:16.732
121.0, -461820.38924937125, -334483.8421921542, -751267.6568350383, -479129.1554724164, -475324.441531234, -470187.205992604, -476088.73708113877, -478404.95895206445, -0.052000000000000005, 0.9400000000000001, 0.316, 192.0, 0.0, 0.0, 0.0, 0.0, 0.0, 0.0, 0.0, 0.0, 0.0, 1.740142876732762E9, 0.0, 2025-02-21 10:01:16.732
122.0, -459855.22387686063, -334477.58370370674, -757243.2169012091, -482363.29643288814, -468930.7250297934, -459843.26569357706, -479758.3347270888, -482430.75399765425, -0.052000000000000005, 0.9400000000000001, 0.316, 192.0, 0.0, 0.0, 0.0, 0.0, 0.0, 0.0, 0.0, 0.0, 0.0, 1.7401428767677393E9, 0.0, 2025-02-21 10:01:16.767
123.0, -489970.71265825187, -334474.946197861, -734729.8246300012, -468702.4690154158, -480618.7874816403, -474047.97810888034, -461693.3195821428, -471795.19048871886, -0.052000000000000005, 0.9400000000000001, 0.316, 192.0, 0.0, 0.0, 0.0, 0.0, 0.0, 0.0, 0.0, 0.0, 0.0, 1.7401428767678385E9, 0.0, 2025-02-21 10:01:16.767
124.0, -497001.31976620195, -334470.2970350143, -725161.4451600844, -461117.8515693965, -483481.44244926487, -482688.4472594795, -454797.22527232475, -464648.7789927458, -0.052000000000000005, 0.9400000000000001, 0.316, 192.0, 0.0, 0.0, 0.0, 0.0, 0.0, 0.0, 0.0, 0.0, 0.0, 1.74014287676786E9, 0.0, 2025-02-21 10:01:16.767
125.0, -466681.08900560014, -334468.1065640577, -747714.2659085115, -476851.5574159095, -477698.59912378783, -473459.5684360944, -473035.17586412147, -476297.14474644006, -0.052000000000000005, 0.9400000000000001, 0.316, 192.0, 0.0, 0.0, 0.0, 0.0, 0.0, 0.0, 0.0, 0.0, 0.0, 1.7401428767678895E9, 0.0, 2025-02-21 10:01:16.767
126.0, -456798.2204911972, -334464.3961744781, -759644.8671394428, -482880.69461353956, -468076.84368811175, -459561.49960297346, -481009.6524369303, -482760.5986905812, -0.052000000000000005, 0.9400000000000001, 0.316, 192.0, 0.0, 0.0, 0.0, 0.0, 0.0, 0.0, 0.0, 0.0, 0.0, 1.7401428767680864E9, 0.0, 2025-02-21 10:01:16.768
127.0, -484554.79556975316, -334460.46226745396, -739976.3601990176, -472063.94786404946, -478899.6924638382, -471028.8162265797, -465396.44484477583, -474421.40870349517, -0.052000000000000005, 0.9400000000000001, 0.316, 192.0, 0.0, 0.0, 0.0, 0.0, 0.0, 0.0, 0.0, 0.0, 0.0, 1.7401428767681208E9, 0.0, 2025-02-21 10:01:16.768
128.0, -499502.390563773, -334458.0482790528, -724717.0030733352, -460067.9677805863, -483466.75735315774, -482395.885276304, -453576.75296983164, -464215.53512996854, -0.044, 0.9400000000000001, 0.314, 192.0, 254.0, 160.0, 29.0, 96.0, 9.0, 208.0, 0.0, 0.0, 0.0, 1.7401428772339168E9, 0.0, 2025-02-21 10:01:17.233
129.0, -472278.94929396507, -334454.1143720287, -743791.4006461384, -474147.2198542619, -479747.9411659171, -476426.4942916029, -469599.80214831856, -473954.9725002018, -0.044, 0.9400000000000001, 0.314, 192.0, 0.0, 0.0, 0.0, 0.0, 0.0, 0.0, 0.0, 0.0, 0.0, 1.7401428772339745E9, 0.0, 2025-02-21 10:01:17.233
130.0, -455062.7416447093, -334450.67220338254, -760911.5404977251, -482931.05309379735, -468182.92506729666, -460310.7077253709, -481449.0653811771, -482646.2024624589, -0.044, 0.9400000000000001, 0.314, 192.0, 0.0, 0.0, 0.0, 0.0, 0.0, 0.0, 0.0, 0.0, 0.0, 1.740142877234006E9, 0.0, 2025-02-21 10:01:17.234
131.0, -478755.5907673348, -334449.15228475956, -745305.6419260076, -475232.84408245614, -476799.92488621775, -467915.1064652332, -469172.7944222444, -476880.19000055676, -0.044, 0.9400000000000001, 0.314, 192.0, 0.0, 0.0, 0.0, 0.0, 0.0, 0.0, 0.0, 0.0, 0.0, 1.740142877234036E9, 0.0, 2025-02-21 10:01:17.234
132.0, -500449.03164494416, -334447.9899940479, -725541.9165542027, -460095.0580948661, -483323.9297060883, -481604.9017435195, -453414.3451946193, -464570.86081157456, -0.044, 0.9400000000000001, 0.314, 192.0, 0.0, 0.0, 0.0, 0.0, 0.0, 0.0, 0.0, 0.0, 0.0, 1.740142877234056E9, 0.0, 2025-02-21 10:01:17.234
133.0, -478377.3098441732, -334440.4798079109, -739691.9118990793, -471073.81028816826, -481366.3192232036, -478933.3541909879, -465896.20749905205, -471460.1154875893, -0.044, 0.9400000000000001, 0.314, 192.0, 0.0, 0.0, 0.0, 0.0, 0.0, 0.0, 0.0, 0.0, 0.0, 1.7401428772341113E9, 0.0, 2025-02-21 10:01:17.234
134.0, -454874.62936337345, -334436.94823228696, -760919.1847943289, -482537.57298440614, -469338.75612482504, -462131.7266978892, -481030.2383935736, -482075.763592215, -0.044, 0.9400000000000001, 0.314, 192.0, 0.0, 0.0, 0.0, 0.0, 0.0, 0.0, 0.0, 0.0, 0.0, 1.7401428772341344E9, 0.0, 2025-02-21 10:01:17.234
135.0, -472996.4402909804, -334434.84716830816, -750422.2244527608, -477937.9863069042, -474446.4203055406, -465001.9589068841, -472723.10080803646, -478991.0216916826, -0.044, 0.9400000000000001, 0.314, 192.0, 0.0, 0.0, 0.0, 0.0, 0.0, 0.0, 0.0, 0.0, 0.0, 1.7401428772341528E9, 0.0, 2025-02-21 10:01:17.234
136.0, -499714.6427291206, -334430.8685577951, -727669.8473298368, -461234.99706208677, -483002.6010277988, -480282.9078177104, -454367.8706130828, -465719.85223529965, -0.044, 0.9400000000000001, 0.314, 192.0, 0.0, 0.0, 0.0, 0.0, 0.0, 0.0, 0.0, 0.0, 0.0, 1.7401428772341716E9, 0.0, 2025-02-21 10:01:17.234
137.0, -484294.17422940425, -334426.62172634865, -735932.5272956523, -467893.24645915587, -482390.0514710011, -480743.1749395341, -462288.43477826536, -469072.27862742887, -0.044, 0.9400000000000001, 0.314, 192.0, 0.0, 0.0, 0.0, 0.0, 0.0, 0.0, 0.0, 0.0, 0.0, 1.7401428772341897E9, 0.0, 2025-02-21 10:01:17.234
138.0, -456217.16454233706, -334423.22426119144, -759768.2487688361, -481684.02691889135, -471199.13651932916, -464691.35906593315, -479818.483271418, -481062.4919608226, -0.052000000000000005, 0.9420000000000001, 0.308, 192.0, 254.0, 96.0, 29.0, 112.0, 9.0, 160.0, 0.0, 0.0, 0.0, 1.740142877234223E9, 0.0, 2025-02-21 10:01:17.234
139.0, -467555.93628358084, -334418.3962843891, -755090.0733578294, -480072.6226058749, -472100.29180053377, -462493.7579028318, -475855.5860347255, -480654.12558962416, -0.052000000000000005, 0.9420000000000001, 0.308, 192.0, 0.0, 0.0, 0.0, 0.0, 0.0, 0.0, 0.0, 0.0, 0.0, 1.740142877234244E9, 0.0, 2025-02-21 10:01:17.234
140.0, -497210.88972221495, -334415.4905576099, -731096.3697548354, -463457.40866153344, -482431.49160522124, -478388.7315855899, -456450.40499572817, -467605.44539754937, -0.052000000000000005, 0.9420000000000001, 0.308, 192.0, 0.0, 0.0, 0.0, 0.0, 0.0, 0.0, 0.0, 0.0, 0.0, 1.7401428772342649E9, 0.0, 2025-02-21 10:01:17.234
141.0, -489688.45482927025, -334416.6975518105, -732806.948758, -464958.0377290294, -482994.3532340948, -481909.66777916765, -459055.5008119942, -467035.81119010586, -0.052000000000000005, 0.9420000000000001, 0.308, 192.0, 0.0, 0.0, 0.0, 0.0, 0.0, 0.0, 0.0, 0.0, 0.0, 1.7401428772344532E9, 0.0, 2025-02-21 10:01:17.234
142.0, -459034.11019255046, -334415.0882262097, -757573.3968703029, -480347.884338842, -473520.65575369075, -467794.8093765747, -477887.2254952461, -479641.1221791652, -0.052000000000000005, 0.9420000000000001, 0.308, 192.0, 0.0, 0.0, 0.0, 0.0, 0.0, 0.0, 0.0, 0.0, 0.0, 1.7401428772344747E9, 0.0, 2025-02-21 10:01:17.234
143.0, -462795.90878437867, -334409.2320691624, -759068.0580220292, -481564.33332733315, -470062.3491480767, -460671.5319361129, -478357.3497363746, -481819.94787692407, -0.052000000000000005, 0.9420000000000001, 0.308, 192.0, 0.0, 0.0, 0.0, 0.0, 0.0, 0.0, 0.0, 0.0, 0.0, 1.7401428772344902E9, 0.0, 2025-02-21 10:01:17.234
144.0, -493422.7160719295, -334404.7617202713, -735391.5256728561, -466323.0140594261, -481496.67459686694, -476006.1920888653, -459296.0949893111, -469927.03168714425, -0.052000000000000005, 0.9420000000000001, 0.308, 192.0, 0.0, 0.0, 0.0, 0.0, 0.0, 0.0, 0.0, 0.0, 0.0, 1.7401428772345064E9, 0.0, 2025-02-21 10:01:17.234
145.0, -494313.8354198737, -334403.2418016484, -730462.1613576605, -462478.0669782242, -483293.0172435066, -482494.05413795164, -456338.82508740725, -465434.5322173277, -0.052000000000000005, 0.9420000000000001, 0.308, 192.0, 0.0, 0.0, 0.0, 0.0, 0.0, 0.0, 0.0, 0.0, 0.0, 1.7401428772345364E9, 0.0, 2025-02-21 10:01:17.234
146.0, -463144.59599788144, -334399.9784469579, -754493.0135599391, -478480.3290343677, -475998.07840562804, -471112.56821305375, -475259.8002862693, -477801.3277413044, -0.052000000000000005, 0.9420000000000001, 0.308, 192.0, 0.0, 0.0, 0.0, 0.0, 0.0, 0.0, 0.0, 0.0, 0.0, 1.7401428772345548E9, 0.0, 2025-02-21 10:01:17.234
147.0, -458942.02100539464, -334397.69856902346, -762174.4587629389, -482459.99007940176, -468645.94145368837, -459697.8228924064, -480136.05685663904, -482479.5702075446, -0.052000000000000005, 0.9420000000000001, 0.308, 192.0, 0.0, 0.0, 0.0, 0.0, 0.0, 0.0, 0.0, 0.0, 0.0, 1.7401428772345734E9, 0.0, 2025-02-21 10:01:17.234
148.0, -488556.47308307566, -334394.435214333, -740342.213552262, -469597.5893256175, -480129.6866094693, -473209.3183051727, -462727.3112806453, -472505.4395205307, -0.05, 0.9400000000000001, 0.312, 192.0, 254.0, 112.0, 29.0, 96.0, 9.0, 192.0, 0.0, 0.0, 0.0, 1.7401428772346013E9, 0.0, 2025-02-21 10:01:17.234
149.0, -497876.0776372049, -334394.61402828863, -729100.0013470652, -460695.1353782577, -483388.8391719865, -482568.68661268795, -454392.0104970945, -464443.9923100463, -0.05, 0.9400000000000001, 0.312, 192.0, 0.0, 0.0, 0.0, 0.0, 0.0, 0.0, 0.0, 0.0, 0.0, 1.7401428772346203E9, 0.0, 2025-02-21 10:01:17.234
150.0, -468258.49631530006, -334390.18838288647, -750793.1740037411, -476071.1686099969, -478285.1312500395, -474322.23401334696, -472090.3676259956, -475613.5166422745, -0.05, 0.9400000000000001, 0.312, 192.0, 0.0, 0.0, 0.0, 0.0, 0.0, 0.0, 0.0, 0.0, 0.0, 1.7401428772346373E9, 0.0, 2025-02-21 10:01:17.234
151.0, -456223.8700656736, -334386.4779933069, -764277.0426603607, -482839.38858978613, -468041.7738010614, -459703.9249186427, -481149.73081943166, -482677.8525326077, -0.05, 0.9400000000000001, 0.312, 192.0, 0.0, 0.0, 0.0, 0.0, 0.0, 0.0, 0.0, 0.0, 0.0, 1.740142877234652E9, 0.0, 2025-02-21 10:01:17.234
152.0, -483023.7010745646, -334384.3769293281, -745619.1921972266, -472912.80006322864, -478314.3002765537, -470173.5267249974, -466460.4102325929, -475086.26134231826, -0.05, 0.9400000000000001, 0.312, 192.0, 0.0, 0.0, 0.0, 0.0, 0.0, 0.0, 0.0, 0.0, 0.0, 1.7401428772346675E9, 0.0, 2025-02-21 10:01:17.234
153.0, -499968.46913915506, -334379.7277664814, -728982.2523572746, -459929.2305027522, -483334.32326726004, -482143.0199912811, -453442.3742821663, -464209.09782756545, -0.05, 0.9400000000000001, 0.312, 192.0, 0.0, 0.0, 0.0, 0.0, 0.0, 0.0, 0.0, 0.0, 0.0, 1.7401428772346835E9, 0.0, 2025-02-21 10:01:17.234
154.0, -474053.58839673863, -334375.2127141014, -746767.8483447848, -473252.1665992936, -480213.7068168768, -477176.7752977342, -468550.7230223087, -473203.4844998699, -0.05, 0.9400000000000001, 0.312, 192.0, 0.0, 0.0, 0.0, 0.0, 0.0, 0.0, 0.0, 0.0, 0.0, 1.7401428772347136E9, 0.0, 2025-02-21 10:01:17.234
155.0, -454881.42429368786, -334374.00571990083, -765209.7809564807, -482769.2488156854, -468440.75243958866, -460769.6337425272, -481349.1530834619, -482438.39829425793, -0.05, 0.9400000000000001, 0.312, 192.0, 0.0, 0.0, 0.0, 0.0, 0.0, 0.0, 0.0, 0.0, 0.0, 1.740142877234763E9, 0.0, 2025-02-21 10:01:17.234
156.0, -477184.8889809715, -334370.87647567707, -750931.5760054083, -475975.61490245047, -476125.88568042347, -467085.76733896346, -470206.6520102802, -477456.3285656367, -0.05, 0.9400000000000001, 0.312, 192.0, 0.0, 0.0, 0.0, 0.0, 0.0, 0.0, 0.0, 0.0, 0.0, 1.7401428772347908E9, 0.0, 2025-02-21 10:01:17.234
157.0, -500472.9033080225, -334366.98727214185, -730166.7159994503, -460261.89151548047, -483150.1895964372, -481219.20004119875, -453586.2077577362, -464780.0060844429, -0.05, 0.9400000000000001, 0.312, 192.0, 0.0, 0.0, 0.0, 0.0, 0.0, 0.0, 0.0, 0.0, 0.0, 1.7401428772348106E9, 0.0, 2025-02-21 10:01:17.234
158.0, -480030.8918989768, -334363.67921396246, -742822.318413534, -470160.3168440243, -481593.5023538473, -479425.405493427, -464920.218577411, -470761.6681768499, -0.052000000000000005, 0.9420000000000001, 0.31, 192.0, 254.0, 96.0, 29.0, 112.0, 9.0, 176.0, 0.0, 0.0, 0.0, 1.740142877234829E9, 0.0, 2025-02-21 10:01:17.234
159.0, -455079.90778445103, -334362.5169232508, -764935.7932729475, -482266.20045497426, -469748.5977111576, -462750.11005998973, -480739.15162553213, -481771.33283273375, -0.052000000000000005, 0.9420000000000001, 0.31, 192.0, 0.0, 0.0, 0.0, 0.0, 0.0, 0.0, 0.0, 0.0, 0.0, 1.7401428772348485E9, 0.0, 2025-02-21 10:01:17.234
160.0, -471481.3496448219, -334362.96395813994, -755946.5027983788, -478521.90327905456, -473771.576436946, -464262.6079037915, -473638.0024120811, -479440.1576447675, -0.052000000000000005, 0.9420000000000001, 0.31, 192.0, 0.0, 0.0, 0.0, 0.0, 0.0, 0.0, 0.0, 0.0, 0.0, 1.7401428772348669E9, 0.0, 2025-02-21 10:01:17.234
161.0, -499223.8878278599, -334355.8113999142, -732666.2668783984, -461720.20873072254, -482781.58697862475, -479756.85951195477, -454854.4233863859, -466149.2068945416, -0.052000000000000005, 0.9420000000000001, 0.31, 192.0, 0.0, 0.0, 0.0, 0.0, 0.0, 0.0, 0.0, 0.0, 0.0, 1.7401428772348843E9, 0.0, 2025-02-21 10:01:17.234
162.0, -485735.77233979374, -334352.1010103346, -739277.1082254777, -467083.1521848622, -482469.1766463729, -481011.7311491646, -461440.2531314198, -468504.7901874531, -0.052000000000000005, 0.9420000000000001, 0.31, 192.0, 0.0, 0.0, 0.0, 0.0, 0.0, 0.0, 0.0, 0.0, 0.0, 1.740142877234902E9, 0.0, 2025-02-21 10:01:17.234
163.0, -456763.7093977582, -334353.7997429132, -763548.9569364735, -481324.07442618307, -471696.082853804, -465404.96085941326, -479379.8749899716, -480692.5482383428, -0.052000000000000005, 0.9420000000000001, 0.31, 192.0, 0.0, 0.0, 0.0, 0.0, 0.0, 0.0, 0.0, 0.0, 0.0, 1.7401428772349272E9, 0.0, 2025-02-21 10:01:17.234
164.0, -466244.33591894346, -334350.04464984476, -760412.9177824161, -480452.2893371927, -471498.3369706079, -461932.7738204925, -476567.6455578382, -480952.1861019357, -0.052000000000000005, 0.9420000000000001, 0.31, 192.0, 0.0, 0.0, 0.0, 0.0, 0.0, 0.0, 0.0, 0.0, 0.0, 1.7401428772349453E9, 0.0, 2025-02-21 10:01:17.234
165.0, -496436.44648032746, -334344.94845210895, -736282.4215033557, -464080.2847242695, -482137.8567383119, -477766.19079902064, -457103.92530011246, -468131.0913719048, -0.052000000000000005, 0.9420000000000001, 0.31, 192.0, 0.0, 0.0, 0.0, 0.0, 0.0, 0.0, 0.0, 0.0, 0.0, 1.7401428772349622E9, 0.0, 2025-02-21 10:01:17.234
166.0, -491005.1513916435, -334345.35078350914, -736297.9783174966, -464227.0686301075, -482998.8459347303, -482031.7083038936, -458299.78833196027, -466542.95522486634, -0.052000000000000005, 0.9420000000000001, 0.31, 192.0, 0.0, 0.0, 0.0, 0.0, 0.0, 0.0, 0.0, 0.0, 0.0, 1.7401428772349772E9, 0.0, 2025-02-21 10:01:17.234
167.0, -459966.1779363368, -334341.23806252936, -761077.4351450724, -479845.37241999776, -474100.2141356724, -468603.42843573436, -477241.5506531657, -479144.98050749075, -0.052000000000000005, 0.9420000000000001, 0.31, 192.0, 0.0, 0.0, 0.0, 0.0, 0.0, 0.0, 0.0, 0.0, 0.0, 1.7401428772349927E9, 0.0, 2025-02-21 10:01:17.234
168.0, -461715.7830853204, -334336.1865682824, -764163.9875369058, -481772.6068821677, -469622.73503812973, -460318.6872981414, -478856.5759487839, -481963.71429726057, -0.048, 0.9440000000000001, 0.31, 192.0, 254.0, 128.0, 29.0, 128.0, 9.0, 176.0, 0.0, 0.0, 0.0, 1.7401428772350075E9, 0.0, 2025-02-21 10:01:17.235
169.0, -492305.3970700976, -334331.3138879912, -740793.4952728148, -467107.5602898074, -481113.58804864745, -475267.44458287297, -460134.4195168519, -470552.4558487482, -0.048, 0.9440000000000001, 0.31, 192.0, 0.0, 0.0, 0.0, 0.0, 0.0, 0.0, 0.0, 0.0, 0.0, 1.7401428772350292E9, 0.0, 2025-02-21 10:01:17.235
170.0, -495400.934863202, -334329.3022309902, -734169.3769895288, -461896.49693924154, -483228.9794956422, -482466.89676843846, -455750.95185648825, -465090.6729806272, -0.048, 0.9440000000000001, 0.31, 192.0, 0.0, 0.0, 0.0, 0.0, 0.0, 0.0, 0.0, 0.0, 0.0, 1.7401428772350757E9, 0.0, 2025-02-21 10:01:17.235
171.0, -464324.7681051217, -334328.1846437675, -757833.0347338957, -477862.4821141341, -476516.4153595466, -471900.3330946366, -474498.3881113992, -477243.36114446656, -0.048, 0.9440000000000001, 0.31, 192.0, 0.0, 0.0, 0.0, 0.0, 0.0, 0.0, 0.0, 0.0, 0.0, 1.740142877235094E9, 0.0, 2025-02-21 10:01:17.235
172.0, -458156.4912982573, -334323.49077743187, -767004.7154432196, -482515.1094812286, -468403.73795077065, -459604.0126209274, -480428.9541159814, -482496.0657949526, -0.048, 0.9440000000000001, 0.31, 192.0, 0.0, 0.0, 0.0, 0.0, 0.0, 0.0, 0.0, 0.0, 0.0, 1.7401428772351124E9, 0.0, 2025-02-21 10:01:17.235
173.0, -487242.9057649262, -334319.33335296315, -745841.4132406013, -470403.59323067585, -479645.2125484005, -472427.4542841261, -463663.4023384336, -473146.9569381424, -0.048, 0.9440000000000001, 0.31, 192.0, 0.0, 0.0, 0.0, 0.0, 0.0, 0.0, 0.0, 0.0, 0.0, 1.7401428772351303E9, 0.0, 2025-02-21 10:01:17.235
174.0, -498596.51906448836, -334316.33821920614, -733117.4144884843, -460365.3577405641, -483281.2155224342, -482414.2584102462, -454042.0492341577, -464285.5407936026, -0.048, 0.9440000000000001, 0.31, 192.0, 0.0, 0.0, 0.0, 0.0, 0.0, 0.0, 0.0, 0.0, 0.0, 1.7401428772351482E9, 0.0, 2025-02-21 10:01:17.235
175.0, -469699.37916986697, -334314.41596918297, -753976.5541525548, -475342.4793890094, -478752.8415027668, -475060.44507747237, -471198.8682983957, -474983.5327248017, -0.048, 0.9440000000000001, 0.31, 192.0, 0.0, 0.0, 0.0, 0.0, 0.0, 0.0, 0.0, 0.0, 0.0, 1.740142877235166E9, 0.0, 2025-02-21 10:01:17.235
176.0, -455771.9177927873, -334307.03989351273, -768806.6236742287, -482763.07973421575, -468061.0857082708, -459889.86908076634, -481217.4566051313, -482566.9431766204, -0.048, 0.9440000000000001, 0.31, 192.0, 0.0, 0.0, 0.0, 0.0, 0.0, 0.0, 0.0, 0.0, 0.0, 1.740142877235184E9, 0.0, 2025-02-21 10:01:17.235
177.0, -481531.140986817, -334309.09625400265, -751190.8115376009, -473705.3258663805, -477752.7126971141, -469353.4412209322, -467456.04633761005, -475701.35899798386, -0.048, 0.9440000000000001, 0.31, 192.0, 0.0, 0.0, 0.0, 0.0, 0.0, 0.0, 0.0, 0.0, 0.0, 1.740142877235208E9, 0.0, 2025-02-21 10:01:17.235
178.0, -500282.9134801523, -334305.7434923343, -733344.9999505281, -459883.63294406334, -483202.69384416274, -481865.00899374596, -453384.57267100486, -464275.54956383107, -0.056, 0.934, 0.31, 192.0, 254.0, 64.0, 29.0, 48.0, 9.0, 176.0, 0.0, 0.0, 0.0, 1.7401428772352264E9, 0.0, 2025-02-21 10:01:17.235
179.0, -475632.9626599506, -334300.5578876207, -749897.3160859724, -472419.8770427558, -480553.0733529417, -477765.25202575355, -467605.1101213825, -472545.4044396168, -0.056, 0.934, 0.31, 192.0, 0.0, 0.0, 0.0, 0.0, 0.0, 0.0, 0.0, 0.0, 0.0, 1.7401428772352424E9, 0.0, 2025-02-21 10:01:17.235
180.0, -454821.87924645894, -334295.32757941814, -769412.8029838566, -482581.5612174942, -468715.00834405527, -461203.9504890383, -481199.88813398936, -482218.45712881774, -0.056, 0.934, 0.31, 192.0, 0.0, 0.0, 0.0, 0.0, 0.0, 0.0, 0.0, 0.0, 0.0, 1.7401428772352576E9, 0.0, 2025-02-21 10:01:17.235
181.0, -475682.3153117079, -334292.5559631057, -756455.4520196262, -476643.9544134086, -475507.09998692275, -466317.24730935664, -471135.36699239817, -477981.57220859197, -0.056, 0.934, 0.31, 192.0, 0.0, 0.0, 0.0, 0.0, 0.0, 0.0, 0.0, 0.0, 0.0, 1.740142877235278E9, 0.0, 2025-02-21 10:01:17.235
182.0, -500282.46644526324, -334289.9631607489, -734916.3722892252, -460555.0569957563, -482977.6564809867, -480805.87158273126, -453854.49574643327, -465094.36101846234, -0.056, 0.934, 0.31, 192.0, 0.0, 0.0, 0.0, 0.0, 0.0, 0.0, 0.0, 0.0, 0.0, 1.740142877235296E9, 0.0, 2025-02-21 10:01:17.235
183.0, -481630.3827321986, -334286.2527711693, -745996.1767192098, -469308.8494907438, -481802.5805714823, -479855.5648154694, -463968.1013188483, -470126.78922734136, -0.056, 0.934, 0.31, 192.0, 0.0, 0.0, 0.0, 0.0, 0.0, 0.0, 0.0, 0.0, 0.0, 1.740142877235314E9, 0.0, 2025-02-21 10:01:17.235
184.0, -455484.38495211425, -334286.29747465823, -768779.8015808823, -481962.7755239935, -470275.3836244802, -463441.9189026259, -480356.132132546, -481432.70390423585, -0.056, 0.934, 0.31, 192.0, 0.0, 0.0, 0.0, 0.0, 0.0, 0.0, 0.0, 0.0, 0.0, 1.7401428772353315E9, 0.0, 2025-02-21 10:01:17.235
185.0, -470100.28005841735, -334283.6599688125, -761323.1255201251, -479010.87004075886, -473185.71486302797, -463626.9913467159, -474434.14919783466, -479820.0925970188, -0.056, 0.934, 0.31, 192.0, 0.0, 0.0, 0.0, 0.0, 0.0, 0.0, 0.0, 0.0, 0.0, 1.7401428772353551E9, 0.0, 2025-02-21 10:01:17.235
186.0, -498617.708518232, -334282.7658990343, -737722.2314741887, -462254.7059958823, -482565.1326853195, -479222.6975229618, -455397.97310805, -466618.45941763633, -0.056, 0.934, 0.31, 192.0, 0.0, 0.0, 0.0, 0.0, 0.0, 0.0, 0.0, 0.0, 0.0, 1.7401428772353733E9, 0.0, 2025-02-21 10:01:17.235
187.0, -487237.27312532347, -334276.3285966311, -742586.283992086, -466255.0200527931, -482555.87906311505, -481271.36901275744, -460569.67503663007, -467925.0976950047, -0.056, 0.934, 0.31, 192.0, 0.0, 0.0, 0.0, 0.0, 0.0, 0.0, 0.0, 0.0, 0.0, 1.7401428772353897E9, 0.0, 2025-02-21 10:01:17.235
188.0, -457545.1263839157, -334274.5404570747, -767124.8784214114, -480886.6060837038, -472322.4457886751, -466247.7110323562, -478806.35157899285, -480239.1878055558, -0.056, 0.93, 0.314, 192.0, 254.0, 64.0, 29.0, 16.0, 9.0, 208.0, 0.0, 0.0, 0.0, 1.7401428772354045E9, 0.0, 2025-02-21 10:01:17.235
189.0, -464983.42931073066, -334271.411212851, -765661.4650084336, -480772.6792422151, -470952.641481476, -461437.5709220852, -477206.74898704875, -481195.86481998744, -0.056, 0.93, 0.314, 192.0, 0.0, 0.0, 0.0, 0.0, 0.0, 0.0, 0.0, 0.0, 0.0, 1.740142877235423E9, 0.0, 2025-02-21 10:01:17.235
190.0, -495494.0075271139, -334265.5103523148, -741574.8228519944, -464786.04105544585, -481823.56885952584, -477101.8746020645, -457842.73986133817, -468714.94128882186, -0.056, 0.93, 0.314, 192.0, 0.0, 0.0, 0.0, 0.0, 0.0, 0.0, 0.0, 0.0, 0.0, 1.7401428772354412E9, 0.0, 2025-02-21 10:01:17.235
191.0, -492351.709884609, -334260.5929685346, -739777.6084873211, -463479.40277807746, -482978.5281990204, -482112.6439705663, -457530.7989157199, -466054.59196026233, -0.056, 0.93, 0.314, 192.0, 0.0, 0.0, 0.0, 0.0, 0.0, 0.0, 0.0, 0.0, 0.0, 1.7401428772354589E9, 0.0, 2025-02-21 10:01:17.235
192.0, -461129.1839038353, -334257.6425382665, -764383.9287023459, -479269.83735201805, -474772.7110710992, -469526.24255731615, -476482.15013529663, -478585.67280598555, -0.056, 0.93, 0.314, 192.0, 0.0, 0.0, 0.0, 0.0, 0.0, 0.0, 0.0, 0.0, 0.0, 1.7401428772354825E9, 0.0, 2025-02-21 10:01:17.235
193.0, -460674.5494216144, -334252.412230064, -769195.0075858841, -481923.07882584084, -469231.8030276064, -460044.90078030835, -479303.0296925342, -482062.6878217087, -0.056, 0.93, 0.314, 192.0, 0.0, 0.0, 0.0, 0.0, 0.0, 0.0, 0.0, 0.0, 0.0, 1.7401428772355E9, 0.0, 2025-02-21 10:01:17.235
194.0, -491077.5710436787, -334253.0380789087, -746265.8728678075, -467909.27265993034, -480687.58615107374, -474499.8633265333, -461047.5106295956, -471199.53885072935, -0.056, 0.93, 0.314, 192.0, 0.0, 0.0, 0.0, 0.0, 0.0, 0.0, 0.0, 0.0, 0.0, 1.7401428772355173E9, 0.0, 2025-02-21 10:01:17.235
195.0, -496495.81271360075, -334251.8310847081, -737896.17274954, -461319.5537113612, -483160.1808262087, -482426.864794119, -455172.60046870715, -464743.32687179174, -0.056, 0.93, 0.314, 192.0, 0.0, 0.0, 0.0, 0.0, 0.0, 0.0, 0.0, 0.0, 0.0, 1.740142877235532E9, 0.0, 2025-02-21 10:01:17.235
196.0, -465957.78655502637, -334246.6454799945, -760815.1150721449, -477085.98251175677, -477229.2124902264, -472912.39773182845, -473493.63249464426, -476522.04799914936, -0.056, 0.93, 0.314, 192.0, 0.0, 0.0, 0.0, 0.0, 0.0, 0.0, 0.0, 0.0, 0.0, 1.7401428772355473E9, 0.0, 2025-02-21 10:01:17.235
197.0, -457368.18997480755, -334246.37725906103, -771779.9868321404, -482531.8062343367, -468253.80244896444, -459631.8405427743, -480665.9943659299, -482461.5323497692, -0.056, 0.93, 0.314, 192.0, 0.0, 0.0, 0.0, 0.0, 0.0, 0.0, 0.0, 0.0, 0.0, 1.7401428772355735E9, 0.0, 2025-02-21 10:01:17.235
198.0, -485697.7743742197, -334239.403514791, -751505.5688030206, -471304.8826223472, -479095.35963479994, -471559.9607300712, -464746.67963346, -473841.11271394644, -0.054, 0.932, 0.316, 192.0, 254.0, 80.0, 29.0, 32.0, 9.0, 224.0, 0.0, 0.0, 0.0, 1.7401428772355917E9, 0.0, 2025-02-21 10:01:17.235
199.0, -499221.2950255031, -334236.0954566116, -737246.6757591576, -460113.36417357496, -483161.7230965761, -482215.23847761616, -453804.07021094207, -464185.49438542064, -0.054, 0.932, 0.316, 192.0, 0.0, 0.0, 0.0, 0.0, 0.0, 0.0, 0.0, 0.0, 0.0, 1.740142877235622E9, 0.0, 2025-02-21 10:01:17.235
200.0, -471321.13234056626, -334230.95455538685, -757035.6138987081, -474517.2976872084, -479225.111511363, -475812.46951967117, -470230.72483905853, -474280.8609343602, -0.054, 0.932, 0.316, 192.0, 0.0, 0.0, 0.0, 0.0, 0.0, 0.0, 0.0, 0.0, 0.0, 1.7401428772356596E9, 0.0, 2025-02-21 10:01:17.235
201.0, -455390.1499974907, -334228.31704954116, -773263.3827046612, -482657.937128298, -468151.9455494816, -460163.0521014991, -481227.850166303, -482423.7131981508, -0.054, 0.932, 0.316, 192.0, 0.0, 0.0, 0.0, 0.0, 0.0, 0.0, 0.0, 0.0, 0.0, 1.740142877235679E9, 0.0, 2025-02-21 10:01:17.235
202.0, -479958.293432986, -334225.85835765104, -756823.7193612718, -474498.0528352324, -477132.58589894604, -468504.72313221975, -468482.2596290421, -476319.8764705511, -0.054, 0.932, 0.316, 192.0, 0.0, 0.0, 0.0, 0.0, 0.0, 0.0, 0.0, 0.0, 0.0, 1.7401428772356975E9, 0.0, 2025-02-21 10:01:17.235
203.0, -500437.3193308496, -334223.62318320555, -737848.4294233834, -459944.7202616597, -483049.0703045214, -481538.3158967872, -453447.53753513546, -464416.4326091329, -0.054, 0.932, 0.316, 192.0, 0.0, 0.0, 0.0, 0.0, 0.0, 0.0, 0.0, 0.0, 0.0, 1.7401428772357168E9, 0.0, 2025-02-21 10:01:17.235
204.0, -477136.0727710811, -334218.3034680252, -753112.2121944681, -471594.561230488, -480794.7404139925, -478268.76977309823, -466704.156005878, -471904.8928505055, -0.054, 0.932, 0.316, 192.0, 0.0, 0.0, 0.0, 0.0, 0.0, 0.0, 0.0, 0.0, 0.0, 1.7401428772357357E9, 0.0, 2025-02-21 10:01:17.235
205.0, -454829.3000256181, -334217.45410173584, -773599.9999761581, -482374.9640434938, -468987.453757221, -461665.35754982923, -481020.8506609024, -481987.1165737053, -0.054, 0.932, 0.316, 192.0, 0.0, 0.0, 0.0, 0.0, 0.0, 0.0, 0.0, 0.0, 0.0, 1.7401428772357545E9, 0.0, 2025-02-21 10:01:17.235
206.0, -474215.5938405507, -334212.71553191135, -761966.319318571, -477263.67888017645, -474884.5592003536, -465570.7884515272, -472037.9974887368, -478461.8888451921, -0.054, 0.932, 0.316, 192.0, 0.0, 0.0, 0.0, 0.0, 0.0, 0.0, 0.0, 0.0, 0.0, 1.740142877235773E9, 0.0, 2025-02-21 10:01:17.235
207.0, -500046.521430793, -334210.30154351017, -739723.9643006283, -460868.00376987504, -482789.83477232873, -480363.7093739163, -454164.8944216841, -465408.04540014814, -0.054, 0.932, 0.316, 192.0, 0.0, 0.0, 0.0, 0.0, 0.0, 0.0, 0.0, 0.0, 0.0, 1.7401428772358005E9, 0.0, 2025-02-21 10:01:17.235
208.0, -483166.66283210076, -334209.22865977633, -749239.5042466527, -468438.2043407207, -481935.48404401354, -480211.1587180089, -463050.31633976893, -469500.2251267702, -0.048, 0.9420000000000001, 0.312, 192.0, 254.0, 128.0, 29.0, 112.0, 9.0, 192.0, 0.0, 0.0, 0.0, 1.74014287723582E9, 0.0, 2025-02-21 10:01:17.235
209.0, -455882.9612592413, -334207.2617062642, -772651.1684240304, -481634.674267134, -470738.40001087193, -464119.2438148551, -479973.91730236023, -481087.302397168, -0.048, 0.9420000000000001, 0.312, 192.0, 0.0, 0.0, 0.0, 0.0, 0.0, 0.0, 0.0, 0.0, 0.0, 1.7401428772358394E9, 0.0, 2025-02-21 10:01:17.235
210.0, -468683.3582739065, -334204.4453864629, -766735.8239574223, -479472.00888061634, -472541.51523608156, -462981.65178080223, -475213.39806478005, -480178.6369298264, -0.048, 0.9420000000000001, 0.312, 192.0, 0.0, 0.0, 0.0, 0.0, 0.0, 0.0, 0.0, 0.0, 0.0, 1.7401428772358572E9, 0.0, 2025-02-21 10:01:17.235
211.0, -497989.1774641487, -334196.8457933481, -742802.8723958579, -462794.5676797113, -482295.838868122, -478644.6814113476, -455944.33914951555, -467092.27169659996, -0.048, 0.9420000000000001, 0.312, 192.0, 0.0, 0.0, 0.0, 0.0, 0.0, 0.0, 0.0, 0.0, 0.0, 1.740142877235875E9, 0.0, 2025-02-21 10:01:17.235
212.0, -488696.7526312772, -334194.7894328582, -745932.6083579789, -465416.8966909524, -482587.73029896384, -481458.9895557153, -459704.93074714317, -467355.798763728, -0.048, 0.9420000000000001, 0.312, 192.0, 0.0, 0.0, 0.0, 0.0, 0.0, 0.0, 0.0, 0.0, 0.0, 1.7401428772358923E9, 0.0, 2025-02-21 10:01:17.235
213.0, -458354.7959750648, -334195.7729096142, -770688.4617434099, -480431.0998834491, -472916.8233772306, -467081.07347262785, -478226.3238103776, -479785.3579861353, -0.048, 0.9420000000000001, 0.312, 192.0, 0.0, 0.0, 0.0, 0.0, 0.0, 0.0, 0.0, 0.0, 0.0, 1.740142877235911E9, 0.0, 2025-02-21 10:01:17.235
214.0, -463782.961819525, -334193.5824386576, -770850.1989662885, -481052.299565351, -470459.11496390286, -461005.6681639753, -477804.00995063904, -481401.18794455385, -0.048, 0.9420000000000001, 0.312, 192.0, 0.0, 0.0, 0.0, 0.0, 0.0, 0.0, 0.0, 0.0, 0.0, 1.7401428772359433E9, 0.0, 2025-02-21 10:01:17.235
215.0, -494471.728142706, -334191.0343397897, -746914.833416323, -465523.04512537067, -481490.63962586405, -476413.6196867967, -458639.9595308256, -469325.94857525214, -0.048, 0.9420000000000001, 0.312, 192.0, 0.0, 0.0, 0.0, 0.0, 0.0, 0.0, 0.0, 0.0, 0.0, 1.7401428772359624E9, 0.0, 2025-02-21 10:01:17.235
216.0, -493646.94877230516, -334184.10529900854, -743299.8857855661, -462760.1683449946, -482947.6827916721, -482164.47766595817, -456804.85895930044, -465610.35103921307, -0.048, 0.9420000000000001, 0.312, 192.0, 0.0, 0.0, 0.0, 0.0, 0.0, 0.0, 0.0, 0.0, 0.0, 1.7401428772359812E9, 0.0, 2025-02-21 10:01:17.235
217.0, -462385.8883840905, -334182.2277524743, -767613.711072649, -478646.8271788153, -475446.75027689344, -470480.43852811324, -475679.029605273, -477997.59840936644, -0.048, 0.9420000000000001, 0.312, 192.0, 0.0, 0.0, 0.0, 0.0, 0.0, 0.0, 0.0, 0.0, 0.0, 1.740142877236E9, 0.0, 2025-02-21 10:01:17.236
218.0, -459697.33115402836, -334179.85846756207, -774145.1590234231, -482052.16015007027, -468921.13613142207, -459888.7961970325, -479697.9850170595, -482135.97919177765, -0.044, 0.9480000000000001, 0.316, 192.0, 254.0, 160.0, 29.0, 160.0, 9.0, 224.0, 0.0, 0.0, 0.0, 1.7401428772360184E9, 0.0, 2025-02-21 10:01:17.236
219.0, -489674.3285267745, -334177.1762582274, -751843.3930687181, -468814.5853656036, -480245.4239422589, -473718.46869212016, -462053.54029578454, -471911.53131860873, -0.044, 0.9480000000000001, 0.316, 192.0, 0.0, 0.0, 0.0, 0.0, 0.0, 0.0, 0.0, 0.0, 0.0, 1.740142877236038E9, 0.0, 2025-02-21 10:01:17.236
220.0, -497299.6708511914, -334170.78365931317, -741839.0204714561, -460920.6421280673, -483058.18981625914, -482305.42776649335, -454770.87256561196, -464550.14074446453, -0.044, 0.9480000000000001, 0.316, 192.0, 0.0, 0.0, 0.0, 0.0, 0.0, 0.0, 0.0, 0.0, 0.0, 1.7401428772360563E9, 0.0, 2025-02-21 10:01:17.236
221.0, -467092.27169659996, -334166.0450894887, -764217.0952817316, -476462.43589668703, -477598.4856603725, -473530.2446520621, -472776.342663329, -476003.2416585972, -0.044, 0.9480000000000001, 0.316, 192.0, 0.0, 0.0, 0.0, 0.0, 0.0, 0.0, 0.0, 0.0, 0.0, 1.7401428772360806E9, 0.0, 2025-02-21 10:01:17.236
222.0, -456768.0009326936, -334166.00038599974, -776459.6374582812, -482515.44475739537, -468118.3508775653, -459635.99796724296, -480844.76361808344, -482417.2088405143, -0.044, 0.9480000000000001, 0.316, 192.0, 0.0, 0.0, 0.0, 0.0, 0.0, 0.0, 0.0, 0.0, 0.0, 1.7401428772360992E9, 0.0, 2025-02-21 10:01:17.236
223.0, -484259.93135689874, -334161.57474059757, -757061.8995501876, -472111.5570797392, -478582.65532048413, -470758.382470415, -465710.7997787953, -474480.08203269035, -0.044, 0.9480000000000001, 0.316, 192.0, 0.0, 0.0, 0.0, 0.0, 0.0, 0.0, 0.0, 0.0, 0.0, 1.7401428772361183E9, 0.0, 2025-02-21 10:01:17.236
224.0, -499747.3656830032, -334159.4289731299, -741435.48207706, -459910.6562031098, -483039.54846138344, -481995.5655331094, -453591.9074525723, -464146.93762623525, -0.044, 0.9480000000000001, 0.316, 192.0, 0.0, 0.0, 0.0, 0.0, 0.0, 0.0, 0.0, 0.0, 0.0, 1.740142877236136E9, 0.0, 2025-02-21 10:01:17.236
225.0, -472786.4233000783, -334157.5067231067, -760218.5917161216, -473735.09838999494, -479583.7899546373, -476443.2580999444, -469337.61618585786, -473655.77204892307, -0.044, 0.9480000000000001, 0.316, 192.0, 0.0, 0.0, 0.0, 0.0, 0.0, 0.0, 0.0, 0.0, 0.0, 1.7401428772361536E9, 0.0, 2025-02-21 10:01:17.236
226.0, -455149.3770062181, -334155.2268451723, -777621.3023211125, -482533.95200180437, -468296.71779831866, -460494.3720095601, -481198.94936072227, -482272.0342602771, -0.044, 0.9480000000000001, 0.316, 192.0, 0.0, 0.0, 0.0, 0.0, 0.0, 0.0, 0.0, 0.0, 0.0, 1.7401428772361715E9, 0.0, 2025-02-21 10:01:17.236
227.0, -478474.04819417576, -334150.48827534774, -762356.446666294, -475215.5438322477, -476547.3278221283, -467743.17684688297, -469436.92498647276, -476874.3561952539, -0.044, 0.9480000000000001, 0.316, 192.0, 0.0, 0.0, 0.0, 0.0, 0.0, 0.0, 0.0, 0.0, 0.0, 1.7401428772361891E9, 0.0, 2025-02-21 10:01:17.236
228.0, -500590.2946699017, -334146.0179264567, -742338.0455181653, -460009.830893258, -482896.4525933805, -481202.77150902414, -453490.1176083228, -464553.3593956661, -0.042, 0.9420000000000001, 0.316, 192.0, 254.0, 176.0, 29.0, 112.0, 9.0, 224.0, 0.0, 0.0, 0.0, 1.7401428772362068E9, 0.0, 2025-02-21 10:01:17.236
229.0, -478894.9762457581, -334139.4018100979, -756122.455730731, -470658.0678412996, -481090.8563245364, -478835.9229369072, -465645.2197605634, -471173.92375158356, -0.042, 0.9420000000000001, 0.316, 192.0, 0.0, 0.0, 0.0, 0.0, 0.0, 0.0, 0.0, 0.0, 0.0, 1.7401428772362313E9, 0.0, 2025-02-21 10:01:17.236
230.0, -454998.81565556716, -334138.15011240845, -777592.3344602984, -482116.1978979347, -469437.1932074062, -462320.4201245809, -480737.34113423125, -481690.53127652785, -0.042, 0.9420000000000001, 0.316, 192.0, 0.0, 0.0, 0.0, 0.0, 0.0, 0.0, 0.0, 0.0, 0.0, 1.7401428772362497E9, 0.0, 2025-02-21 10:01:17.236
231.0, -472689.05910123105, -334139.3124031201, -767475.174960515, -477847.32763139345, -474227.4849686009, -464833.38205020217, -472944.383078144, -478909.2143069761, -0.042, 0.9420000000000001, 0.316, 192.0, 0.0, 0.0, 0.0, 0.0, 0.0, 0.0, 0.0, 0.0, 0.0, 1.7401428772362676E9, 0.0, 2025-02-21 10:01:17.236
232.0, -499697.8342172902, -334136.7643042522, -744586.9439347916, -461246.4635069923, -482590.41250829847, -479889.89709495276, -454546.6398652363, -465764.51102072134, -0.042, 0.9420000000000001, 0.316, 192.0, 0.0, 0.0, 0.0, 0.0, 0.0, 0.0, 0.0, 0.0, 0.0, 1.7401428772362857E9, 0.0, 2025-02-21 10:01:17.236
233.0, -484726.0993392586, -334131.3998855829, -752448.9018260124, -467557.7691266262, -482050.8190454029, -480534.1637771325, -462117.0416017821, -468860.9205318595, -0.042, 0.9420000000000001, 0.316, 192.0, 0.0, 0.0, 0.0, 0.0, 0.0, 0.0, 0.0, 0.0, 0.0, 1.740142877236303E9, 0.0, 2025-02-21 10:01:17.236
234.0, -456439.3408822228, -334121.878042445, -776380.780503843, -481265.53520745464, -471280.3404069353, -464892.3236003308, -479509.2915903678, -480694.3587296437, -0.042, 0.9420000000000001, 0.316, 192.0, 0.0, 0.0, 0.0, 0.0, 0.0, 0.0, 0.0, 0.0, 0.0, 1.7401428772363207E9, 0.0, 2025-02-21 10:01:17.236
235.0, -467349.13794388034, -334118.3017633321, -772046.73255047, -479873.80383894494, -471993.00342714833, -462439.4431638054, -475927.26807919366, -480473.0094043028, -0.042, 0.9420000000000001, 0.316, 192.0, 0.0, 0.0, 0.0, 0.0, 0.0, 0.0, 0.0, 0.0, 0.0, 1.7401428772363398E9, 0.0, 2025-02-21 10:01:17.236
236.0, -497155.72561689926, -334122.9956296677, -748019.5013307931, -463464.91884767043, -482041.4313127317, -478047.75572392414, -456624.8827129463, -467650.70768007135, -0.042, 0.9420000000000001, 0.316, 192.0, 0.0, 0.0, 0.0, 0.0, 0.0, 0.0, 0.0, 0.0, 0.0, 1.7401428772363777E9, 0.0, 2025-02-21 10:01:17.236
237.0, -490186.8987306236, -334120.7604552222, -749273.9706366027, -464595.1348060531, -482617.7710435118, -481628.0357990308, -458842.93572222424, -466808.0916175952, -0.042, 0.9420000000000001, 0.316, 192.0, 0.0, 0.0, 0.0, 0.0, 0.0, 0.0, 0.0, 0.0, 0.0, 1.740142877236396E9, 0.0, 2025-02-21 10:01:17.236
238.0, -459333.1765333625, -334118.3017633321, -774111.22907534, -479925.2352029366, -473560.01717567653, -467982.7651956994, -477554.76564821793, -479280.63324458996, -0.052000000000000005, 0.9420000000000001, 0.318, 192.0, 254.0, 96.0, 29.0, 112.0, 9.0, 240.0, 0.0, 0.0, 0.0, 1.740142877236414E9, 0.0, 2025-02-21 10:01:17.236
239.0, -462589.7362935229, -334116.4689202868, -776013.9883773314, -481305.9024579409, -469978.3289406692, -460631.6340722602, -478358.3555648751, -481576.403269339, -0.052000000000000005, 0.9420000000000001, 0.318, 192.0, 0.0, 0.0, 0.0, 0.0, 0.0, 0.0, 0.0, 0.0, 0.0, 1.7401428772364326E9, 0.0, 2025-02-21 10:01:17.236
240.0, -493286.3704307521, -334113.5631935076, -752375.8116216436, -466370.6232751159, -481120.7629586176, -475679.2307709731, -459532.59879739274, -469995.69624611095, -0.052000000000000005, 0.9420000000000001, 0.318, 192.0, 0.0, 0.0, 0.0, 0.0, 0.0, 0.0, 0.0, 0.0, 0.0, 1.7401428772364514E9, 0.0, 2025-02-21 10:01:17.236
241.0, -494829.71368190215, -334109.2716585722, -746927.7080211291, -462125.825837353, -482891.69167181157, -482160.4543519562, -456141.0121489778, -465219.9554705567, -0.052000000000000005, 0.9420000000000001, 0.318, 192.0, 0.0, 0.0, 0.0, 0.0, 0.0, 0.0, 0.0, 0.0, 0.0, 1.7401428772364695E9, 0.0, 2025-02-21 10:01:17.236
242.0, -463575.2694100463, -334104.6671992144, -770920.8751822562, -478030.45547371573, -475981.7839839201, -471288.4540901726, -474900.51834589464, -477433.32862059225, -0.052000000000000005, 0.9420000000000001, 0.318, 192.0, 0.0, 0.0, 0.0, 0.0, 0.0, 0.0, 0.0, 0.0, 0.0, 1.7401428772364876E9, 0.0, 2025-02-21 10:01:17.236
243.0, -458831.33516685193, -334101.98498987977, -779028.5234485297, -482127.06084573996, -468636.4196105504, -459739.39713709324, -480023.13584365085, -482163.20361652423, -0.052000000000000005, 0.9420000000000001, 0.318, 192.0, 0.0, 0.0, 0.0, 0.0, 0.0, 0.0, 0.0, 0.0, 0.0, 1.740142877236513E9, 0.0, 2025-02-21 10:01:17.236
244.0, -488358.4366272017, -334099.7498154342, -757352.3828211287, -469634.2685382687, -479782.60872156726, -472929.7650372702, -462988.02202797204, -472560.15659095725, -0.052000000000000005, 0.9420000000000001, 0.318, 192.0, 0.0, 0.0, 0.0, 0.0, 0.0, 0.0, 0.0, 0.0, 0.0, 1.7401428772365303E9, 0.0, 2025-02-21 10:01:17.236
245.0, -498182.02831530914, -334092.373739764, -745742.8420475534, -460503.1562451311, -482961.56322497886, -482181.9790818667, -454341.2496854365, -464345.2870065316, -0.052000000000000005, 0.9420000000000001, 0.318, 192.0, 0.0, 0.0, 0.0, 0.0, 0.0, 0.0, 0.0, 0.0, 0.0, 1.740142877236551E9, 0.0, 2025-02-21 10:01:17.236
246.0, -468795.5640310722, -334087.23283853923, -767181.2048174387, -475673.7992970705, -478242.0817902186, -474439.9159479041, -471773.19637217483, -475303.0509117903, -0.052000000000000005, 0.9420000000000001, 0.318, 192.0, 0.0, 0.0, 0.0, 0.0, 0.0, 0.0, 0.0, 0.0, 0.0, 1.74014287723657E9, 0.0, 2025-02-21 10:01:17.236
247.0, -456232.3637285666, -334085.08707107155, -781025.830629567, -482453.55277699867, -468150.60444481426, -459849.30066457996, -480923.7546829885, -482308.7805281616, -0.052000000000000005, 0.9420000000000001, 0.318, 192.0, 0.0, 0.0, 0.0, 0.0, 0.0, 0.0, 0.0, 0.0, 0.0, 1.7401428772365887E9, 0.0, 2025-02-21 10:01:17.236
248.0, -482692.71644267044, -334084.4612222268, -762704.8656588633, -472969.66290112294, -478024.9569445797, -469938.83340821665, -466764.9080473075, -475144.5993953466, -0.048, 0.934, 0.312, 192.0, 254.0, 128.0, 29.0, 48.0, 9.0, 192.0, 0.0, 0.0, 0.0, 1.7401428773323903E9, 0.0, 2025-02-21 10:01:17.332
249.0, -500135.3919667473, -334081.19786753634, -745753.4367744252, -459833.60973997234, -482909.2601429534, -481737.87227128417, -453493.47036999115, -464202.59346992895, -0.048, 0.934, 0.312, 192.0, 0.0, 0.0, 0.0, 0.0, 0.0, 0.0, 0.0, 0.0, 0.0, 1.7401428773324416E9, 0.0, 2025-02-21 10:01:17.332
250.0, -474637.5947758669, -334078.1580302904, -763132.8121582046, -472841.78857109416, -480063.1678179703, -477198.1659171779, -468252.6625099972, -472922.0536854332, -0.048, 0.934, 0.312, 192.0, 0.0, 0.0, 0.0, 0.0, 0.0, 0.0, 0.0, 0.0, 0.0, 1.7401428773324633E9, 0.0, 2025-02-21 10:01:17.332
251.0, -454990.5008066298, -334072.6595011544, -781867.1055873759, -482352.098208916, -468590.7549966282, -460984.0093235981, -481053.3053938515, -482045.18640580017, -0.048, 0.934, 0.312, 192.0, 0.0, 0.0, 0.0, 0.0, 0.0, 0.0, 0.0, 0.0, 0.0, 1.7401428773325157E9, 0.0, 2025-02-21 10:01:17.332
252.0, -476869.0141283291, -334069.21733250824, -767983.0512980284, -475934.3759339304, -475875.5014390352, -466901.8348338407, -470455.22576036764, -477431.85340545815, -0.048, 0.934, 0.312, 192.0, 0.0, 0.0, 0.0, 0.0, 0.0, 0.0, 0.0, 0.0, 0.0, 1.7401428773325355E9, 0.0, 2025-02-21 10:01:17.332
253.0, -500484.0791802501, -334067.0268615516, -747040.8972550508, -460254.11310841003, -482727.8757366986, -480815.1252049357, -453730.0412333061, -464834.9243205696, -0.048, 0.934, 0.312, 192.0, 0.0, 0.0, 0.0, 0.0, 0.0, 0.0, 0.0, 0.0, 0.0, 1.7401428773325555E9, 0.0, 2025-02-21 10:01:17.332
254.0, -480476.0492415487, -334063.0482510386, -759301.8125655429, -469814.51300555625, -481304.8966294404, -479282.24257019075, -464718.8517116132, -470549.43836324674, -0.048, 0.934, 0.312, 192.0, 0.0, 0.0, 0.0, 0.0, 0.0, 0.0, 0.0, 0.0, 0.0, 1.740142877332575E9, 0.0, 2025-02-21 10:01:17.332
255.0, -455251.47977488994, -334063.0035475497, -781564.4182639621, -481849.5862900718, -469862.72571834637, -462940.47986751556, -480428.21650841436, -481394.616531684, -0.048, 0.934, 0.312, 192.0, 0.0, 0.0, 0.0, 0.0, 0.0, 0.0, 0.0, 0.0, 0.0, 1.7401428773325944E9, 0.0, 2025-02-21 10:01:17.332
0.0, -471222.96347891854, -334059.6954893703, -772947.2843345744, -478390.8102978242, -473592.1366324588, -464148.94928323623, -473796.31981805805, -479328.77890214673, -0.048, 0.934, 0.312, 192.0, 0.0, 0.0, 0.0, 0.0, 0.0, 0.0, 0.0, 0.0, 0.0, 1.740142877332614E9, 0.0, 2025-02-21 10:01:17.332
1.0, -499175.5186528586, -334057.7285358582, -749593.958210225, -461740.12413503224, -482375.23226442724, -479382.02075743926, -455044.2567520448, -466226.85685477935, -0.048, 0.934, 0.312, 192.0, 0.0, 0.0, 0.0, 0.0, 0.0, 0.0, 0.0, 0.0, 0.0, 1.7401428773326333E9, 0.0, 2025-02-21 10:01:17.332
2.0, -486263.54172987246, -334056.2533207242, -755714.6258013995, -466699.59625000914, -482137.9237935453, -480804.9328094641, -461219.7084688793, -468281.2950946445, -0.046, 0.934, 0.318, 192.0, 254.0, 144.0, 29.0, 48.0, 9.0, 240.0, 0.0, 0.0, 0.0, 1.740142877332664E9, 0.0, 2025-02-21 10:01:17.332
3.0, -457057.41131990094, -334052.8111520781, -780077.133187906, -480885.73436567007, -471815.84350059554, -465657.5579235027, -479027.09740723344, -480310.33340815705, -0.046, 0.934, 0.318, 192.0, 0.0, 0.0, 0.0, 0.0, 0.0, 0.0, 0.0, 0.0, 0.0, 1.7401428773326852E9, 0.0, 2025-02-21 10:01:17.332
4.0, -466020.72906741255, -334049.1454659874, -777366.492434322, -480245.82627365907, -471405.73369332956, -461883.95761060214, -476632.4209132697, -480758.5976432083, -0.046, 0.934, 0.318, 192.0, 0.0, 0.0, 0.0, 0.0, 0.0, 0.0, 0.0, 0.0, 0.0, 1.7401428773327045E9, 0.0, 2025-02-21 10:01:17.332
5.0, -496194.51119834324, -334046.77618107514, -753347.7101740493, -464208.3602199984, -481755.30663195933, -477397.4540707415, -457419.68839403254, -468281.4962603446, -0.046, 0.934, 0.318, 192.0, 0.0, 0.0, 0.0, 0.0, 0.0, 0.0, 0.0, 0.0, 0.0, 1.740142877332724E9, 0.0, 2025-02-21 10:01:17.332
6.0, -491515.21820011357, -334042.52934962866, -752772.2421613028, -463873.7546055025, -482613.74772950984, -481729.28920141334, -458116.9957658048, -466364.85652504646, -0.046, 0.934, 0.318, 192.0, 0.0, 0.0, 0.0, 0.0, 0.0, 0.0, 0.0, 0.0, 0.0, 1.7401428773327436E9, 0.0, 2025-02-21 10:01:17.332
7.0, -460391.665743788, -334038.1931112043, -777501.1393429207, -479396.03530121275, -474197.1760031195, -468863.1333545606, -476873.68564292026, -478777.6519391122, -0.046, 0.934, 0.318, 192.0, 0.0, 0.0, 0.0, 0.0, 0.0, 0.0, 0.0, 0.0, 0.0, 1.7401428773327625E9, 0.0, 2025-02-21 10:01:17.332
8.0, -461566.2946184033, -334031.75580880116, -781037.4982401727, -481470.5901110876, -469605.6359536214, -460361.8708684291, -478802.9317620912, -481682.81992469076, -0.046, 0.934, 0.318, 192.0, 0.0, 0.0, 0.0, 0.0, 0.0, 0.0, 0.0, 0.0, 0.0, 1.740142877332782E9, 0.0, 2025-02-21 10:01:17.332
9.0, -492036.72910174483, -334032.336954157, -757851.5419783046, -467201.90700315323, -480756.5859862073, -474968.78057346115, -460453.1330410401, -470666.31563500356, -0.046, 0.934, 0.318, 192.0, 0.0, 0.0, 0.0, 0.0, 0.0, 0.0, 0.0, 0.0, 0.0, 1.740142877332801E9, 0.0, 2025-02-21 10:01:17.332
10.0, -495767.7716932025, -334028.76067504415, -750759.1099451912, -461647.3196920538, -482818.467356976, -482113.4486333667, -455671.8266811165, -464969.63828440174, -0.046, 0.934, 0.318, 192.0, 0.0, 0.0, 0.0, 0.0, 0.0, 0.0, 0.0, 0.0, 0.0, 1.7401428773328278E9, 0.0, 2025-02-21 10:01:17.332
11.0, -464892.5024142864, -334025.1843959313, -774165.6779248331, -477405.433643512, -476569.0537177389, -472128.45499854744, -474119.3248771817, -476878.71478542266, -0.046, 0.934, 0.318, 192.0, 0.0, 0.0, 0.0, 0.0, 0.0, 0.0, 0.0, 0.0, 0.0, 1.740142877332847E9, 0.0, 2025-02-21 10:01:17.332
12.0, -458072.2699251497, -334021.42930286285, -783818.1446573908, -482160.2531862561, -468454.7669833621, -459700.9074331412, -480286.7299660123, -482155.02287805354, -0.046, 0.9400000000000001, 0.32, 192.0, 254.0, 144.0, 29.0, 96.0, 10.0, 0.0, 0.0, 0.0, 0.0, 1.7401428773328657E9, 0.0, 2025-02-21 10:01:17.332
13.0, -486920.1465749916, -334022.85981450794, -762941.1683012448, -470498.0069992551, -479309.26582923724, -472128.7902747143, -464015.3752583713, -473241.7730381219, -0.046, 0.9400000000000001, 0.32, 192.0, 0.0, 0.0, 0.0, 0.0, 0.0, 0.0, 0.0, 0.0, 0.0, 1.7401428773328855E9, 0.0, 2025-02-21 10:01:17.332
14.0, -498885.3036028509, -334016.7801400161, -749797.4037882572, -460187.92959307786, -482856.28650859435, -482019.9065828212, -454043.18917312496, -464228.4767900082, -0.046, 0.9400000000000001, 0.32, 192.0, 0.0, 0.0, 0.0, 0.0, 0.0, 0.0, 0.0, 0.0, 0.0, 1.740142877332904E9, 0.0, 2025-02-21 10:01:17.332
15.0, -470413.47270172514, -334013.0697504365, -770223.7689761841, -474876.4455171163, -478749.82401726535, -475241.82948372717, -470824.2307095803, -474636.1866159662, -0.046, 0.9400000000000001, 0.32, 192.0, 0.0, 0.0, 0.0, 0.0, 0.0, 0.0, 0.0, 0.0, 0.0, 1.7401428774364192E9, 0.0, 2025-02-21 10:01:17.436
16.0, -455821.1810375668, -334011.90745972487, -785492.7820554712, -482373.28766265966, -468235.69753595564, -460126.5069993147, -480969.0169655105, -482189.556323237, -0.046, 0.9400000000000001, 0.32, 192.0, 0.0, 0.0, 0.0, 0.0, 0.0, 0.0, 0.0, 0.0, 0.0, 1.7401428774364717E9, 0.0, 2025-02-21 10:01:17.436
17.0, -481162.7842381936, -334008.1970701453, -768299.6861099823, -473760.9817100742, -477443.25279513036, -469107.95201157953, -467789.78023407224, -475753.32680384244, -0.046, 0.9400000000000001, 0.32, 192.0, 0.0, 0.0, 0.0, 0.0, 0.0, 0.0, 0.0, 0.0, 0.0, 1.7401428774365313E9, 0.0, 2025-02-21 10:01:17.436
18.0, -500439.19687738386, -334002.832651476, -750122.7557805486, -459788.4145126837, -482769.11470521864, -481449.2665468772, -453463.96606731013, -464271.325084129, -0.046, 0.9400000000000001, 0.32, 192.0, 0.0, 0.0, 0.0, 0.0, 0.0, 0.0, 0.0, 0.0, 0.0, 1.7401428774365509E9, 0.0, 2025-02-21 10:01:17.436
19.0, -476197.7465388473, -334002.3856165869, -766263.6210040594, -471984.152136344, -480342.9222515729, -477738.83226380736, -467316.2361760421, -472256.9998809099, -0.046, 0.9400000000000001, 0.32, 192.0, 0.0, 0.0, 0.0, 0.0, 0.0, 0.0, 0.0, 0.0, 0.0, 1.7401428774365704E9, 0.0, 2025-02-21 10:01:17.436
20.0, -454918.885817395, -333998.85404096293, -786076.6990276217, -482166.7575438926, -468834.23254897987, -461407.8654537041, -480907.8625926808, -481832.21898463, -0.046, 0.9400000000000001, 0.32, 192.0, 0.0, 0.0, 0.0, 0.0, 0.0, 0.0, 0.0, 0.0, 0.0, 1.7401428774365897E9, 0.0, 2025-02-21 10:01:17.436
21.0, -475353.74466821493, -333996.70827349526, -773513.7669460496, -476588.43268018164, -475256.7157455344, -466128.4197721982, -471387.82994602085, -477930.6772864673, -0.046, 0.9400000000000001, 0.32, 192.0, 0.0, 0.0, 0.0, 0.0, 0.0, 0.0, 0.0, 0.0, 0.0, 1.7401428774366088E9, 0.0, 2025-02-21 10:01:17.436
22.0, -500330.0309574641, -333996.1718316283, -751765.6089980137, -460519.71888777247, -482564.0598015857, -480407.7646622378, -453998.7986086367, -465121.4513327422, -0.044, 0.936, 0.318, 192.0, 254.0, 160.0, 29.0, 64.0, 9.0, 240.0, 0.0, 0.0, 0.0, 1.7401428774366276E9, 0.0, 2025-02-21 10:01:17.436
23.0, -482108.4418426087, -333991.3885583149, -762434.7671788654, -468916.03993368626, -481485.74459382833, -479690.60894138925, -463764.7227960495, -469896.78977689624, -0.044, 0.936, 0.318, 192.0, 0.0, 0.0, 0.0, 0.0, 0.0, 0.0, 0.0, 0.0, 0.0, 1.740142877436648E9, 0.0, 2025-02-21 10:01:17.436
24.0, -455623.32339564845, -333988.21461060224, -785419.1554092355, -481545.42375152395, -470340.42720084515, -463632.22165491845, -480064.7100883377, -481065.9117777243, -0.044, 0.936, 0.318, 192.0, 0.0, 0.0, 0.0, 0.0, 0.0, 0.0, 0.0, 0.0, 0.0, 1.740142877436678E9, 0.0, 2025-02-21 10:01:17.436
25.0, -469808.4556828089, -333984.1912966003, -778335.1723355261, -478868.71294602315, -472993.8027851347, -463504.9508219899, -474595.01470267953, -479684.7751360864, -0.044, 0.936, 0.318, 192.0, 0.0, 0.0, 0.0, 0.0, 0.0, 0.0, 0.0, 0.0, 0.0, 1.7401428774366972E9, 0.0, 2025-02-21 10:01:17.436
26.0, -498530.44730787846, -333985.353587312, -754670.9781492923, -462307.67963024136, -482156.49809318763, -478841.75674221, -455625.1562386938, -466711.53208154824, -0.044, 0.936, 0.318, 192.0, 0.0, 0.0, 0.0, 0.0, 0.0, 0.0, 0.0, 0.0, 0.0, 1.740142877436716E9, 0.0, 2025-02-21 10:01:17.436
27.0, -487835.58462090313, -333981.4643837767, -758956.4781137083, -465843.0997542262, -482224.4250445873, -481056.52404505305, -460320.83306560916, -467684.57057292113, -0.044, 0.936, 0.318, 192.0, 0.0, 0.0, 0.0, 0.0, 0.0, 0.0, 0.0, 0.0, 0.0, 1.7401428774367354E9, 0.0, 2025-02-21 10:01:17.436
28.0, -457939.9475979743, -333973.7306801952, -783539.9995493889, -480433.8491480171, -472500.8127094284, -466577.0192834162, -478417.29711500375, -479839.002172828, -0.044, 0.936, 0.318, 192.0, 0.0, 0.0, 0.0, 0.0, 0.0, 0.0, 0.0, 0.0, 0.0, 1.7401428774367547E9, 0.0, 2025-02-21 10:01:17.436
29.0, -464750.61354048416, -333968.321558037, -782598.4099624646, -480543.35034410364, -470853.131515161, -461404.17741586897, -477263.5447697097, -480969.8216283109, -0.044, 0.936, 0.318, 192.0, 0.0, 0.0, 0.0, 0.0, 0.0, 0.0, 0.0, 0.0, 0.0, 1.7401428774367735E9, 0.0, 2025-02-21 10:01:17.436
30.0, -495314.8359435602, -333971.80843017204, -758569.3011962535, -464872.94463788805, -481436.391942071, -476753.053278095, -458138.9228271154, -468813.9818685033, -0.044, 0.936, 0.318, 192.0, 0.0, 0.0, 0.0, 0.0, 0.0, 0.0, 0.0, 0.0, 0.0, 1.7401428774367926E9, 0.0, 2025-02-21 10:01:17.436
31.0, -492884.0390305566, -333966.75693592516, -756208.2864294394, -463137.6222536114, -482602.3483398376, -481819.4784902905, -457342.2395994949, -465865.02681553684, -0.044, 0.936, 0.318, 192.0, 0.0, 0.0, 0.0, 0.0, 0.0, 0.0, 0.0, 0.0, 0.0, 1.7401428774368117E9, 0.0, 2025-02-21 10:01:17.436
32.0, -461669.3808638312, -333962.7783254121, -780682.6419452003, -478804.87636385876, -474911.0460175331, -469853.67326184193, -476069.0228425292, -478191.7233099608, -0.048, 0.934, 0.324, 192.0, 254.0, 128.0, 29.0, 48.0, 10.0, 32.0, 0.0, 0.0, 0.0, 1.7401428774368365E9, 0.0, 2025-02-21 10:01:17.436
33.0, -460479.01636111934, -333962.7336219232, -786063.9585332822, -481630.1815664985, -469201.0917307248, -460100.7577897022, -479261.9248344809, -481775.22203626897, -0.048, 0.934, 0.324, 192.0, 0.0, 0.0, 0.0, 0.0, 0.0, 0.0, 0.0, 0.0, 0.0, 1.7401428774368567E9, 0.0, 2025-02-21 10:01:17.436
34.0, -490755.08007467753, -333959.47026723274, -763340.5492711723, -468046.7358883305, -480322.13512922946, -474187.8553256816, -461407.79839847074, -471320.57354695484, -0.048, 0.934, 0.324, 192.0, 0.0, 0.0, 0.0, 0.0, 0.0, 0.0, 0.0, 0.0, 0.0, 1.7401428774368753E9, 0.0, 2025-02-21 10:01:17.436
35.0, -496857.9109737767, -333957.1456858094, -754471.1535538619, -461092.5717464175, -482752.28384164383, -482064.90064440976, -455111.5131511108, -464639.8606467081, -0.048, 0.934, 0.324, 192.0, 0.0, 0.0, 0.0, 0.0, 0.0, 0.0, 0.0, 0.0, 0.0, 1.740142877436894E9, 0.0, 2025-02-21 10:01:17.436
36.0, -466637.72662135685, -333955.2234357862, -777033.8984768271, -476624.97778236604, -477317.32306686917, -473172.9743686884, -473102.2310974874, -476151.90311096946, -0.048, 0.934, 0.324, 192.0, 0.0, 0.0, 0.0, 0.0, 0.0, 0.0, 0.0, 0.0, 0.0, 1.7401428774369128E9, 0.0, 2025-02-21 10:01:17.436
37.0, -457310.0754392237, -333951.60245318443, -788526.3608129455, -482172.6584044288, -468348.21621754364, -459802.8984430908, -480492.7236429124, -482108.21832516417, -0.048, 0.934, 0.324, 192.0, 0.0, 0.0, 0.0, 0.0, 0.0, 0.0, 0.0, 0.0, 0.0, 1.7401428774369316E9, 0.0, 2025-02-21 10:01:17.436
38.0, -485307.42350905226, -333949.99312758364, -768618.1984684705, -471432.2205105091, -478767.7948198074, -471287.91764830565, -465124.535873477, -473939.34863082756, -0.048, 0.934, 0.324, 192.0, 0.0, 0.0, 0.0, 0.0, 0.0, 0.0, 0.0, 0.0, 0.0, 1.7401428774369507E9, 0.0, 2025-02-21 10:01:17.436
39.0, -499422.55013257865, -333944.6734124033, -753965.4229838161, -460001.583099554, -482744.77365550684, -481815.85750768875, -453843.29752246116, -464171.815117814, -0.048, 0.934, 0.324, 192.0, 0.0, 0.0, 0.0, 0.0, 0.0, 0.0, 0.0, 0.0, 0.0, 1.740142877436976E9, 0.0, 2025-02-21 10:01:17.436
40.0, -471756.0078806887, -333939.48780768964, -773470.3151548285, -474133.87586282205, -479059.61919541593, -475810.3237522035, -469983.55924887175, -474028.3309255041, -0.048, 0.934, 0.324, 192.0, 0.0, 0.0, 0.0, 0.0, 0.0, 0.0, 0.0, 0.0, 0.0, 1.7401428774369953E9, 0.0, 2025-02-21 10:01:17.436
41.0, -455383.17625322065, -333936.2691564881, -789997.6867434606, -482270.69315560977, -468203.24280300655, -460270.40753011795, -481002.7457478936, -482059.7373914406, -0.048, 0.934, 0.324, 192.0, 0.0, 0.0, 0.0, 0.0, 0.0, 0.0, 0.0, 0.0, 0.0, 1.740142877855101E9, 0.0, 2025-02-21 10:01:17.855
42.0, -479613.8083474408, -333938.59373791143, -773883.2412818959, -474513.6767046066, -476836.46998840215, -468265.9394462037, -468785.21517338936, -476322.49162465235, -0.05, 0.932, 0.318, 192.0, 254.0, 112.0, 29.0, 32.0, 9.0, 240.0, 0.0, 0.0, 0.0, 1.74014287785516E9, 0.0, 2025-02-21 10:01:17.855
43.0, -500617.47439115937, -333937.34204022196, -754575.7597179126, -459845.67968197825, -482640.5698228562, -481141.4159704943, -453499.2371200606, -464393.1644431549, -0.05, 0.932, 0.318, 192.0, 0.0, 0.0, 0.0, 0.0, 0.0, 0.0, 0.0, 0.0, 0.0, 1.740142877855196E9, 0.0, 2025-02-21 10:01:17.855
44.0, -477844.26544240303, -333934.5257204206, -769335.2871340855, -471133.1541696971, -480636.42300801555, -478287.8134593742, -466352.65247257386, -471581.61957044835, -0.05, 0.932, 0.318, 192.0, 0.0, 0.0, 0.0, 0.0, 0.0, 0.0, 0.0, 0.0, 0.0, 1.7401428778552153E9, 0.0, 2025-02-21 10:01:17.855
45.0, -454984.8681670271, -333933.7210576202, -790151.3773383353, -481962.7755239935, -469180.0363874479, -461961.2052394397, -480693.4199563766, -481589.74726077885, -0.05, 0.932, 0.318, 192.0, 0.0, 0.0, 0.0, 0.0, 0.0, 0.0, 0.0, 0.0, 0.0, 1.7401428778552349E9, 0.0, 2025-02-21 10:01:17.855
46.0, -473850.81337104004, -333929.295412218, -779003.0424598507, -477209.0959202166, -474620.83096752537, -465383.03379810264, -472292.0697679603, -478393.96189379244, -0.05, 0.932, 0.318, 192.0, 0.0, 0.0, 0.0, 0.0, 0.0, 0.0, 0.0, 0.0, 0.0, 1.7401428778552933E9, 0.0, 2025-02-21 10:01:17.855
47.0, -500085.4134661452, -333925.316801705, -756539.5392822671, -460851.1058510668, -482385.22349419876, -479971.70447965915, -454314.4275920901, -465433.4593335938, -0.05, 0.932, 0.318, 192.0, 0.0, 0.0, 0.0, 0.0, 0.0, 0.0, 0.0, 0.0, 0.0, 1.740142877855312E9, 0.0, 2025-02-21 10:01:17.855
48.0, -483771.94807195046, -333922.1875574813, -765548.9463268454, -468019.57851881726, -481656.60132844467, -480074.0307657756, -462780.4860807045, -469220.4706931676, -0.05, 0.932, 0.318, 192.0, 0.0, 0.0, 0.0, 0.0, 0.0, 0.0, 0.0, 0.0, 0.0, 1.74014287785533E9, 0.0, 2025-02-21 10:01:17.855
49.0, -456150.4669368824, -333915.9737725227, -789131.7354597731, -481205.65488405887, -470898.12557674956, -464411.40346663044, -479617.7869579538, -480689.59780807473, -0.05, 0.932, 0.318, 192.0, 0.0, 0.0, 0.0, 0.0, 0.0, 0.0, 0.0, 0.0, 0.0, 1.740142877855348E9, 0.0, 2025-02-21 10:01:17.855
50.0, -468384.73896798363, -333913.9621155217, -783708.442295604, -479316.5748496741, -472360.5331612269, -462864.8415642788, -475368.0944881552, -480015.4915470471, -0.05, 0.932, 0.318, 192.0, 0.0, 0.0, 0.0, 0.0, 0.0, 0.0, 0.0, 0.0, 0.0, 1.7401428778553662E9, 0.0, 2025-02-21 10:01:17.855
51.0, -497833.69872971764, -333914.4091504108, -759767.0417746356, -462894.0776460264, -481908.25961926696, -478272.9271975669, -456232.81076345575, -467193.05571234896, -0.05, 0.932, 0.318, 192.0, 0.0, 0.0, 0.0, 0.0, 0.0, 0.0, 0.0, 0.0, 0.0, 1.740142877855384E9, 0.0, 2025-02-21 10:01:17.855
52.0, -489344.9532204811, -333909.9835050087, -762257.3390313792, -465040.7168317696, -482284.5735889165, -481268.55269295606, -459456.4911075224, -467118.62440331274, -0.044, 0.932, 0.328, 192.0, 254.0, 160.0, 29.0, 32.0, 10.0, 64.0, 0.0, 0.0, 0.0, 1.740142877855409E9, 0.0, 2025-02-21 10:01:17.855
53.0, -458991.0160292406, -333907.34599916294, -786876.5338512104, -479949.17392124824, -473230.2395379829, -467565.4804784633, -477740.64275510825, -479333.87509988254, -0.044, 0.932, 0.328, 192.0, 0.0, 0.0, 0.0, 0.0, 0.0, 0.0, 0.0, 0.0, 0.0, 1.7401428778554296E9, 0.0, 2025-02-21 10:01:17.855
54.0, -463508.3035836582, -333903.54620260553, -787765.4180247091, -480832.760731311, -470371.00438726007, -461017.40282981435, -477848.1993494272, -481168.64039524086, -0.044, 0.932, 0.328, 192.0, 0.0, 0.0, 0.0, 0.0, 0.0, 0.0, 0.0, 0.0, 0.0, 1.7401428778554595E9, 0.0, 2025-02-21 10:01:17.855
55.0, -494133.6803595639, -333903.63560958335, -764005.6030756955, -465722.5344446343, -481108.8271270785, -476051.32026092056, -459036.4571257183, -469481.18144049426, -0.044, 0.932, 0.328, 192.0, 0.0, 0.0, 0.0, 0.0, 0.0, 0.0, 0.0, 0.0, 0.0, 1.7401428778554788E9, 0.0, 2025-02-21 10:01:17.855
56.0, -494000.5533695881, -333896.39364437986, -759858.7733338801, -462532.7169934174, -482550.6487549125, -481822.6300862587, -456741.3576533029, -465491.5962209221, -0.044, 0.932, 0.328, 192.0, 0.0, 0.0, 0.0, 0.0, 0.0, 0.0, 0.0, 0.0, 0.0, 1.7401428778555012E9, 0.0, 2025-02-21 10:01:17.855
57.0, -462652.67880590906, -333893.08558620047, -784135.7182426117, -478263.3382991956, -475347.7767524453, -470553.4616772487, -475424.6220498827, -477702.9577139566, -0.044, 0.932, 0.328, 192.0, 0.0, 0.0, 0.0, 0.0, 0.0, 0.0, 0.0, 0.0, 0.0, 1.7401428778555193E9, 0.0, 2025-02-21 10:01:17.855
58.0, -459535.4151171941, -333889.73282453214, -790998.5531566803, -481742.02969575283, -468839.3287467157, -459858.3531210844, -479636.6294785297, -481836.91285096563, -0.044, 0.932, 0.328, 192.0, 0.0, 0.0, 0.0, 0.0, 0.0, 0.0, 0.0, 0.0, 0.0, 1.7401428778555367E9, 0.0, 2025-02-21 10:01:17.855
59.0, -489388.94145356916, -333886.0671384415, -768875.0200122619, -468912.0836749177, -479879.3694233143, -473382.3878624902, -462387.877689347, -471998.90428768453, -0.044, 0.932, 0.328, 192.0, 0.0, 0.0, 0.0, 0.0, 0.0, 0.0, 0.0, 0.0, 0.0, 1.7401428778555543E9, 0.0, 2025-02-21 10:01:17.855
60.0, -497727.0362051769, -333880.70271977223, -758352.042240148, -460654.36579637125, -482654.65142186306, -481941.98840165004, -454666.19934632775, -464414.7562282987, -0.044, 0.932, 0.328, 192.0, 0.0, 0.0, 0.0, 0.0, 0.0, 0.0, 0.0, 0.0, 0.0, 1.740142877855572E9, 0.0, 2025-02-21 10:01:17.855
61.0, -467873.15224089054, -333883.38492910686, -780332.0771851633, -475966.36128024594, -477709.19385065965, -473824.0806846715, -472321.1717392411, -475596.015226366, -0.044, 0.932, 0.328, 192.0, 0.0, 0.0, 0.0, 0.0, 0.0, 0.0, 0.0, 0.0, 0.0, 1.7401428778555963E9, 0.0, 2025-02-21 10:01:17.855
62.0, -456698.8893388378, -333883.7425570181, -793177.714130606, -482157.9062530883, -468218.9337276142, -459824.35611776786, -480654.5949762577, -482060.60910947435, -0.048, 0.9380000000000001, 0.324, 192.0, 254.0, 128.0, 29.0, 80.0, 10.0, 32.0, 0.0, 0.0, 0.0, 1.7401428778556144E9, 0.0, 2025-02-21 10:01:17.855
63.0, -483875.213131334, -333879.808649994, -774144.3543606227, -472208.2507262529, -478242.886453019, -470472.66012104275, -466085.23620191053, -474549.88653062424, -0.048, 0.9380000000000001, 0.324, 192.0, 0.0, 0.0, 0.0, 0.0, 0.0, 0.0, 0.0, 0.0, 0.0, 1.7401428778556333E9, 0.0, 2025-02-21 10:01:17.855
64.0, -499935.3885573612, -333875.78533599206, -758139.7453713114, -459808.9334140937, -482632.85847101914, -481606.1757929535, -453652.52538353513, -464119.91436718876, -0.048, 0.9380000000000001, 0.324, 192.0, 0.0, 0.0, 0.0, 0.0, 0.0, 0.0, 0.0, 0.0, 0.0, 1.740142877855651E9, 0.0, 2025-02-21 10:01:17.855
65.0, -473601.45730989665, -333873.99719643564, -776346.9846662265, -473267.0528611008, -479580.6383586691, -476614.65127642767, -468937.16233219655, -473290.5892480122, -0.048, 0.9380000000000001, 0.324, 192.0, 0.0, 0.0, 0.0, 0.0, 0.0, 0.0, 0.0, 0.0, 0.0, 1.7401428778556688E9, 0.0, 2025-02-21 10:01:17.855
66.0, -455216.2534256284, -333868.4539638107, -794217.0702477777, -482129.07250274095, -468495.2012890818, -460763.4646610576, -480899.4136332767, -481870.2393019485, -0.048, 0.9380000000000001, 0.324, 192.0, 0.0, 0.0, 0.0, 0.0, 0.0, 0.0, 0.0, 0.0, 0.0, 1.7401428778556871E9, 0.0, 2025-02-21 10:01:17.855
67.0, -478033.8976423619, -333863.08954514144, -779463.8460235413, -475253.7653152663, -476214.1974227664, -467459.3990992784, -469794.59760124655, -476888.7730704276, -0.048, 0.9380000000000001, 0.324, 192.0, 0.0, 0.0, 0.0, 0.0, 0.0, 0.0, 0.0, 0.0, 0.0, 1.7401428778557055E9, 0.0, 2025-02-21 10:01:17.855
68.0, -500634.99815881235, -333864.4306498087, -759164.0811162093, -460001.24782338715, -482491.371928617, -480797.1544023937, -453661.7790057396, -464603.6508206905, -0.048, 0.9380000000000001, 0.324, 192.0, 0.0, 0.0, 0.0, 0.0, 0.0, 0.0, 0.0, 0.0, 0.0, 1.7401428778557239E9, 0.0, 2025-02-21 10:01:17.855
69.0, -479472.90295039455, -333861.9272544297, -772444.3700843299, -470244.2699961985, -480868.43411546166, -478764.1067819723, -465384.3749027699, -470907.78153035423, -0.048, 0.9380000000000001, 0.324, 192.0, 0.0, 0.0, 0.0, 0.0, 0.0, 0.0, 0.0, 0.0, 0.0, 1.74014287785575E9, 0.0, 2025-02-21 10:01:17.855
70.0, -455135.6083316336, -333854.4170682928, -794165.0353866859, -481704.47876506794, -469545.2191883587, -462527.35257474816, -480421.8462612446, -481305.5001265407, -0.048, 0.9380000000000001, 0.324, 192.0, 0.0, 0.0, 0.0, 0.0, 0.0, 0.0, 0.0, 0.0, 0.0, 1.7401428778557684E9, 0.0, 2025-02-21 10:01:17.855
71.0, -472347.7926668874, -333859.02152765053, -784481.186804913, -477760.69226988463, -473974.4855731113, -464646.5661700447, -473178.4058425911, -478822.37777976727, -0.048, 0.9380000000000001, 0.324, 192.0, 0.0, 0.0, 0.0, 0.0, 0.0, 0.0, 0.0, 0.0, 0.0, 1.740142877855787E9, 0.0, 2025-02-21 10:01:17.855
72.0, -499649.2862283333, -333855.802876449, -761453.8832251887, -461270.67044623743, -482193.3114163055, -479500.03796816326, -454760.00961780665, -465829.4875418529, -0.046, 0.9380000000000001, 0.324, 192.0, 254.0, 144.0, 29.0, 80.0, 10.0, 32.0, 0.0, 0.0, 0.0, 1.7401428778558066E9, 0.0, 2025-02-21 10:01:17.855
73.0, -485284.62472970784, -333846.7280682001, -768787.1776565525, -467165.2948457354, -481753.3620301917, -480362.8376558826, -461891.46779673913, -468611.609174205, -0.046, 0.9380000000000001, 0.324, 192.0, 0.0, 0.0, 0.0, 0.0, 0.0, 0.0, 0.0, 0.0, 0.0, 1.740142877855827E9, 0.0, 2025-02-21 10:01:17.855
74.0, -456696.296536481, -333845.56577748846, -792847.9364929124, -480850.7985890864, -471405.73369332956, -465159.0693186605, -479170.3944409364, -480317.70948382735, -0.046, 0.9380000000000001, 0.324, 192.0, 0.0, 0.0, 0.0, 0.0, 0.0, 0.0, 0.0, 0.0, 0.0, 1.7401428778558505E9, 0.0, 2025-02-21 10:01:17.855
75.0, -466998.48377686547, -333848.87383566785, -789041.8814470627, -479720.7167411705, -471759.78532550164, -462290.44643526635, -476085.25020900375, -480319.9223065284, -0.046, 0.9380000000000001, 0.324, 192.0, 0.0, 0.0, 0.0, 0.0, 0.0, 0.0, 0.0, 0.0, 0.0, 1.7401428778558688E9, 0.0, 2025-02-21 10:01:17.855
76.0, -497008.38291744987, -333846.6386612223, -764961.0060406931, -463545.5192381763, -481647.61592717364, -477668.75954493997, -456907.2523006502, -467746.2613876178, -0.046, 0.9380000000000001, 0.324, 192.0, 0.0, 0.0, 0.0, 0.0, 0.0, 0.0, 0.0, 0.0, 0.0, 1.7401428778558936E9, 0.0, 2025-02-21 10:01:17.855
77.0, -490662.27563169907, -333840.4248762638, -765702.9051426536, -464280.846927267, -482276.12462951243, -481370.0743162721, -458695.28009835246, -466617.92297576944, -0.046, 0.9380000000000001, 0.324, 192.0, 0.0, 0.0, 0.0, 0.0, 0.0, 0.0, 0.0, 0.0, 0.0, 1.7401428778559113E9, 0.0, 2025-02-21 10:01:17.855
78.0, -459769.4825851301, -333838.68144019623, -790459.1608594848, -479496.61815126165, -473693.9935319416, -468276.80239400896, -477186.4312513389, -478900.6312371053, -0.046, 0.9380000000000001, 0.324, 192.0, 0.0, 0.0, 0.0, 0.0, 0.0, 0.0, 0.0, 0.0, 0.0, 1.7401428778559315E9, 0.0, 2025-02-21 10:01:17.855
79.0, -462378.55701190914, -333835.6863064392, -792871.9422664574, -481048.61152751587, -469888.27376225876, -460617.2171970865, -478364.5917015781, -481322.12982441543, -0.046, 0.9380000000000001, 0.324, 192.0, 0.0, 0.0, 0.0, 0.0, 0.0, 0.0, 0.0, 0.0, 0.0, 1.7401428778559504E9, 0.0, 2025-02-21 10:01:17.855
80.0, -493024.4079857359, -333830.05366683647, -769372.1675124369, -466473.7542240327, -480750.8192361378, -475345.3627640442, -459870.9595049572, -470093.1275001917, -0.046, 0.9380000000000001, 0.324, 192.0, 0.0, 0.0, 0.0, 0.0, 0.0, 0.0, 0.0, 0.0, 0.0, 1.740142877855969E9, 0.0, 2025-02-21 10:01:17.855
81.0, -495193.4212676789, -333826.16446330125, -763456.0183830283, -461878.5261366995, -482505.31941715715, -481826.98867642746, -456079.3883895145, -465091.54469866096, -0.046, 0.9380000000000001, 0.324, 192.0, 0.0, 0.0, 0.0, 0.0, 0.0, 0.0, 0.0, 0.0, 0.0, 1.7401428778559875E9, 0.0, 2025-02-21 10:01:17.855
82.0, -464029.3674504003, -333824.5104342116, -787270.6845129352, -477609.4827186445, -475992.7139869588, -471477.6839587312, -474584.4199758077, -477094.02913976065, -0.044, 0.9380000000000001, 0.326, 192.0, 254.0, 160.0, 29.0, 80.0, 10.0, 48.0, 0.0, 0.0, 0.0, 1.740142877856006E9, 0.0, 2025-02-21 10:01:17.856
83.0, -458671.2966765519, -333825.67272492324, -795831.4920462957, -481819.8137664573, -468603.4954909677, -459790.4932249181, -479937.5063106425, -481860.985679744, -0.044, 0.9380000000000001, 0.326, 192.0, 0.0, 0.0, 0.0, 0.0, 0.0, 0.0, 0.0, 0.0, 0.0, 1.7401428778560324E9, 0.0, 2025-02-21 10:01:17.856
84.0, -487974.79128537077, -333821.6941144102, -774419.1467069563, -469773.1399265695, -479432.3121824637, -472615.41010325076, -463380.2280879293, -472662.2146561402, -0.044, 0.9380000000000001, 0.326, 192.0, 0.0, 0.0, 0.0, 0.0, 0.0, 0.0, 0.0, 0.0, 0.0, 1.740142877856052E9, 0.0, 2025-02-21 10:01:17.856
85.0, -498502.3735168426, -333815.25681200705, -762310.5808866717, -460297.36373393104, -482569.1559993215, -481818.7408827235, -454293.7745802134, -464228.54384524154, -0.044, 0.9380000000000001, 0.326, 192.0, 0.0, 0.0, 0.0, 0.0, 0.0, 0.0, 0.0, 0.0, 0.0, 1.7401428778560705E9, 0.0, 2025-02-21 10:01:17.856
86.0, -469499.9122023478, -333815.2121085182, -783326.3615758851, -475197.4389192389, -478264.54529339616, -474662.00288081204, -471365.50055331003, -474909.90607856587, -0.044, 0.9380000000000001, 0.326, 192.0, 0.0, 0.0, 0.0, 0.0, 0.0, 0.0, 0.0, 0.0, 0.0, 1.7401428778561015E9, 0.0, 2025-02-21 10:01:17.856
87.0, -456177.7360651179, -333812.03816080553, -797697.3709699358, -482100.64108379383, -468243.4759430261, -460031.89206503535, -480728.5568986603, -481955.60061402334, -0.044, 0.9380000000000001, 0.326, 192.0, 0.0, 0.0, 0.0, 0.0, 0.0, 0.0, 0.0, 0.0, 0.0, 1.7401428778561203E9, 0.0, 2025-02-21 10:01:17.856
88.0, -482296.91175185586, -333806.9419630697, -779757.2797247506, -473052.14083816303, -477679.8236584453, -469641.24228253873, -467126.20164468314, -475183.8267068657, -0.044, 0.9380000000000001, 0.326, 192.0, 0.0, 0.0, 0.0, 0.0, 0.0, 0.0, 0.0, 0.0, 0.0, 1.7401428778561392E9, 0.0, 2025-02-21 10:01:17.856
89.0, -500287.65204997687, -333805.6455618913, -762447.1053418047, -459750.7294715321, -482512.02494049375, -481349.9577462623, -453565.8900220263, -464168.0600247455, -0.044, 0.9380000000000001, 0.326, 192.0, 0.0, 0.0, 0.0, 0.0, 0.0, 0.0, 0.0, 0.0, 0.0, 1.7401428778561575E9, 0.0, 2025-02-21 10:01:17.856
90.0, -475008.18669893587, -333802.3822072008, -779558.9303444541, -472481.36669175234, -479822.57364065334, -477109.6530091349, -468049.1498767317, -472669.1213451769, -0.044, 0.9380000000000001, 0.326, 192.0, 0.0, 0.0, 0.0, 0.0, 0.0, 0.0, 0.0, 0.0, 0.0, 1.740142877856176E9, 0.0, 2025-02-21 10:01:17.856
91.0, -454996.13344623253, -333795.00613153056, -798532.7450672084, -481975.3148526329, -468603.83076713455, -461065.54848737107, -480812.10771943425, -481691.73827072844, -0.044, 0.9380000000000001, 0.326, 192.0, 0.0, 0.0, 0.0, 0.0, 0.0, 0.0, 0.0, 0.0, 0.0, 1.7401428778562016E9, 0.0, 2025-02-21 10:01:17.856
92.0, -476513.26376357843, -333795.40846293076, -784979.273078355, -475927.46924489376, -475605.1347381038, -466680.2172875664, -470726.4641793328, -477398.4598992419, -0.048, 0.936, 0.324, 192.0, 254.0, 128.0, 29.0, 64.0, 10.0, 32.0, 0.0, 0.0, 0.0, 1.7401428778562205E9, 0.0, 2025-02-21 10:01:17.856
93.0, -500540.40557627747, -333792.6368466183, -763809.9359047337, -460234.19770410034, -482335.87084244145, -480422.8520897451, -453857.11090053455, -464846.4578207085, -0.048, 0.936, 0.324, 192.0, 0.0, 0.0, 0.0, 0.0, 0.0, 0.0, 0.0, 0.0, 0.0, 1.74014287785624E9, 0.0, 2025-02-21 10:01:17.856
94.0, -481108.067167767, -333788.4794221496, -775541.6513135018, -469387.77350041555, -481078.9875482306, -479208.48181348824, -464414.8232835321, -470240.0455164964, -0.048, 0.936, 0.324, 192.0, 0.0, 0.0, 0.0, 0.0, 0.0, 0.0, 0.0, 0.0, 0.0, 1.740142877856259E9, 0.0, 2025-02-21 10:01:17.856
95.0, -455453.98657965503, -333785.3501779259, -798028.892043697, -481439.40942757245, -470022.2501185239, -463214.06521964853, -480089.5205246831, -481001.00231182604, -0.048, 0.936, 0.324, 192.0, 0.0, 0.0, 0.0, 0.0, 0.0, 0.0, 0.0, 0.0, 0.0, 1.740142877856278E9, 0.0, 2025-02-21 10:01:17.856
96.0, -470842.71560224483, -333782.39974765776, -789924.1942076915, -478303.906715382, -473342.69116433756, -463957.17131580965, -474005.8674223265, -479216.5954967255, -0.048, 0.936, 0.324, 192.0, 0.0, 0.0, 0.0, 0.0, 0.0, 0.0, 0.0, 0.0, 0.0, 1.7401428778562965E9, 0.0, 2025-02-21 10:01:17.856
97.0, -499066.08451200544, -333780.8351255459, -766469.6146809596, -461823.6749558062, -481980.276939902, -478984.9867206796, -455273.0492082893, -466282.1103670729, -0.048, 0.936, 0.324, 192.0, 0.0, 0.0, 0.0, 0.0, 0.0, 0.0, 0.0, 0.0, 0.0, 1.7401428778563151E9, 0.0, 2025-02-21 10:01:17.856
98.0, -486844.8658996661, -333777.5270673665, -772014.2778175209, -466335.6204432989, -481844.8253685028, -480627.5717172112, -460971.9393815922, -468007.24035587796, -0.048, 0.936, 0.324, 192.0, 0.0, 0.0, 0.0, 0.0, 0.0, 0.0, 0.0, 0.0, 0.0, 1.7401428778563404E9, 0.0, 2025-02-21 10:01:17.856
99.0, -457414.7710102524, -333775.7389278101, -796417.9571173141, -480449.8082935582, -471995.61858124955, -465984.9886280285, -478626.978829739, -479890.83586821984, -0.048, 0.936, 0.324, 192.0, 0.0, 0.0, 0.0, 0.0, 0.0, 0.0, 0.0, 0.0, 0.0, 1.7401428778563616E9, 0.0, 2025-02-21 10:01:17.856
100.0, -465636.36846975907, -333772.69909056416, -794320.3353071613, -480067.59346337244, -471181.63510342065, -461746.6955479021, -476746.4148099917, -480563.1316379466, -0.048, 0.936, 0.324, 192.0, 0.0, 0.0, 0.0, 0.0, 0.0, 0.0, 0.0, 0.0, 0.0, 1.7401428778563864E9, 0.0, 2025-02-21 10:01:17.856
101.0, -495979.12978877185, -333773.50375336455, -770279.0224884775, -464325.10338128847, -481362.43001966836, -477024.02347612666, -457704.8743015378, -468356.5981217144, -0.048, 0.936, 0.324, 192.0, 0.0, 0.0, 0.0, 0.0, 0.0, 0.0, 0.0, 0.0, 0.0, 1.7401428778564053E9, 0.0, 2025-02-21 10:01:17.856
102.0, -491967.1704729999, -333767.0217474725, -769163.3575157354, -463579.7174071929, -482259.4278764043, -481451.81464574515, -457945.6025893215, -466138.74627813656, -0.048, 0.934, 0.322, 192.0, 254.0, 128.0, 29.0, 48.0, 10.0, 16.0, 0.0, 0.0, 0.0, 1.7401428778564236E9, 0.0, 2025-02-21 10:01:17.856
103.0, -460782.28482988896, -333767.0664509614, -793826.8087895882, -478990.0158631821, -474261.7501928509, -469100.71004637604, -476521.04217064887, -478403.55079216376, -0.048, 0.934, 0.322, 192.0, 0.0, 0.0, 0.0, 0.0, 0.0, 0.0, 0.0, 0.0, 0.0, 1.7401428778564432E9, 0.0, 2025-02-21 10:01:17.856
104.0, -461253.0125681177, -333768.7204800511, -797912.8864899739, -481240.4565501758, -469456.37100414885, -460297.0955129976, -478831.6314019718, -481440.8846427065, -0.048, 0.934, 0.322, 192.0, 0.0, 0.0, 0.0, 0.0, 0.0, 0.0, 0.0, 0.0, 0.0, 1.7401428778564615E9, 0.0, 2025-02-21 10:01:17.856
105.0, -491713.9699118102, -333765.01009047154, -774846.6908748974, -467356.8716474619, -480366.1233623175, -474597.5628015474, -460803.1613592102, -470759.12007798196, -0.048, 0.934, 0.322, 192.0, 0.0, 0.0, 0.0, 0.0, 0.0, 0.0, 0.0, 0.0, 0.0, 1.7401428778564863E9, 0.0, 2025-02-21 10:01:17.856
106.0, -496189.23618665175, -333761.56792182545, -767187.7762303086, -461386.87716566055, -482450.26707056374, -481790.7788504099, -455525.24394097854, -464780.0060844429, -0.048, 0.934, 0.322, 192.0, 0.0, 0.0, 0.0, 0.0, 0.0, 0.0, 0.0, 0.0, 0.0, 1.740142877856505E9, 0.0, 2025-02-21 10:01:17.856
107.0, -465409.8111879601, -333759.55626482447, -790391.1668528517, -476978.090641271, -476593.86415408424, -472348.93260585464, -473742.3403551985, -476500.1209378387, -0.048, 0.934, 0.322, 192.0, 0.0, 0.0, 0.0, 0.0, 0.0, 0.0, 0.0, 0.0, 0.0, 1.7401428778565235E9, 0.0, 2025-02-21 10:01:17.856
108.0, -457870.38896922936, -333754.6388810443, -800574.8451441342, -481857.2305866755, -468413.4609596087, -459763.4699658716, -480175.01594722463, -481846.09941793676, -0.048, 0.934, 0.322, 192.0, 0.0, 0.0, 0.0, 0.0, 0.0, 0.0, 0.0, 0.0, 0.0, 1.740142877856542E9, 0.0, 2025-02-21 10:01:17.856
109.0, -486483.4828953127, -333753.20836939913, -779985.4016286614, -470654.7821348646, -478944.41830449324, -471802.70067485585, -464384.44726281735, -473327.3355158968, -0.048, 0.934, 0.322, 192.0, 0.0, 0.0, 0.0, 0.0, 0.0, 0.0, 0.0, 0.0, 0.0, 1.7401428778565605E9, 0.0, 2025-02-21 10:01:17.856
110.0, -499162.1076061854, -333748.3356891079, -766343.2826212982, -460021.49850386364, -482471.7247452408, -481654.52261621034, -453993.0989138006, -464102.547061747, -0.048, 0.934, 0.322, 192.0, 0.0, 0.0, 0.0, 0.0, 0.0, 0.0, 0.0, 0.0, 0.0, 1.740142877856579E9, 0.0, 2025-02-21 10:01:17.856
111.0, -471020.54608113127, -333748.06746817444, -786399.2347001118, -474433.6127559677, -478686.9932636015, -475369.03326142236, -470452.2753300995, -474252.76479157986, -0.048, 0.934, 0.322, 192.0, 0.0, 0.0, 0.0, 0.0, 0.0, 0.0, 0.0, 0.0, 0.0, 1.7401428778565977E9, 0.0, 2025-02-21 10:01:17.856
112.0, -455723.54861778603, -333745.65347977326, -802158.5556457705, -482022.99112355604, -468267.280550871, -460260.21513464634, -480763.2915095439, -481838.0527899329, -0.048, 0.93, 0.322, 192.0, 254.0, 128.0, 29.0, 16.0, 10.0, 16.0, 0.0, 0.0, 0.0, 1.7401428778566165E9, 0.0, 2025-02-21 10:01:17.856
113.0, -480718.8785933112, -333741.9430901937, -785337.4821349957, -473838.6987255453, -477090.7434333257, -468805.8681852661, -468135.78523824044, -475775.3879756198, -0.048, 0.93, 0.322, 192.0, 0.0, 0.0, 0.0, 0.0, 0.0, 0.0, 0.0, 0.0, 0.0, 1.7401428778566427E9, 0.0, 2025-02-21 10:01:17.856
114.0, -500527.62037844904, -333738.76914248103, -766822.995760798, -459760.1172042033, -482387.43631689984, -481068.86220799235, -453541.61602754786, -464245.03943264956, -0.048, 0.93, 0.322, 192.0, 0.0, 0.0, 0.0, 0.0, 0.0, 0.0, 0.0, 0.0, 0.0, 1.7401428778566616E9, 0.0, 2025-02-21 10:01:17.856
115.0, -476741.3409640004, -333733.6729447452, -782525.3197580958, -471613.73902723065, -480172.87017975695, -477724.7506648005, -467027.8316173353, -471951.76445862825, -0.048, 0.93, 0.322, 192.0, 0.0, 0.0, 0.0, 0.0, 0.0, 0.0, 0.0, 0.0, 0.0, 1.7401428778566802E9, 0.0, 2025-02-21 10:01:17.856
116.0, -454978.7884925352, -333734.4329040567, -802624.8577385972, -481794.33277777827, -468941.45386713196, -461600.58219439775, -480626.83410964423, -481466.16446568543, -0.048, 0.93, 0.322, 192.0, 0.0, 0.0, 0.0, 0.0, 0.0, 0.0, 0.0, 0.0, 0.0, 1.7401428778566992E9, 0.0, 2025-02-21 10:01:17.856
117.0, -474891.77881381265, -333733.3153168339, -790537.8837034564, -476610.35974149226, -474953.82725642057, -465870.72651037294, -471681.59892339696, -477903.38580648735, -0.048, 0.93, 0.322, 192.0, 0.0, 0.0, 0.0, 0.0, 0.0, 0.0, 0.0, 0.0, 0.0, 1.7401428778567169E9, 0.0, 2025-02-21 10:01:17.856
118.0, -500278.8007591726, -333731.0801423884, -768575.2831191162, -460574.50301343243, -482179.90036963235, -480010.7976807115, -454164.8944216841, -465162.1538593953, -0.048, 0.93, 0.322, 192.0, 0.0, 0.0, 0.0, 0.0, 0.0, 0.0, 0.0, 0.0, 0.0, 1.7401428778567345E9, 0.0, 2025-02-21 10:01:17.856
119.0, -482717.66098948254, -333727.6826772312, -778660.1219964173, -468515.1837486248, -481253.3982102154, -479594.71995767596, -463445.67399569444, -469585.38527314493, -0.048, 0.93, 0.322, 192.0, 0.0, 0.0, 0.0, 0.0, 0.0, 0.0, 0.0, 0.0, 0.0, 1.740142877856756E9, 0.0, 2025-02-21 10:01:17.856
120.0, -455842.9963401552, -333727.54856676445, -801825.1570254752, -481149.060267098, -470498.74460682215, -463914.6582978557, -479716.2910957684, -480678.66780503606, -0.048, 0.93, 0.322, 192.0, 0.0, 0.0, 0.0, 0.0, 0.0, 0.0, 0.0, 0.0, 0.0, 1.7401428778567803E9, 0.0, 2025-02-21 10:01:17.856
121.0, -469357.8445145899, -333721.33478180587, -795316.1055226453, -478799.78016612295, -472724.2407470037, -463306.1991102933, -474804.6293621814, -479580.2360272689, -0.048, 0.93, 0.322, 192.0, 0.0, 0.0, 0.0, 0.0, 0.0, 0.0, 0.0, 0.0, 0.0, 1.7401428778567991E9, 0.0, 2025-02-21 10:01:17.856
122.0, -498318.37395648647, -333718.25024107104, -771586.599539113, -462443.8688092076, -481766.84013209824, -478441.70521994896, -455895.858215792, -466804.40357976005, -0.048, 0.93, 0.322, 192.0, 254.0, 128.0, 29.0, 16.0, 10.0, 16.0, 0.0, 0.0, 0.0, 1.7401428778568287E9, 0.0, 2025-02-21 10:01:17.856
123.0, -488422.36261634383, -333712.7070084461, -775222.7366236135, -465477.7828428487, -481934.07588411286, -480871.250435263, -460056.97072231426, -467403.9444212848, -0.048, 0.93, 0.322, 192.0, 0.0, 0.0, 0.0, 0.0, 0.0, 0.0, 0.0, 0.0, 0.0, 1.740142877856849E9, 0.0, 2025-02-21 10:01:17.856
124.0, -458385.194347524, -333708.6836944442, -799774.3397682118, -480001.20878234017, -472719.81510160153, -466955.6801862336, -477995.98908376566, -479415.6154293556, -0.048, 0.93, 0.322, 192.0, 0.0, 0.0, 0.0, 0.0, 0.0, 0.0, 0.0, 0.0, 0.0, 1.7401428778568676E9, 0.0, 2025-02-21 10:01:17.856
125.0, -464313.32401196053, -333707.7002176881, -799539.3782304977, -480382.149563092, -470641.57225389156, -461277.5100800407, -477377.60572166514, -480783.9445214206, -0.048, 0.93, 0.322, 192.0, 0.0, 0.0, 0.0, 0.0, 0.0, 0.0, 0.0, 0.0, 0.0, 1.7401428778568861E9, 0.0, 2025-02-21 10:01:17.856
126.0, -494924.9321132818, -333709.6671712002, -775607.9018840673, -465088.05782652594, -481047.4045333153, -476344.3516307297, -458521.2717677679, -468960.0281667743, -0.048, 0.93, 0.322, 192.0, 0.0, 0.0, 0.0, 0.0, 0.0, 0.0, 0.0, 0.0, 0.0, 1.74014287785691E9, 0.0, 2025-02-21 10:01:17.856
127.0, -493295.04290760076, -333705.3756362648, -772625.0168830177, -462859.87947700976, -482257.4832746367, -481530.40337925, -457193.04170525575, -465668.7561474748, -0.048, 0.93, 0.322, 192.0, 0.0, 0.0, 0.0, 0.0, 0.0, 0.0, 0.0, 0.0, 0.0, 1.7401428778569498E9, 0.0, 2025-02-21 10:01:17.856
128.0, -462068.85124073643, -333700.99469435157, -796986.1831648569, -478397.7169868609, -474959.7281169568, -470063.9584736775, -475718.5251377255, -477824.2606311155, -0.048, 0.93, 0.322, 192.0, 0.0, 0.0, 0.0, 0.0, 0.0, 0.0, 0.0, 0.0, 0.0, 1.7401428778569694E9, 0.0, 2025-02-21 10:01:17.856
129.0, -460194.0763228031, -333698.49129897257, -802885.9708173241, -481373.6952988739, -469091.59053463826, -460062.67041715037, -479226.3185055636, -481510.1526987735, -0.048, 0.93, 0.322, 192.0, 0.0, 0.0, 0.0, 0.0, 0.0, 0.0, 0.0, 0.0, 0.0, 1.7401428778569884E9, 0.0, 2025-02-21 10:01:17.856
130.0, -490345.59611625626, -333701.6652466852, -780368.8234530478, -468220.6101084483, -479959.50042718655, -473822.06902767054, -461778.6138389843, -471433.96394657664, -0.048, 0.93, 0.322, 192.0, 0.0, 0.0, 0.0, 0.0, 0.0, 0.0, 0.0, 0.0, 0.0, 1.7401428778570073E9, 0.0, 2025-02-21 10:01:17.857
131.0, -497144.1027097825, -333697.9101536167, -770980.017898085, -460882.0183136485, -482382.9436162643, -481719.700303042, -455034.6007984401, -464497.36827580555, -0.048, 0.93, 0.322, 192.0, 0.0, 0.0, 0.0, 0.0, 0.0, 0.0, 0.0, 0.0, 0.0, 1.740142877857026E9, 0.0, 2025-02-21 10:01:17.857
132.0, -466813.41133277555, -333694.33387450385, -793521.1710359063, -476273.8095252287, -477116.2244220048, -473142.7324584404, -472882.625208214, -475872.34984306694, -0.044, 0.936, 0.324, 192.0, 254.0, 160.0, 29.0, 64.0, 10.0, 32.0, 0.0, 0.0, 0.0, 1.740142877857045E9, 0.0, 2025-02-21 10:01:17.857
133.0, -457106.76397165825, -333687.31542674487, -805307.3352941675, -481861.11979021074, -468235.3622597888, -459737.3184248589, -480374.10293508804, -481805.3298360503, -0.044, 0.936, 0.324, 192.0, 0.0, 0.0, 0.0, 0.0, 0.0, 0.0, 0.0, 0.0, 0.0, 1.7401428778570652E9, 0.0, 2025-02-21 10:01:17.857
134.0, -484933.6129347817, -333687.270723256, -785597.5223299888, -471505.10954917787, -478421.8568708726, -470942.4490860044, -465431.4476765928, -473979.31354991364, -0.044, 0.936, 0.324, 192.0, 0.0, 0.0, 0.0, 0.0, 0.0, 0.0, 0.0, 0.0, 0.0, 1.740142877857084E9, 0.0, 2025-02-21 10:01:17.857
135.0, -499708.7418685844, -333685.79550812196, -770481.9316246428, -459807.65936465975, -482373.1535521929, -481460.26360514923, -453769.13443435845, -464036.2294359481, -0.044, 0.936, 0.324, 192.0, 0.0, 0.0, 0.0, 0.0, 0.0, 0.0, 0.0, 0.0, 0.0, 1.7401428778571093E9, 0.0, 2025-02-21 10:01:17.857
