%OpenBCI Raw EXG Data
%Number of channels = 8
%Sample Rate = 250 Hz
%Board = OpenBCI_GUI$BoardCytonSerial
Sample Index, EXG Channel 0, EXG Channel 1, EXG Channel 2, EXG Channel 3, EXG Channel 4, EXG Channel 5, EXG Channel 6, EXG Channel 7, Accel Channel 0, Accel Channel 1, Accel Channel 2, Not Used, Digital Channel 0 (D11), Digital Channel 1 (D12), Digital Channel 2 (D13), Digital Channel 3 (D17), Not Used, Digital Channel 4 (D18), Analog Channel 0, Analog Channel 1, Analog Channel 2, Timestamp, Marker Channel, Timestamp (Formatted)
0.0, 0.0, 0.0, 0.0, 0.0, 0.0, 0.0, 0.0, 0.0, -0.148, 0.9480000000000001, 0.24, 192.0, 251.0, 96.0, 29.0, 160.0, 7.0, 128.0, 0.0, 0.0, 0.0, 1.740142939429514E9, 0.0, 2025-02-21 10:02:19.429
1.0, -527002.6358369155, -546068.852671248, -868676.8107028975, -494785.7478005586, -495026.1408121754, -494862.1907665957, -495393.4023253206, -495108.88697014895, -0.148, 0.9480000000000001, 0.24, 192.0, 0.0, 0.0, 0.0, 0.0, 0.0, 0.0, 0.0, 0.0, 0.0, 1.740142939927958E9, 0.0, 2025-02-21 10:02:19.927
2.0, -555488.7718544927, -574439.1172455689, -846324.753323168, -486972.4720087614, -495036.60142858047, -494877.74758073664, -495354.64440043503, -495077.16984476685, -0.148, 0.9480000000000001, 0.24, 192.0, 0.0, 0.0, 0.0, 0.0, 0.0, 0.0, 0.0, 0.0, 0.0, 1.740142939928034E9, 0.0, 2025-02-21 10:02:19.928
3.0, -560936.3390131401, -580350.7066191086, -838063.81679342, -482131.48649114213, -495027.68308254285, -494874.0595429015, -495328.69402512244, -495050.81713805406, -0.148, 0.9480000000000001, 0.24, 192.0, 0.0, 0.0, 0.0, 0.0, 0.0, 0.0, 0.0, 0.0, 0.0, 1.7401429399280748E9, 0.0, 2025-02-21 10:02:19.928
4.0, -532281.7602493478, -551844.1858105882, -860187.2158273717, -492678.4700368011, -495003.47614329774, -494845.42695825425, -495347.80476663174, -495062.6859143598, -0.148, 0.9480000000000001, 0.24, 192.0, 0.0, 0.0, 0.0, 0.0, 0.0, 0.0, 0.0, 0.0, 0.0, 1.7401429399281197E9, 0.0, 2025-02-21 10:02:19.928
5.0, -524213.1381288932, -543342.6551035232, -870403.2147411364, -494941.6512181343, -494981.95141338726, -494818.80603060796, -495352.5656882007, -495067.9162225624, -0.148, 0.9480000000000001, 0.24, 192.0, 0.0, 0.0, 0.0, 0.0, 0.0, 0.0, 0.0, 0.0, 0.0, 1.7401429399281635E9, 0.0, 2025-02-21 10:02:19.928
7.0, -563659.3179296635, -582988.3912787904, -836645.1962763305, -481157.1068951019, -494994.8930734269, -494841.33658901893, -495293.8253037722, -495017.1554109044, -0.148, 0.9480000000000001, 0.24, 192.0, 0.0, 0.0, 0.0, 0.0, 0.0, 0.0, 0.0, 0.0, 0.0, 1.740142939928206E9, 0.0, 2025-02-21 10:02:19.928
8.0, -537750.2486408054, -557342.7149465936, -855594.7370046064, -491206.8758853526, -494971.96018361574, -494815.2521032396, -495306.83401904517, -495022.51982957363, -0.13, 0.9540000000000001, 0.244, 192.0, 251.0, 240.0, 29.0, 208.0, 7.0, 160.0, 0.0, 0.0, 0.0, 1.7401429399282813E9, 0.0, 2025-02-21 10:02:19.928
9.0, -522509.39875953185, -541730.6472934064, -871136.128441826, -494948.6920176378, -494951.84361360595, -494788.8993965268, -495323.39666168654, -495038.07664371456, -0.13, 0.9540000000000001, 0.244, 192.0, 0.0, 0.0, 0.0, 0.0, 0.0, 0.0, 0.0, 0.0, 0.0, 1.7401429399283104E9, 0.0, 2025-02-21 10:02:19.928
10.0, -545400.4461050566, -564315.9227747825, -855025.4380733297, -491133.5845152837, -494957.14097704185, -494795.47080939665, -495294.36174563906, -495014.339091103, -0.13, 0.9540000000000001, 0.244, 192.0, 0.0, 0.0, 0.0, 0.0, 0.0, 0.0, 0.0, 0.0, 0.0, 1.7401429399283495E9, 0.0, 2025-02-21 10:02:19.928
11.0, -564870.6036651854, -584101.5081526648, -836524.8991876721, -481048.00803041557, -494957.74447414215, -494803.58449263393, -495256.9449254209, -494980.6773639533, -0.13, 0.9540000000000001, 0.244, 192.0, 0.0, 0.0, 0.0, 0.0, 0.0, 0.0, 0.0, 0.0, 0.0, 1.7401429399283805E9, 0.0, 2025-02-21 10:02:19.928
12.0, -543431.7044534332, -563022.5614336206, -851021.9724204508, -489388.6061774023, -494939.10311926645, -494783.66908832424, -495265.12566389155, -494982.085523854, -0.13, 0.9540000000000001, 0.244, 192.0, 0.0, 0.0, 0.0, 0.0, 0.0, 0.0, 0.0, 0.0, 0.0, 1.7401429399284048E9, 0.0, 2025-02-21 10:02:19.928
13.0, -522200.9446860486, -541506.4145930308, -870719.0448902899, -494818.1354782743, -494910.20231368573, -494748.4650908071, -495280.2801466322, -494994.15546585986, -0.13, 0.9540000000000001, 0.244, 192.0, 0.0, 0.0, 0.0, 0.0, 0.0, 0.0, 0.0, 0.0, 0.0, 1.7401429399284384E9, 0.0, 2025-02-21 10:02:19.928
14.0, -540121.3216926244, -559048.0636415558, -859307.317055144, -492647.3564085194, -494914.7620695546, -494752.75662574254, -495262.1081783901, -494980.54325348657, -0.13, 0.9540000000000001, 0.244, 192.0, 0.0, 0.0, 0.0, 0.0, 0.0, 0.0, 0.0, 0.0, 0.0, 1.740142939928464E9, 0.0, 2025-02-21 10:02:19.928
15.0, -564527.8173122188, -583655.1885193811, -837649.5495616853, -481800.3677487812, -494920.0594329905, -494765.6312305488, -495222.21031453734, -494946.34508446994, -0.13, 0.9540000000000001, 0.244, 192.0, 0.0, 0.0, 0.0, 0.0, 0.0, 0.0, 0.0, 0.0, 0.0, 1.7401429399284897E9, 0.0, 2025-02-21 10:02:19.928
16.0, -548960.2743339866, -568524.3092208278, -846761.0146714468, -487366.62267048634, -494902.2227409152, -494747.7274832401, -495220.46687846986, -494938.70078786626, -0.13, 0.9540000000000001, 0.244, 192.0, 0.0, 0.0, 0.0, 0.0, 0.0, 0.0, 0.0, 0.0, 0.0, 1.7401429399288304E9, 0.0, 2025-02-21 10:02:19.928
17.0, -523311.9157924552, -542696.2426538757, -869198.9027498845, -494559.4363879486, -494871.17616786674, -494710.1765525552, -495236.8954106445, -494950.7707298721, -0.13, 0.9540000000000001, 0.244, 192.0, 0.0, 0.0, 0.0, 0.0, 0.0, 0.0, 0.0, 0.0, 0.0, 1.7401429399288616E9, 0.0, 2025-02-21 10:02:19.928
18.0, -535220.3887963758, -554183.6087922584, -863127.8560314007, -493664.78546438046, -494869.03040039906, -494706.2202937866, -495224.4231372384, -494942.12060476793, -0.126, 0.9540000000000001, 0.254, 192.0, 252.0, 16.0, 29.0, 208.0, 7.0, 240.0, 0.0, 0.0, 0.0, 1.740142939928888E9, 0.0, 2025-02-21 10:02:19.928
19.0, -562735.0285929476, -581779.7877526031, -839878.0631873683, -483244.4021993163, -494877.54641503654, -494721.44183176063, -495183.9888315188, -494907.58715958445, -0.126, 0.9540000000000001, 0.254, 192.0, 0.0, 0.0, 0.0, 0.0, 0.0, 0.0, 0.0, 0.0, 0.0, 1.740142939928916E9, 0.0, 2025-02-21 10:02:19.928
20.0, -554309.1361891194, -573827.5735172718, -842825.5430252008, -485224.14090921177, -494862.3919322958, -494708.4331164877, -495173.5282151137, -494893.03617394407, -0.126, 0.9540000000000001, 0.254, 192.0, 0.0, 0.0, 0.0, 0.0, 0.0, 0.0, 0.0, 0.0, 0.0, 1.740142939928943E9, 0.0, 2025-02-21 10:02:19.928
21.0, -525880.3994513034, -545339.2917322268, -866549.550479597, -494089.1780363534, -494830.2724755136, -494670.47985440254, -495189.6214711215, -494903.7650112826, -0.126, 0.9540000000000001, 0.254, 192.0, 0.0, 0.0, 0.0, 0.0, 0.0, 0.0, 0.0, 0.0, 0.0, 1.740142939928969E9, 0.0, 2025-02-21 10:02:19.928
22.0, -530819.4197201037, -549829.8466002758, -866381.2418438485, -494300.4690766894, -494826.8526586119, -494663.5061101325, -495189.6214711215, -494906.1119444504, -0.126, 0.9540000000000001, 0.254, 192.0, 0.0, 0.0, 0.0, 0.0, 0.0, 0.0, 0.0, 0.0, 0.0, 1.7401429399289944E9, 0.0, 2025-02-21 10:02:19.928
23.0, -559525.4969031211, -578502.6643875438, -843125.6822497466, -485250.69478162465, -494840.062539585, -494682.68390687514, -495153.54575557064, -494876.74175223615, -0.126, 0.9540000000000001, 0.254, 192.0, 0.0, 0.0, 0.0, 0.0, 0.0, 0.0, 0.0, 0.0, 0.0, 1.7401429399290345E9, 0.0, 2025-02-21 10:02:19.929
24.0, -558992.2736873954, -578452.7752939195, -839592.9443350964, -483270.68785079574, -494828.7972603795, -494674.97255503805, -495134.30090359465, -494855.61935372587, -0.126, 0.9540000000000001, 0.254, 192.0, 0.0, 0.0, 0.0, 0.0, 0.0, 0.0, 0.0, 0.0, 0.0, 1.7401429399290605E9, 0.0, 2025-02-21 10:02:19.929
25.0, -529703.084195028, -549225.8130581157, -862986.5035994654, -493327.4976405499, -494800.96933853265, -494642.11549068877, -495152.20465090335, -494866.8846329313, -0.126, 0.9540000000000001, 0.254, 192.0, 0.0, 0.0, 0.0, 0.0, 0.0, 0.0, 0.0, 0.0, 0.0, 1.7401429399290912E9, 0.0, 2025-02-21 10:02:19.929
26.0, -527199.5100020779, -546268.945487612, -868862.2854783876, -494617.10388864327, -494785.0101929915, -494621.7977549789, -495153.00931370375, -494868.7621794656, -0.126, 0.9540000000000001, 0.254, 192.0, 0.0, 0.0, 0.0, 0.0, 0.0, 0.0, 0.0, 0.0, 0.0, 1.740142939929116E9, 0.0, 2025-02-21 10:02:19.929
27.0, -555334.8130386845, -574263.7007550837, -847017.2997733712, -487394.45059233316, -494796.61074836383, -494638.02512145345, -495118.1405923535, -494840.4648709852, -0.126, 0.9540000000000001, 0.254, 192.0, 0.0, 0.0, 0.0, 0.0, 0.0, 0.0, 0.0, 0.0, 0.0, 1.7401429399291413E9, 0.0, 2025-02-21 10:02:19.929
28.0, -562625.5944520944, -582009.9213135149, -837346.0575754711, -481798.15492608014, -494790.57577736094, -494637.42162435316, -495092.86076937447, -494815.11799277284, -0.126, 0.9440000000000001, 0.258, 192.0, 252.0, 16.0, 29.0, 128.0, 8.0, 16.0, 0.0, 0.0, 0.0, 1.7401429399291673E9, 0.0, 2025-02-21 10:02:19.929
29.0, -534499.4109272255, -554061.300046599, -858801.0500432313, -492202.98137700337, -494769.3192683839, -494612.20885660755, -495112.4408975174, -494827.32204524544, -0.126, 0.9440000000000001, 0.258, 192.0, 0.0, 0.0, 0.0, 0.0, 0.0, 0.0, 0.0, 0.0, 0.0, 1.7401429399291947E9, 0.0, 2025-02-21 10:02:19.929
30.0, -524584.355900807, -543726.7474802432, -870419.3079971443, -494732.9753318996, -494747.6604280067, -494584.9173766276, -495119.2134760873, -494833.5581819485, -0.126, 0.9440000000000001, 0.258, 192.0, 0.0, 0.0, 0.0, 0.0, 0.0, 0.0, 0.0, 0.0, 0.0, 1.7401429399292357E9, 0.0, 2025-02-21 10:02:19.929
31.0, -550356.6325135985, -569264.0625553206, -851366.0998780847, -489537.0664640745, -494760.73619851307, -494600.60830123525, -495091.65377517394, -494812.30167297146, -0.126, 0.9440000000000001, 0.258, 192.0, 0.0, 0.0, 0.0, 0.0, 0.0, 0.0, 0.0, 0.0, 0.0, 1.740142939929295E9, 0.0, 2025-02-21 10:02:19.929
32.0, -564943.5597590876, -584242.0559217997, -836275.4537195509, -481059.273309621, -494755.84116647736, -494602.21762683603, -495056.7850538236, -494779.9139952557, -0.126, 0.9440000000000001, 0.258, 192.0, 0.0, 0.0, 0.0, 0.0, 0.0, 0.0, 0.0, 0.0, 0.0, 1.7401429399293256E9, 0.0, 2025-02-21 10:02:19.929
33.0, -539724.3547110981, -559309.8472726163, -854457.212025787, -490733.06360638904, -494741.8266227039, -494585.722039428, -495076.16401626635, -494792.1180477283, -0.126, 0.9440000000000001, 0.258, 192.0, 0.0, 0.0, 0.0, 0.0, 0.0, 0.0, 0.0, 0.0, 0.0, 1.7401429399293768E9, 0.0, 2025-02-21 10:02:19.929
34.0, -523207.3096284044, -542432.3132553474, -870923.9656834562, -494712.99287235655, -494720.1677823267, -494557.8270623478, -495091.7208304073, -494805.9314258017, -0.126, 0.9440000000000001, 0.258, 192.0, 0.0, 0.0, 0.0, 0.0, 0.0, 0.0, 0.0, 0.0, 0.0, 1.7401429399294033E9, 0.0, 2025-02-21 10:02:19.929
35.0, -545126.8607529236, -564032.6814690449, -855731.5296806729, -491358.487767993, -494715.8762473913, -494554.74252161296, -495056.1815567233, -494775.8906812538, -0.126, 0.9440000000000001, 0.258, 192.0, 0.0, 0.0, 0.0, 0.0, 0.0, 0.0, 0.0, 0.0, 0.0, 1.7401429399294293E9, 0.0, 2025-02-21 10:02:19.929
36.0, -565861.9482352672, -585059.0568851301, -836387.9724011389, -481114.99620854814, -494718.759622426, -494564.8008066179, -495020.57522780605, -494744.44177680515, -0.126, 0.9440000000000001, 0.258, 192.0, 0.0, 0.0, 0.0, 0.0, 0.0, 0.0, 0.0, 0.0, 0.0, 1.740142939929494E9, 0.0, 2025-02-21 10:02:19.929
37.0, -545749.6697604263, -565322.2877171383, -849665.3109389915, -488831.24307766475, -494701.7275931511, -494546.8970593092, -495027.1466406759, -494744.3747215718, -0.126, 0.9440000000000001, 0.258, 192.0, 0.0, 0.0, 0.0, 0.0, 0.0, 0.0, 0.0, 0.0, 0.0, 1.7401429399295268E9, 0.0, 2025-02-21 10:02:19.929
38.0, -523319.96242045914, -542633.4789554452, -870129.0929471366, -494551.5909256448, -494674.57022363786, -494513.1682769261, -495043.70928331726, -494757.3834368448, -0.126, 0.9400000000000001, 0.26, 192.0, 252.0, 16.0, 29.0, 96.0, 8.0, 32.0, 0.0, 0.0, 0.0, 1.7401429399296024E9, 0.0, 2025-02-21 10:02:19.929
39.0, -539849.3456660921, -558776.6240568905, -859986.8547900743, -492732.38244442735, -494679.532310907, -494517.2586461614, -495029.1582976769, -494747.52631754, -0.126, 0.9400000000000001, 0.26, 192.0, 0.0, 0.0, 0.0, 0.0, 0.0, 0.0, 0.0, 0.0, 0.0, 1.7401429399296353E9, 0.0, 2025-02-21 10:02:19.929
40.0, -565195.6874365434, -584305.3560620971, -837773.8699643457, -482018.9007543207, -494685.36611620977, -494530.40147190116, -494990.06509662454, -494713.9316456237, -0.126, 0.9400000000000001, 0.26, 192.0, 0.0, 0.0, 0.0, 0.0, 0.0, 0.0, 0.0, 0.0, 0.0, 1.7401429399296608E9, 0.0, 2025-02-21 10:02:19.929
41.0, -551199.9191284084, -570755.9073872457, -845498.2305166997, -486788.8077245722, -494666.05420900043, -494512.0283379589, -494984.2983465551, -494702.9345873517, -0.126, 0.9400000000000001, 0.26, 192.0, 0.0, 0.0, 0.0, 0.0, 0.0, 0.0, 0.0, 0.0, 0.0, 1.7401429399296873E9, 0.0, 2025-02-21 10:02:19.929
42.0, -524724.3672280749, -544128.5424385718, -868385.2545482224, -494263.38753263804, -494637.3545691198, -494477.29372707533, -495002.1350386304, -494716.1444683247, -0.126, 0.9400000000000001, 0.26, 192.0, 0.0, 0.0, 0.0, 0.0, 0.0, 0.0, 0.0, 0.0, 0.0, 1.7401429399297132E9, 0.0, 2025-02-21 10:02:19.929
43.0, -535015.4680032097, -553984.0524177614, -863709.8954570169, -493661.2315370121, -494634.6723597852, -494472.26458457287, -494992.4790850257, -494710.0424420885, -0.126, 0.9400000000000001, 0.26, 192.0, 0.0, 0.0, 0.0, 0.0, 0.0, 0.0, 0.0, 0.0, 0.0, 1.74014293992974E9, 0.0, 2025-02-21 10:02:19.929
44.0, -562974.8181074641, -582006.1662204465, -840326.1262567195, -483670.53820735676, -494652.5090518605, -494496.3374133513, -494962.63950617786, -494685.8355028434, -0.126, 0.9400000000000001, 0.26, 192.0, 0.0, 0.0, 0.0, 0.0, 0.0, 0.0, 0.0, 0.0, 0.0, 1.740142939929766E9, 0.0, 2025-02-21 10:02:19.929
45.0, -556326.1576087663, -575851.0322393217, -841780.0178265594, -484734.3694847071, -494642.9872087225, -494489.29661384784, -494955.12932004087, -494674.9054998047, -0.126, 0.9400000000000001, 0.26, 192.0, 0.0, 0.0, 0.0, 0.0, 0.0, 0.0, 0.0, 0.0, 0.0, 1.7401429399298053E9, 0.0, 2025-02-21 10:02:19.929
46.0, -527498.8445638233, -546986.1682636939, -865592.5381889986, -493774.08549476694, -494614.8910659422, -494455.7019419315, -494973.100122583, -494687.1095522773, -0.126, 0.9400000000000001, 0.26, 192.0, 0.0, 0.0, 0.0, 0.0, 0.0, 0.0, 0.0, 0.0, 0.0, 1.74014293992985E9, 0.0, 2025-02-21 10:02:19.929
47.0, -530820.4926038376, -549850.7678330861, -866772.8444067055, -494200.22150280734, -494601.5470745024, -494439.0051888234, -494965.7911021461, -494682.28157547495, -0.126, 0.9400000000000001, 0.26, 192.0, 0.0, 0.0, 0.0, 0.0, 0.0, 0.0, 0.0, 0.0, 0.0, 1.7401429399298804E9, 0.0, 2025-02-21 10:02:19.929
48.0, -559564.1207175399, -578536.9966670271, -843711.0744370312, -485683.7374787018, -494613.28174034145, -494456.43954949855, -494930.38593892887, -494653.3137146609, -0.112, 0.9420000000000001, 0.262, 192.0, 252.0, 128.0, 29.0, 112.0, 8.0, 48.0, 0.0, 0.0, 0.0, 1.7401429399299085E9, 0.0, 2025-02-21 10:02:19.929
49.0, -560895.5694312536, -580361.4354564471, -838672.1418705157, -482831.2749065489, -494606.8444379383, -494453.82439539727, -494913.8232962875, -494635.3429121188, -0.112, 0.9420000000000001, 0.262, 192.0, 0.0, 0.0, 0.0, 0.0, 0.0, 0.0, 0.0, 0.0, 0.0, 1.7401429399299395E9, 0.0, 2025-02-21 10:02:19.929
50.0, -531651.4410557081, -551203.6742214769, -861789.0312420168, -492933.5481445251, -494576.736638157, -494418.8886188136, -494926.8320115605, -494641.91432498867, -0.112, 0.9420000000000001, 0.262, 192.0, 0.0, 0.0, 0.0, 0.0, 0.0, 0.0, 0.0, 0.0, 0.0, 1.7401429399299774E9, 0.0, 2025-02-21 10:02:19.929
51.0, -527414.6231907157, -546516.7816301325, -869038.5066316732, -494448.459976728, -494555.8824605802, -494393.20646443445, -494924.88740979286, -494640.7073307881, -0.112, 0.9420000000000001, 0.262, 192.0, 0.0, 0.0, 0.0, 0.0, 0.0, 0.0, 0.0, 0.0, 0.0, 1.740142939930014E9, 0.0, 2025-02-21 10:02:19.930
52.0, -555123.9913849821, -574067.3630317883, -847744.3126135246, -487840.16672851646, -494569.8299491203, -494411.6466536101, -494895.24899664515, -494617.0368334099, -0.112, 0.9420000000000001, 0.262, 192.0, 0.0, 0.0, 0.0, 0.0, 0.0, 0.0, 0.0, 0.0, 0.0, 1.7401429399300404E9, 0.0, 2025-02-21 10:02:19.930
53.0, -564202.1970989939, -583586.5239604145, -836728.6129866377, -481571.3741268366, -494568.8911758532, -494416.0722990123, -494872.9196039343, -494595.57915873284, -0.112, 0.9420000000000001, 0.262, 192.0, 0.0, 0.0, 0.0, 0.0, 0.0, 0.0, 0.0, 0.0, 0.0, 1.7401429399300811E9, 0.0, 2025-02-21 10:02:19.930
54.0, -536713.3065120347, -556301.4812828876, -857434.5984977005, -491757.1311303534, -494543.2760767074, -494387.0373829648, -494884.78838024003, -494600.5412460019, -0.112, 0.9420000000000001, 0.262, 192.0, 0.0, 0.0, 0.0, 0.0, 0.0, 0.0, 0.0, 0.0, 0.0, 1.7401429399301076E9, 0.0, 2025-02-21 10:02:19.930
55.0, -525082.1739533155, -544253.5333935659, -870325.430670432, -494518.1303641952, -494516.9233699946, -494354.71676048246, -494887.87292097486, -494603.0222896364, -0.112, 0.9420000000000001, 0.262, 192.0, 0.0, 0.0, 0.0, 0.0, 0.0, 0.0, 0.0, 0.0, 0.0, 1.7401429399301348E9, 0.0, 2025-02-21 10:02:19.930
56.0, -549998.2893464911, -568918.5939930194, -852153.8647596675, -489908.15012552147, -494522.89128576417, -494363.56805128674, -494857.1616240933, -494578.1447980577, -0.112, 0.9420000000000001, 0.262, 192.0, 0.0, 0.0, 0.0, 0.0, 0.0, 0.0, 0.0, 0.0, 0.0, 1.740142939930161E9, 0.0, 2025-02-21 10:02:19.930
57.0, -566227.2651466448, -585524.1519837561, -835906.1134941714, -481005.15973629477, -494519.33735839574, -494366.5184815548, -494822.8293446099, -494546.2265069755, -0.112, 0.9420000000000001, 0.262, 192.0, 0.0, 0.0, 0.0, 0.0, 0.0, 0.0, 0.0, 0.0, 0.0, 1.7401429399301891E9, 0.0, 2025-02-21 10:02:19.930
58.0, -542185.5499965609, -561797.3282095585, -852922.0495131075, -490172.68302115, -494503.3782128547, -494348.34651331266, -494836.91094361676, -494553.4014169457, -0.112, 0.9400000000000001, 0.26, 192.0, 252.0, 128.0, 29.0, 96.0, 8.0, 32.0, 0.0, 0.0, 0.0, 1.7401429399302168E9, 0.0, 2025-02-21 10:02:19.930
59.0, -524010.3631031946, -543286.3287074958, -870545.1036149388, -494460.3958082671, -494480.64648874366, -494319.24454203184, -494851.93131589075, -494566.6112979188, -0.112, 0.9400000000000001, 0.26, 192.0, 0.0, 0.0, 0.0, 0.0, 0.0, 0.0, 0.0, 0.0, 0.0, 1.7401429399302459E9, 0.0, 2025-02-21 10:02:19.930
60.0, -544726.6751201958, -563668.9738832682, -856527.207079793, -491594.18691327417, -494481.18293061055, -494320.45153623243, -494824.77394637757, -494544.2819052079, -0.112, 0.9400000000000001, 0.26, 192.0, 0.0, 0.0, 0.0, 0.0, 0.0, 0.0, 0.0, 0.0, 0.0, 1.740142939930281E9, 0.0, 2025-02-21 10:02:19.930
61.0, -566753.5146181005, -585964.0343146365, -836338.351528448, -481279.6168064615, -494484.200416112, -494330.5768764707, -494788.76528606005, -494512.8330007593, -0.112, 0.9400000000000001, 0.26, 192.0, 0.0, 0.0, 0.0, 0.0, 0.0, 0.0, 0.0, 0.0, 0.0, 1.740142939930368E9, 0.0, 2025-02-21 10:02:19.930
62.0, -547984.4865780458, -567594.1190235757, -848354.2470162209, -488284.1394286322, -494472.7339712065, -494318.70810016495, -494797.8177425644, -494515.8504862607, -0.112, 0.9400000000000001, 0.26, 192.0, 0.0, 0.0, 0.0, 0.0, 0.0, 0.0, 0.0, 0.0, 0.0, 1.7401429399303956E9, 0.0, 2025-02-21 10:02:19.930
63.0, -524455.6098527444, -543825.4527837578, -869524.7911840429, -494286.1192567491, -494443.43083422555, -494283.0347160143, -494811.56406540447, -494526.04288173234, -0.112, 0.9400000000000001, 0.26, 192.0, 0.0, 0.0, 0.0, 0.0, 0.0, 0.0, 0.0, 0.0, 0.0, 1.7401429399304216E9, 0.0, 2025-02-21 10:02:19.930
64.0, -539572.5416627576, -558549.7091471802, -860628.4392629194, -492847.1810039498, -494441.5532876913, -494279.68195434596, -494793.45915239566, -494512.0283379589, -0.112, 0.9400000000000001, 0.26, 192.0, 0.0, 0.0, 0.0, 0.0, 0.0, 0.0, 0.0, 0.0, 0.0, 1.7401429399304478E9, 0.0, 2025-02-21 10:02:19.930
65.0, -565630.2053487547, -584755.9672303161, -838070.5223167565, -482432.0280470882, -494446.5153749604, -494291.6177858851, -494754.1647856432, -494478.5007212759, -0.112, 0.9400000000000001, 0.26, 192.0, 0.0, 0.0, 0.0, 0.0, 0.0, 0.0, 0.0, 0.0, 0.0, 1.7401429399304738E9, 0.0, 2025-02-21 10:02:19.930
66.0, -553486.2343652528, -573065.8260662348, -844208.2219372061, -486276.37163118983, -494434.2442672544, -494280.55367237976, -494752.22018387564, -494471.7951979393, -0.112, 0.9400000000000001, 0.26, 192.0, 0.0, 0.0, 0.0, 0.0, 0.0, 0.0, 0.0, 0.0, 0.0, 1.7401429399304993E9, 0.0, 2025-02-21 10:02:19.930
67.0, -526373.3895270097, -545825.3080636631, -867347.5077566514, -493962.2424795917, -494401.72247907193, -494242.2651341278, -494764.96067821514, -494479.5065497764, -0.112, 0.9400000000000001, 0.26, 192.0, 0.0, 0.0, 0.0, 0.0, 0.0, 0.0, 0.0, 0.0, 0.0, 1.740142939930536E9, 0.0, 2025-02-21 10:02:19.930
68.0, -534842.733722059, -553852.6241603642, -864223.002102733, -493622.4065568932, -494398.16855170357, -494236.0960526581, -494757.91987871175, -494475.28207007435, -0.124, 0.9440000000000001, 0.25, 192.0, 252.0, 32.0, 29.0, 128.0, 7.0, 208.0, 0.0, 0.0, 0.0, 1.7401429399305644E9, 0.0, 2025-02-21 10:02:19.930
69.0, -563187.7855286343, -582228.7895952213, -840773.9211051371, -484112.4321952382, -494409.90321754257, -494254.13391043356, -494723.4534887616, -494446.5824301937, -0.124, 0.9440000000000001, 0.25, 192.0, 0.0, 0.0, 0.0, 0.0, 0.0, 0.0, 0.0, 0.0, 0.0, 1.7401429399305973E9, 0.0, 2025-02-21 10:02:19.930
70.0, -558491.7734255521, -578019.3302654423, -840623.8514928641, -484231.92462109623, -494394.949900502, -494241.72869226086, -494707.69550892065, -494427.8069648513, -0.124, 0.9440000000000001, 0.25, 192.0, 0.0, 0.0, 0.0, 0.0, 0.0, 0.0, 0.0, 0.0, 0.0, 1.740142939930631E9, 0.0, 2025-02-21 10:02:19.930
71.0, -529410.7233775525, -548932.3793569064, -864385.9463198122, -493411.3166822573, -494372.6205077911, -494214.1019361141, -494729.5555149979, -494444.03433132585, -0.124, 0.9440000000000001, 0.25, 192.0, 0.0, 0.0, 0.0, 0.0, 0.0, 0.0, 0.0, 0.0, 0.0, 1.7401429399306562E9, 0.0, 2025-02-21 10:02:19.930
72.0, -530761.4839984756, -549833.6016933443, -867161.4965392944, -494062.08772207354, -494359.2765163513, -494196.7346306723, -494725.19692482916, -494441.41917722457, -0.124, 0.9440000000000001, 0.25, 192.0, 0.0, 0.0, 0.0, 0.0, 0.0, 0.0, 0.0, 0.0, 0.0, 1.740142939930682E9, 0.0, 2025-02-21 10:02:19.930
73.0, -559496.529042307, -578484.4253640682, -844338.0408690025, -486133.81220505387, -494371.7487897574, -494214.5713227477, -494692.3398604799, -494414.8653048117, -0.124, 0.9440000000000001, 0.25, 192.0, 0.0, 0.0, 0.0, 0.0, 0.0, 0.0, 0.0, 0.0, 0.0, 1.7401429399307077E9, 0.0, 2025-02-21 10:02:19.930
74.0, -562670.1191270493, -582137.0580359767, -837854.3362443849, -482528.05114126817, -494357.3989698171, -494204.51303774276, -494665.7189328336, -494387.2385486649, -0.124, 0.9440000000000001, 0.25, 192.0, 0.0, 0.0, 0.0, 0.0, 0.0, 0.0, 0.0, 0.0, 0.0, 1.740142939930735E9, 0.0, 2025-02-21 10:02:19.930
75.0, -533658.8065217503, -553241.080432067, -860548.2412038138, -492541.1409188677, -494329.63810320356, -494172.7288571273, -494678.99586904, -494393.67585106805, -0.124, 0.9440000000000001, 0.25, 192.0, 0.0, 0.0, 0.0, 0.0, 0.0, 0.0, 0.0, 0.0, 0.0, 1.7401429399307742E9, 0.0, 2025-02-21 10:02:19.930
76.0, -527671.042403107, -546805.3873545394, -869162.2905924667, -494258.15722443553, -494316.3611669971, -494154.0204470182, -494686.0366685435, -494401.32014767174, -0.124, 0.9440000000000001, 0.25, 192.0, 0.0, 0.0, 0.0, 0.0, 0.0, 0.0, 0.0, 0.0, 0.0, 1.7401429399307985E9, 0.0, 2025-02-21 10:02:19.930
77.0, -554834.8492187082, -573781.975958583, -848522.4215415027, -488313.44256561314, -494330.91215263755, -494172.5276914272, -494659.6839618306, -494381.06946719525, -0.124, 0.9440000000000001, 0.25, 192.0, 0.0, 0.0, 0.0, 0.0, 0.0, 0.0, 0.0, 0.0, 0.0, 1.7401429399308224E9, 0.0, 2025-02-21 10:02:19.930
78.0, -565695.6512565197, -585071.3950480694, -836171.1157764335, -481437.86715720507, -494324.60896070115, -494171.2536419933, -494630.38082484977, -494353.0403796483, -0.132, 0.9440000000000001, 0.25, 192.0, 251.0, 224.0, 29.0, 128.0, 7.0, 208.0, 0.0, 0.0, 0.0, 1.740142939930846E9, 0.0, 2025-02-21 10:02:19.930
79.0, -538821.5230490593, -558429.0097271216, -856169.1321336189, -491327.5753054113, -494306.9734343259, -494150.66768534994, -494647.4128541247, -494363.5009960534, -0.132, 0.9440000000000001, 0.25, 192.0, 0.0, 0.0, 0.0, 0.0, 0.0, 0.0, 0.0, 0.0, 0.0, 1.7401429399308715E9, 0.0, 2025-02-21 10:02:19.930
80.0, -525627.1988901137, -544839.3279122505, -870216.5329714457, -494292.69066961895, -494282.6323846141, -494120.4928303353, -494653.5819355943, -494368.66424902255, -0.132, 0.9440000000000001, 0.25, 192.0, 0.0, 0.0, 0.0, 0.0, 0.0, 0.0, 0.0, 0.0, 0.0, 1.7401429399308949E9, 0.0, 2025-02-21 10:02:19.930
81.0, -549679.6428775362, -568618.722989407, -852923.2565073081, -490236.0502166808, -494285.7169253489, -494125.92430423794, -494623.00474917947, -494343.3844260436, -0.132, 0.9440000000000001, 0.25, 192.0, 0.0, 0.0, 0.0, 0.0, 0.0, 0.0, 0.0, 0.0, 0.0, 1.7401429399309187E9, 0.0, 2025-02-21 10:02:19.930
82.0, -567393.4897653449, -586681.2570907185, -835625.0179559015, -481055.048829919, -494283.0347160143, -494129.74645253975, -494588.3371935293, -494311.8684663616, -0.132, 0.9440000000000001, 0.25, 192.0, 0.0, 0.0, 0.0, 0.0, 0.0, 0.0, 0.0, 0.0, 0.0, 1.7401429399309497E9, 0.0, 2025-02-21 10:02:19.930
83.0, -544420.9032560472, -564039.6552133149, -851588.455031926, -489699.87657068693, -494267.41084664, -494112.379147098, -494599.80363843485, -494316.89760886406, -0.132, 0.9440000000000001, 0.25, 192.0, 0.0, 0.0, 0.0, 0.0, 0.0, 0.0, 0.0, 0.0, 0.0, 1.7401429399309733E9, 0.0, 2025-02-21 10:02:19.930
84.0, -524891.7370905563, -544192.9154626031, -870142.7722147432, -494211.62089247955, -494245.75200626283, -494084.88650141796, -494616.2992258429, -494331.180373571, -0.132, 0.9440000000000001, 0.25, 192.0, 0.0, 0.0, 0.0, 0.0, 0.0, 0.0, 0.0, 0.0, 0.0, 1.740142939930997E9, 0.0, 2025-02-21 10:02:19.930
85.0, -544406.9557675071, -563355.1553911156, -857236.7855592711, -491790.18936040276, -494251.1164249321, -494090.38503055397, -494597.18848433363, -494316.3611669971, -0.132, 0.9440000000000001, 0.25, 192.0, 0.0, 0.0, 0.0, 0.0, 0.0, 0.0, 0.0, 0.0, 0.0, 1.7401429399310207E9, 0.0, 2025-02-21 10:02:19.931
86.0, -567564.0782790277, -586752.6038590198, -836329.366127177, -481516.7241116434, -494251.18348016543, -494096.8223329571, -494557.8941175812, -494281.6265561136, -0.132, 0.9440000000000001, 0.25, 192.0, 0.0, 0.0, 0.0, 0.0, 0.0, 0.0, 0.0, 0.0, 0.0, 1.7401429399310443E9, 0.0, 2025-02-21 10:02:19.931
87.0, -550250.9534658139, -569853.6121670738, -847018.5067675718, -487765.9365851804, -494232.4750700564, -494078.3150885481, -494557.55884141434, -494275.59158511064, -0.132, 0.9440000000000001, 0.25, 192.0, 0.0, 0.0, 0.0, 0.0, 0.0, 0.0, 0.0, 0.0, 0.0, 1.7401429399310796E9, 0.0, 2025-02-21 10:02:19.931
88.0, -525667.9684720002, -545061.9512870254, -868826.4779837702, -494015.9537215178, -494210.07862211217, -494049.68250390084, -494577.07191432384, -494291.5507306517, -0.128, 0.9440000000000001, 0.25, 192.0, 252.0, 0.0, 29.0, 128.0, 7.0, 208.0, 0.0, 0.0, 0.0, 1.7401429399311044E9, 0.0, 2025-02-21 10:02:19.931
89.0, -539312.9037991648, -558296.5085859905, -861237.8372237489, -492878.562853165, -494209.2739593118, -494047.53673643316, -494563.3926467172, -494281.6265561136, -0.128, 0.9440000000000001, 0.25, 192.0, 0.0, 0.0, 0.0, 0.0, 0.0, 0.0, 0.0, 0.0, 0.0, 1.74014293993114E9, 0.0, 2025-02-21 10:02:19.931
90.0, -566110.3208196546, -585222.6716545429, -838291.4022554639, -482778.5024378899, -494215.1077646146, -494060.34428600606, -494525.975826499, -494249.5070993313, -0.128, 0.9440000000000001, 0.25, 192.0, 0.0, 0.0, 0.0, 0.0, 0.0, 0.0, 0.0, 0.0, 0.0, 1.7401429399311824E9, 0.0, 2025-02-21 10:02:19.931
91.0, -555465.1684123479, -575046.3694389308, -843122.3294880784, -485820.2619338348, -494202.3002150417, -494049.07900680054, -494521.14784969663, -494240.4546428269, -0.128, 0.9440000000000001, 0.25, 192.0, 0.0, 0.0, 0.0, 0.0, 0.0, 0.0, 0.0, 0.0, 0.0, 1.7401429399312081E9, 0.0, 2025-02-21 10:02:19.931
92.0, -527690.3543103164, -547165.3398472476, -866614.4599454952, -493678.263566287, -494175.5451769287, -494016.4901633847, -494537.9787132715, -494252.1893086659, -0.128, 0.9440000000000001, 0.25, 192.0, 0.0, 0.0, 0.0, 0.0, 0.0, 0.0, 0.0, 0.0, 0.0, 1.7401429399312336E9, 0.0, 2025-02-21 10:02:19.931
93.0, -534738.1275580082, -553766.257019789, -864687.2925385586, -493560.71574219654, -494169.77842685924, -494007.7729830472, -494531.34024516825, -494248.0989394306, -0.128, 0.9440000000000001, 0.25, 192.0, 0.0, 0.0, 0.0, 0.0, 0.0, 0.0, 0.0, 0.0, 0.0, 1.7401429399312592E9, 0.0, 2025-02-21 10:02:19.931
94.0, -563357.3011585834, -582384.3577366302, -841224.5322733561, -484554.59440405306, -494175.7463426288, -494020.1111459865, -494492.44820981607, -494215.3759855481, -0.128, 0.9440000000000001, 0.25, 192.0, 0.0, 0.0, 0.0, 0.0, 0.0, 0.0, 0.0, 0.0, 0.0, 1.7401429399312854E9, 0.0, 2025-02-21 10:02:19.931
95.0, -560456.7599841071, -579975.1973122593, -839595.8947653646, -483816.71861609444, -494163.67640062294, -494010.9916342487, -494477.1596166086, -494197.87456963956, -0.128, 0.9440000000000001, 0.25, 192.0, 0.0, 0.0, 0.0, 0.0, 0.0, 0.0, 0.0, 0.0, 0.0, 1.7401429399313092E9, 0.0, 2025-02-21 10:02:19.931
96.0, -531130.0195610547, -550671.5238894849, -863323.791423296, -493072.41953282594, -494139.4694613778, -493981.88966296794, -494495.0633639173, -494209.9445116454, -0.128, 0.9440000000000001, 0.25, 192.0, 0.0, 0.0, 0.0, 0.0, 0.0, 0.0, 0.0, 0.0, 0.0, 1.7401429399313345E9, 0.0, 2025-02-21 10:02:19.931
97.0, -530894.5215814735, -549980.0503230155, -867391.4959897394, -493916.7790313696, -494123.7785367702, -493961.6389824914, -494490.1683318816, -494206.5917499771, -0.128, 0.9440000000000001, 0.25, 192.0, 0.0, 0.0, 0.0, 0.0, 0.0, 0.0, 0.0, 0.0, 0.0, 1.7401429399313676E9, 0.0, 2025-02-21 10:02:19.931
98.0, -559387.0949014539, -578362.6530602757, -844980.8323360482, -486621.50491732423, -494133.5015456083, -493976.592299532, -494457.24421229895, -494179.56849093066, -0.122, 0.9460000000000001, 0.252, 192.0, 252.0, 48.0, 29.0, 144.0, 7.0, 224.0, 0.0, 0.0, 0.0, 1.740142939931393E9, 0.0, 2025-02-21 10:02:19.931
99.0, -564385.6602174831, -583833.287219201, -837078.9095257414, -482281.1537720149, -494126.05841470463, -493973.105427397, -494435.51831668837, -494157.5073191533, -0.122, 0.9460000000000001, 0.252, 192.0, 0.0, 0.0, 0.0, 0.0, 0.0, 0.0, 0.0, 0.0, 0.0, 1.74014293993142E9, 0.0, 2025-02-21 10:02:19.931
100.0, -535704.2593603444, -555294.579898665, -859269.3637930589, -492164.2234521179, -494103.99724292726, -493947.4232730178, -494452.0139040964, -494167.36443845805, -0.122, 0.9460000000000001, 0.252, 192.0, 0.0, 0.0, 0.0, 0.0, 0.0, 0.0, 0.0, 0.0, 0.0, 1.7401429399314454E9, 0.0, 2025-02-21 10:02:19.931
101.0, -527996.126174465, -547151.9288005744, -869205.6082732211, -494055.3151435036, -494081.19846358284, -493919.1930197708, -494451.209241296, -494166.8279965911, -0.122, 0.9460000000000001, 0.252, 192.0, 0.0, 0.0, 0.0, 0.0, 0.0, 0.0, 0.0, 0.0, 0.0, 1.7401429399314702E9, 0.0, 2025-02-21 10:02:19.931
102.0, -554574.1384713815, -573521.2652112562, -849241.2536431854, -488712.42120414035, -494096.28589109017, -493937.8343746465, -494428.0081305514, -494149.25952544925, -0.122, 0.9460000000000001, 0.252, 192.0, 0.0, 0.0, 0.0, 0.0, 0.0, 0.0, 0.0, 0.0, 0.0, 1.7401429399314954E9, 0.0, 2025-02-21 10:02:19.931
103.0, -567110.7849014741, -586471.5083207499, -835653.5834853153, -481357.60204286606, -494096.0176701567, -493943.1317380824, -494403.6670808396, -494126.5948565716, -0.122, 0.9460000000000001, 0.252, 192.0, 0.0, 0.0, 0.0, 0.0, 0.0, 0.0, 0.0, 0.0, 0.0, 1.7401429399315205E9, 0.0, 2025-02-21 10:02:19.931
104.0, -540932.4217954185, -560547.9551014847, -854866.785391186, -490887.08947743056, -494075.0293821132, -493919.7965168711, -494415.2676362119, -494131.4898886073, -0.122, 0.9460000000000001, 0.252, 192.0, 0.0, 0.0, 0.0, 0.0, 0.0, 0.0, 0.0, 0.0, 0.0, 1.7401429399315524E9, 0.0, 2025-02-21 10:02:19.931
105.0, -526237.6697346771, -545473.9386408256, -870011.6121782794, -494060.54545170616, -494048.609620167, -493887.20767345524, -494419.62622638064, -494134.5744293421, -0.122, 0.9460000000000001, 0.252, 192.0, 0.0, 0.0, 0.0, 0.0, 0.0, 0.0, 0.0, 0.0, 0.0, 1.7401429399315853E9, 0.0, 2025-02-21 10:02:19.931
106.0, -549379.2354320568, -568322.6070788631, -853638.1994054556, -490514.26237991604, -494053.43759696936, -493894.04730725853, -494393.67585106805, -494113.65319653193, -0.122, 0.9460000000000001, 0.252, 192.0, 0.0, 0.0, 0.0, 0.0, 0.0, 0.0, 0.0, 0.0, 0.0, 1.7401429399316108E9, 0.0, 2025-02-21 10:02:19.931
107.0, -568497.4871274814, -587770.234080581, -835373.2926098458, -481147.1156653304, -494058.0644080716, -493904.9773102972, -494365.84792922117, -494089.1780363534, -0.122, 0.9460000000000001, 0.252, 192.0, 0.0, 0.0, 0.0, 0.0, 0.0, 0.0, 0.0, 0.0, 0.0, 1.7401429399316363E9, 0.0, 2025-02-21 10:02:19.931
108.0, -546749.060958512, -566368.3493576467, -850176.0035963063, -489214.2625706509, -494035.8020705941, -493881.70914431923, -494368.3289728557, -494085.4229432849, -0.11800000000000001, 0.9440000000000001, 0.252, 192.0, 252.0, 80.0, 29.0, 128.0, 7.0, 224.0, 0.0, 0.0, 0.0, 1.7401429399316614E9, 0.0, 2025-02-21 10:02:19.931
109.0, -525885.2274281058, -545210.0092422974, -869621.4848305566, -493962.6448109919, -494014.4785063838, -493853.88122247235, -494384.4222288635, -494099.30337659165, -0.11800000000000001, 0.9440000000000001, 0.252, 192.0, 0.0, 0.0, 0.0, 0.0, 0.0, 0.0, 0.0, 0.0, 0.0, 1.740142939931688E9, 0.0, 2025-02-21 10:02:19.931
110.0, -544096.3559265562, -563049.9199688339, -857929.4661199411, -491939.0519784751, -494015.61844535096, -493855.0211614396, -494364.37271408713, -494083.3442310506, -0.11800000000000001, 0.9440000000000001, 0.252, 192.0, 0.0, 0.0, 0.0, 0.0, 0.0, 0.0, 0.0, 0.0, 0.0, 1.7401429399317153E9, 0.0, 2025-02-21 10:02:19.931
111.0, -568252.8696361625, -587417.7917740097, -836421.0976864217, -481825.3122955933, -494021.0499192536, -493867.29226914555, -494330.9792078709, -494054.5104807032, -0.11800000000000001, 0.9440000000000001, 0.252, 192.0, 0.0, 0.0, 0.0, 0.0, 0.0, 0.0, 0.0, 0.0, 0.0, 1.7401429399317555E9, 0.0, 2025-02-21 10:02:19.931
112.0, -552355.4149097699, -571947.3447736913, -845834.9818986633, -487329.40701596823, -494005.9624917463, -493852.67422827176, -494331.04626310425, -494049.34722773405, -0.11800000000000001, 0.9440000000000001, 0.252, 192.0, 0.0, 0.0, 0.0, 0.0, 0.0, 0.0, 0.0, 0.0, 0.0, 1.7401429399317908E9, 0.0, 2025-02-21 10:02:19.931
113.0, -526900.7118821993, -546308.1057438977, -868148.2813535073, -493746.794014787, -493972.7030959968, -493813.1116405859, -494338.8917254081, -494053.57170743606, -0.11800000000000001, 0.9440000000000001, 0.252, 192.0, 0.0, 0.0, 0.0, 0.0, 0.0, 0.0, 0.0, 0.0, 0.0, 1.740142939931815E9, 0.0, 2025-02-21 10:02:19.931
114.0, -539061.8490054428, -558047.5995597362, -861845.2235275774, -492904.9826151112, -493971.4961017962, -493810.3623760179, -494328.2969985363, -494045.7933003656, -0.11800000000000001, 0.9440000000000001, 0.252, 192.0, 0.0, 0.0, 0.0, 0.0, 0.0, 0.0, 0.0, 0.0, 0.0, 1.7401429399318397E9, 0.0, 2025-02-21 10:02:19.931
115.0, -566462.2266843589, -585543.4638909654, -838637.8095910323, -483229.8512136759, -493982.5602153016, -493827.796736693, -494297.0492597877, -494019.84292505303, -0.11800000000000001, 0.9440000000000001, 0.252, 192.0, 0.0, 0.0, 0.0, 0.0, 0.0, 0.0, 0.0, 0.0, 0.0, 1.7401429399318645E9, 0.0, 2025-02-21 10:02:19.931
116.0, -557768.649788934, -577324.1016059043, -841822.7990654468, -485321.84038422594, -493966.1316831269, -493812.9104748858, -494285.24753871537, -494004.68844231236, -0.11800000000000001, 0.9440000000000001, 0.252, 192.0, 0.0, 0.0, 0.0, 0.0, 0.0, 0.0, 0.0, 0.0, 0.0, 1.7401429399318895E9, 0.0, 2025-02-21 10:02:19.931
117.0, -529502.9913786639, -548989.2421948006, -865441.5298034585, -493368.40133290313, -493944.8751741499, -493786.42365770624, -494305.7664401253, -494020.2452564532, -0.11800000000000001, 0.9440000000000001, 0.252, 192.0, 0.0, 0.0, 0.0, 0.0, 0.0, 0.0, 0.0, 0.0, 0.0, 1.7401429399319146E9, 0.0, 2025-02-21 10:02:19.931
118.0, -534627.0840915542, -553662.7237394719, -865121.0057879693, -493471.0628951863, -493932.3358455105, -493770.46451216517, -494295.0376027868, -494011.8633522825, -0.12, 0.9440000000000001, 0.248, 192.0, 252.0, 64.0, 29.0, 128.0, 7.0, 192.0, 0.0, 0.0, 0.0, 1.7401429399319391E9, 0.0, 2025-02-21 10:02:19.931
119.0, -563370.7122052566, -582381.6755272956, -841800.9390593695, -485063.00718343345, -493940.04719734757, -493784.1437797718, -494259.6994948029, -493982.29199436813, -0.12, 0.9440000000000001, 0.248, 192.0, 0.0, 0.0, 0.0, 0.0, 0.0, 0.0, 0.0, 0.0, 0.0, 1.7401429399319725E9, 0.0, 2025-02-21 10:02:19.931
120.0, -562368.6387978361, -581862.9362419768, -838638.7483642994, -483487.87975166796, -493929.25130477565, -493776.0300965345, -494243.33801786165, -493964.1200261259, -0.12, 0.9440000000000001, 0.248, 192.0, 0.0, 0.0, 0.0, 0.0, 0.0, 0.0, 0.0, 0.0, 0.0, 1.7401429399320266E9, 0.0, 2025-02-21 10:02:19.932
121.0, -533034.9246305138, -552581.2569357463, -862124.97796118, -492727.9567990252, -493901.4904381622, -493744.17886068573, -494255.8102912677, -493970.95965992927, -0.12, 0.9440000000000001, 0.248, 192.0, 0.0, 0.0, 0.0, 0.0, 0.0, 0.0, 0.0, 0.0, 0.0, 1.7401429399320505E9, 0.0, 2025-02-21 10:02:19.932
122.0, -531038.2880018101, -550132.3998132229, -867598.6966608402, -493760.1380062268, -493891.29804269056, -493729.0914331784, -494258.35839013563, -493974.91591869784, -0.12, 0.9440000000000001, 0.248, 192.0, 0.0, 0.0, 0.0, 0.0, 0.0, 0.0, 0.0, 0.0, 0.0, 1.7401429399320748E9, 0.0, 2025-02-21 10:02:19.932
123.0, -559141.4045264012, -578100.3329873482, -845713.4778158043, -487160.22666218603, -493897.7353450937, -493740.55787808396, -494224.42844205245, -493946.6856654508, -0.12, 0.9440000000000001, 0.248, 192.0, 0.0, 0.0, 0.0, 0.0, 0.0, 0.0, 0.0, 0.0, 0.0, 1.740142940408856E9, 0.0, 2025-02-21 10:02:20.408
124.0, -566077.5978657721, -585493.0383554744, -836334.5964353796, -482088.3699760878, -493887.0735629885, -493734.12057568086, -494197.7404591728, -493919.72946163773, -0.12, 0.9440000000000001, 0.248, 192.0, 0.0, 0.0, 0.0, 0.0, 0.0, 0.0, 0.0, 0.0, 0.0, 1.7401429404089046E9, 0.0, 2025-02-21 10:02:20.408
125.0, -537906.3532240812, -557496.1373205349, -857859.5945667737, -491750.827938417, -493866.35349587846, -493710.31596783595, -494212.8949419135, -493928.64780767536, -0.12, 0.9440000000000001, 0.248, 192.0, 0.0, 0.0, 0.0, 0.0, 0.0, 0.0, 0.0, 0.0, 0.0, 1.740142940408932E9, 0.0, 2025-02-21 10:02:20.408
126.0, -528315.3090852868, -547481.3041068679, -869229.8822676996, -493844.0241031676, -493845.3652078349, -493683.5609297229, -494215.4430407814, -493930.9276856098, -0.12, 0.9440000000000001, 0.248, 192.0, 0.0, 0.0, 0.0, 0.0, 0.0, 0.0, 0.0, 0.0, 0.0, 1.740142940409E9, 0.0, 2025-02-21 10:02:20.409
127.0, -554208.285118137, -573142.0008113385, -850045.9164435765, -489112.80800256826, -493857.837481241, -493699.65418573073, -494192.71131667035, -493913.7615458681, -0.12, 0.9440000000000001, 0.248, 192.0, 0.0, 0.0, 0.0, 0.0, 0.0, 0.0, 0.0, 0.0, 0.0, 1.740142940409026E9, 0.0, 2025-02-21 10:02:20.409
128.0, -568516.7990346908, -587846.9452675516, -835160.0569677422, -481320.38638834795, -493856.8987079738, -493703.94572066615, -494166.2915547242, -493889.0852199895, -0.114, 0.9420000000000001, 0.25, 192.0, 252.0, 112.0, 29.0, 112.0, 7.0, 208.0, 0.0, 0.0, 0.0, 1.7401429404090517E9, 0.0, 2025-02-21 10:02:20.409
129.0, -543290.0838005643, -562900.2526879612, -853375.8793325281, -490417.76989910245, -493831.35066406144, -493676.050743586, -494170.3148687261, -493887.00650775514, -0.114, 0.9420000000000001, 0.25, 192.0, 0.0, 0.0, 0.0, 0.0, 0.0, 0.0, 0.0, 0.0, 0.0, 1.7401429404090788E9, 0.0, 2025-02-21 10:02:20.409
130.0, -526935.5806035496, -546176.1410446336, -869717.9102561368, -493820.0183296226, -493810.563541718, -493649.29570547293, -494181.2448717648, -493896.2601299596, -0.114, 0.9420000000000001, 0.25, 192.0, 0.0, 0.0, 0.0, 0.0, 0.0, 0.0, 0.0, 0.0, 0.0, 1.7401429404091034E9, 0.0, 2025-02-21 10:02:20.409
131.0, -548956.5192409181, -567891.3078178535, -854423.0138567704, -490818.8943050974, -493813.9163033863, -493654.3248479754, -494157.1049877531, -493876.88116751687, -0.114, 0.9420000000000001, 0.25, 192.0, 0.0, 0.0, 0.0, 0.0, 0.0, 0.0, 0.0, 0.0, 0.0, 1.7401429404091282E9, 0.0, 2025-02-21 10:02:20.409
132.0, -569436.7968364712, -588670.919975152, -835258.4940503233, -481379.5291041767, -493813.4469167527, -493659.95748757815, -494122.9738739698, -493846.43809156877, -0.114, 0.9420000000000001, 0.25, 192.0, 0.0, 0.0, 0.0, 0.0, 0.0, 0.0, 0.0, 0.0, 0.0, 1.7401429404091532E9, 0.0, 2025-02-21 10:02:20.409
133.0, -548958.1285665189, -568569.3703376497, -848848.4440861278, -488758.68931516283, -493795.7443351441, -493641.65140886925, -494127.2654089052, -493844.828765968, -0.114, 0.9420000000000001, 0.25, 192.0, 0.0, 0.0, 0.0, 0.0, 0.0, 0.0, 0.0, 0.0, 0.0, 1.740142940409178E9, 0.0, 2025-02-21 10:02:20.409
134.0, -526863.6973933813, -546207.2546729153, -869102.0749929041, -493708.0360899015, -493777.97469830216, -493618.04796672444, -494147.04670274816, -493861.79374000954, -0.114, 0.9420000000000001, 0.25, 192.0, 0.0, 0.0, 0.0, 0.0, 0.0, 0.0, 0.0, 0.0, 0.0, 1.7401429404092271E9, 0.0, 2025-02-21 10:02:20.409
135.0, -543737.4763175817, -562701.2327553312, -858630.1933086149, -492073.900052774, -493782.2662332376, -493622.2053911931, -494133.5686008416, -493852.33895210497, -0.114, 0.9420000000000001, 0.25, 192.0, 0.0, 0.0, 0.0, 0.0, 0.0, 0.0, 0.0, 0.0, 0.0, 1.7401429404092524E9, 0.0, 2025-02-21 10:02:20.409
136.0, -568847.783666585, -587994.4667809566, -836578.945705765, -482206.3201315785, -493781.9309570707, -493628.5085831295, -494094.6765654894, -493818.14078308834, -0.114, 0.9420000000000001, 0.25, 192.0, 0.0, 0.0, 0.0, 0.0, 0.0, 0.0, 0.0, 0.0, 0.0, 1.7401429404092772E9, 0.0, 2025-02-21 10:02:20.409
137.0, -554658.3598444891, -574244.3888478744, -844481.4049579388, -486845.20117583295, -493763.6919335952, -493610.4707253541, -494089.0439258867, -493807.8813323834, -0.114, 0.9420000000000001, 0.25, 192.0, 0.0, 0.0, 0.0, 0.0, 0.0, 0.0, 0.0, 0.0, 0.0, 1.7401429404093025E9, 0.0, 2025-02-21 10:02:20.409
138.0, -528347.4955973024, -547776.3471336779, -867245.4496914685, -493465.8325869838, -493735.3275698814, -493576.27255633747, -494100.84564695903, -493815.52562898706, -0.116, 0.9420000000000001, 0.252, 192.0, 252.0, 96.0, 29.0, 112.0, 7.0, 224.0, 0.0, 0.0, 0.0, 1.7401429404093318E9, 0.0, 2025-02-21 10:02:20.409
139.0, -538824.7417002609, -557822.2939756267, -862406.3417203834, -492892.9797283387, -493737.0039507156, -493575.7361144705, -494095.2800625897, -493813.1116405859, -0.116, 0.9420000000000001, 0.252, 192.0, 0.0, 0.0, 0.0, 0.0, 0.0, 0.0, 0.0, 0.0, 0.0, 1.7401429404093573E9, 0.0, 2025-02-21 10:02:20.409
140.0, -566698.7975476739, -585765.0143820065, -839058.2459042366, -483715.59932417865, -493742.9048112518, -493588.27544311, -494060.0090098392, -493783.47322743817, -0.116, 0.9420000000000001, 0.252, 192.0, 0.0, 0.0, 0.0, 0.0, 0.0, 0.0, 0.0, 0.0, 0.0, 1.740142940409381E9, 0.0, 2025-02-21 10:02:20.409
141.0, -559769.5779525731, -579319.6653508742, -840760.7782793973, -484952.0307722129, -493731.8406977464, -493578.88771043875, -494051.2247742683, -493771.67150636576, -0.116, 0.9420000000000001, 0.252, 192.0, 0.0, 0.0, 0.0, 0.0, 0.0, 0.0, 0.0, 0.0, 0.0, 1.740142940409408E9, 0.0, 2025-02-21 10:02:20.409
142.0, -531084.4220023658, -550586.2296326434, -864490.6865943298, -493062.7635792212, -493701.9340636652, -493544.3542652553, -494061.68539067334, -493776.7006488682, -0.116, 0.9420000000000001, 0.252, 192.0, 0.0, 0.0, 0.0, 0.0, 0.0, 0.0, 0.0, 0.0, 0.0, 1.7401429404094276E9, 0.0, 2025-02-21 10:02:20.409
143.0, -534557.3466488536, -553605.8609015776, -865533.3954731697, -493360.01942873234, -493692.34516529384, -493531.2784947489, -494056.65624817094, -493773.7502186001, -0.116, 0.9420000000000001, 0.252, 192.0, 0.0, 0.0, 0.0, 0.0, 0.0, 0.0, 0.0, 0.0, 0.0, 1.7401429404094472E9, 0.0, 2025-02-21 10:02:20.409
144.0, -563285.954390282, -582281.897340047, -842448.826724151, -485616.41402440245, -493707.2984823345, -493552.06561709236, -494030.5047071582, -493753.2983724235, -0.116, 0.9420000000000001, 0.252, 192.0, 0.0, 0.0, 0.0, 0.0, 0.0, 0.0, 0.0, 0.0, 0.0, 1.740142940409479E9, 0.0, 2025-02-21 10:02:20.409
145.0, -564234.9200528765, -583710.4420316747, -837735.246149927, -483231.2593735766, -493696.90492116276, -493544.6224861887, -494012.13157321594, -493733.71824428067, -0.116, 0.9420000000000001, 0.252, 192.0, 0.0, 0.0, 0.0, 0.0, 0.0, 0.0, 0.0, 0.0, 0.0, 1.7401429404095027E9, 0.0, 2025-02-21 10:02:20.409
146.0, -535024.0510730805, -554584.3308668531, -860865.1442367011, -492393.0159083624, -493673.0332580845, -493516.5933986418, -494026.34728268953, -493742.16720368474, -0.116, 0.9420000000000001, 0.252, 192.0, 0.0, 0.0, 0.0, 0.0, 0.0, 0.0, 0.0, 0.0, 0.0, 1.7401429404095275E9, 0.0, 2025-02-21 10:02:20.409
147.0, -531156.3052125341, -550264.900954354, -867820.7835937481, -493579.02182090544, -493655.9341735762, -493494.465171631, -494024.0003495217, -493740.4908228506, -0.116, 0.9420000000000001, 0.252, 192.0, 0.0, 0.0, 0.0, 0.0, 0.0, 0.0, 0.0, 0.0, 0.0, 1.7401429404095528E9, 0.0, 2025-02-21 10:02:20.409
148.0, -558890.3497326791, -577847.1324261585, -846463.289435302, -487618.6832927088, -493659.95748757815, -493503.51762813545, -493990.27156713867, -493711.92529343674, -0.11800000000000001, 0.9380000000000001, 0.256, 192.0, 252.0, 80.0, 29.0, 80.0, 8.0, 0.0, 0.0, 0.0, 0.0, 1.740142940409584E9, 0.0, 2025-02-21 10:02:20.409
149.0, -567686.3870246873, -587089.4893514501, -835666.3239796548, -481962.7755239935, -493657.543499177, -493505.32811943634, -493970.08794189553, -493692.2781100605, -0.11800000000000001, 0.9380000000000001, 0.256, 192.0, 0.0, 0.0, 0.0, 0.0, 0.0, 0.0, 0.0, 0.0, 0.0, 1.7401429404096153E9, 0.0, 2025-02-21 10:02:20.409
150.0, -540063.9224128631, -559670.3362071916, -856515.5394691873, -491361.77347442793, -493636.89048730023, -493481.7246772915, -493982.69432576833, -493699.11774386384, -0.11800000000000001, 0.9380000000000001, 0.256, 192.0, 0.0, 0.0, 0.0, 0.0, 0.0, 0.0, 0.0, 0.0, 0.0, 1.740142940409639E9, 0.0, 2025-02-21 10:02:20.409
151.0, -528810.4449284608, -548001.6527177874, -869130.1040804511, -493628.3744726628, -493613.5552660889, -493452.48859554395, -493983.5660438021, -493699.65418573073, -0.11800000000000001, 0.9380000000000001, 0.256, 192.0, 0.0, 0.0, 0.0, 0.0, 0.0, 0.0, 0.0, 0.0, 0.0, 1.7401429404096625E9, 0.0, 2025-02-21 10:02:20.409
152.0, -553838.6766718241, -572775.0745743603, -850822.5501564206, -489532.10437680536, -493618.45029812463, -493460.6693340146, -493956.4086742889, -493677.59301395336, -0.11800000000000001, 0.9380000000000001, 0.256, 192.0, 0.0, 0.0, 0.0, 0.0, 0.0, 0.0, 0.0, 0.0, 0.0, 1.7401429404096856E9, 0.0, 2025-02-21 10:02:20.409
153.0, -569702.3355606003, -589009.4147931832, -834846.1043651229, -481446.4502270759, -493615.5669230899, -493463.1503776492, -493927.105537308, -493650.3015339734, -0.11800000000000001, 0.9380000000000001, 0.256, 192.0, 0.0, 0.0, 0.0, 0.0, 0.0, 0.0, 0.0, 0.0, 0.0, 1.740142940409709E9, 0.0, 2025-02-21 10:02:20.409
154.0, -545503.9793853735, -565115.2211565044, -852020.8271766696, -490020.66880710947, -493599.272501382, -493445.17957510706, -493938.16965081333, -493654.99540030904, -0.11800000000000001, 0.9380000000000001, 0.256, 192.0, 0.0, 0.0, 0.0, 0.0, 0.0, 0.0, 0.0, 0.0, 0.0, 1.740142940409732E9, 0.0, 2025-02-21 10:02:20.409
155.0, -527656.5584727, -546925.5503327311, -869404.4940953844, -493580.83231220633, -493576.60783250426, -493416.14465905965, -493946.8868311509, -493662.1703102792, -0.11800000000000001, 0.9380000000000001, 0.256, 192.0, 0.0, 0.0, 0.0, 0.0, 0.0, 0.0, 0.0, 0.0, 0.0, 1.7401429404097552E9, 0.0, 2025-02-21 10:02:20.409
156.0, -548534.3394916463, -567473.9560453839, -855218.2889244901, -491054.2581742118, -493580.22881510603, -493420.972635862, -493926.0997088075, -493646.14410950476, -0.11800000000000001, 0.9380000000000001, 0.256, 192.0, 0.0, 0.0, 0.0, 0.0, 0.0, 0.0, 0.0, 0.0, 0.0, 1.7401429404097853E9, 0.0, 2025-02-21 10:02:20.409
157.0, -570354.112428917, -589566.2414510539, -835172.126909748, -481631.18739499897, -493576.9431086711, -493423.65484519664, -493889.0852199895, -493612.8176585219, -0.11800000000000001, 0.9380000000000001, 0.256, 192.0, 0.0, 0.0, 0.0, 0.0, 0.0, 0.0, 0.0, 0.0, 0.0, 1.7401429404098089E9, 0.0, 2025-02-21 10:02:20.409
158.0, -551273.9481060443, -570884.1169934412, -847448.8672553144, -488288.83329496783, -493559.1064165958, -493405.4828769545, -493890.49337989016, -493608.6602340532, -0.122, 0.9420000000000001, 0.252, 192.0, 252.0, 48.0, 29.0, 112.0, 7.0, 224.0, 0.0, 0.0, 0.0, 1.7401429404098315E9, 0.0, 2025-02-21 10:02:20.409
159.0, -527954.2837088447, -547315.0071281204, -868492.945253008, -493444.9113541736, -493536.5088029515, -493376.78323707386, -493904.50792366365, -493619.7914027919, -0.122, 0.9420000000000001, 0.252, 192.0, 0.0, 0.0, 0.0, 0.0, 0.0, 0.0, 0.0, 0.0, 0.0, 1.7401429404098568E9, 0.0, 2025-02-21 10:02:20.409
160.0, -543382.3518016759, -562349.3268906268, -859320.0575494835, -492150.2759635778, -493542.4096634877, -493382.08060050977, -493895.589577626, -493614.494039356, -0.122, 0.9420000000000001, 0.252, 192.0, 0.0, 0.0, 0.0, 0.0, 0.0, 0.0, 0.0, 0.0, 0.0, 1.74014294040988E9, 0.0, 2025-02-21 10:02:20.409
161.0, -569369.7416031053, -588487.9932985298, -836776.7586441945, -482622.0625784472, -493544.8907071222, -493390.8648360807, -493859.9161934753, -493583.58157677436, -0.122, 0.9420000000000001, 0.252, 192.0, 0.0, 0.0, 0.0, 0.0, 0.0, 0.0, 0.0, 0.0, 0.0, 1.7401429404099023E9, 0.0, 2025-02-21 10:02:20.409
162.0, -556843.8240103512, -576415.9055251963, -843218.4866927251, -486421.4791561937, -493530.67499764863, -493377.78906557435, -493855.82582424, -493575.4678935371, -0.122, 0.9420000000000001, 0.252, 192.0, 0.0, 0.0, 0.0, 0.0, 0.0, 0.0, 0.0, 0.0, 0.0, 1.740142940409922E9, 0.0, 2025-02-21 10:02:20.409
163.0, -529735.8071489105, -549178.0697319591, -866405.3817278602, -493195.53294128575, -493504.52345663594, -493346.07194019225, -493868.6333738129, -493583.58157677436, -0.122, 0.9420000000000001, 0.252, 192.0, 0.0, 0.0, 0.0, 0.0, 0.0, 0.0, 0.0, 0.0, 0.0, 1.7401429404099593E9, 0.0, 2025-02-21 10:02:20.409
164.0, -538605.8734185545, -557605.5714613881, -862946.0022385124, -492852.21014645224, -493498.22026469954, -493337.4888703214, -493858.0386469411, -493575.8702249373, -0.122, 0.9420000000000001, 0.252, 192.0, 0.0, 0.0, 0.0, 0.0, 0.0, 0.0, 0.0, 0.0, 0.0, 1.7401429404099884E9, 0.0, 2025-02-21 10:02:20.409
165.0, -566876.3598056269, -585907.7079186091, -839511.673392257, -484236.61848743184, -493503.5846833688, -493349.08942569373, -493823.63931222435, -493546.9023641232, -0.122, 0.9420000000000001, 0.252, 192.0, 0.0, 0.0, 0.0, 0.0, 0.0, 0.0, 0.0, 0.0, 0.0, 1.740142940410012E9, 0.0, 2025-02-21 10:02:20.410
166.0, -561804.3019538287, -581326.4943750495, -839663.6205510641, -484602.0024540428, -493491.04535472934, -493338.4946988219, -493811.0999835849, -493531.6137709158, -0.122, 0.9420000000000001, 0.252, 192.0, 0.0, 0.0, 0.0, 0.0, 0.0, 0.0, 0.0, 0.0, 0.0, 1.740142940410035E9, 0.0, 2025-02-21 10:02:20.410
167.0, -532731.8349756998, -552238.4705827797, -863466.2167389651, -492763.3619622424, -493468.246575385, -493311.203218842, -493826.9920738926, -493542.3426082543, -0.122, 0.9420000000000001, 0.252, 192.0, 0.0, 0.0, 0.0, 0.0, 0.0, 0.0, 0.0, 0.0, 0.0, 1.7401429404100575E9, 0.0, 2025-02-21 10:02:20.410
168.0, -534525.160136838, -553579.5752500981, -865888.1176576755, -493222.2209241654, -493455.7743019789, -493294.7746866673, -493820.7559371896, -493538.0510733189, -0.12, 0.9420000000000001, 0.25, 192.0, 252.0, 64.0, 29.0, 112.0, 7.0, 208.0, 0.0, 0.0, 0.0, 1.7401429404100797E9, 0.0, 2025-02-21 10:02:20.410
169.0, -563238.2110641254, -582214.8421066812, -843038.9127777711, -486098.47409707005, -493460.5352235479, -493305.168247839, -493786.69187863974, -493509.41848867165, -0.12, 0.9420000000000001, 0.25, 192.0, 0.0, 0.0, 0.0, 0.0, 0.0, 0.0, 0.0, 0.0, 0.0, 1.7401429404101048E9, 0.0, 2025-02-21 10:02:20.410
170.0, -566169.3294250167, -585622.8572872707, -836745.9132368462, -482951.7061056741, -493452.6227060107, -493300.40732627007, -493768.72107609763, -493490.4418576291, -0.12, 0.9420000000000001, 0.25, 192.0, 0.0, 0.0, 0.0, 0.0, 0.0, 0.0, 0.0, 0.0, 0.0, 1.740142940410134E9, 0.0, 2025-02-21 10:02:20.410
171.0, -537170.8914245238, -556733.3169857642, -859441.1593009424, -492023.60862774955, -493435.05423486885, -493279.21787252644, -493787.09421003994, -493502.84707580175, -0.12, 0.9420000000000001, 0.25, 192.0, 0.0, 0.0, 0.0, 0.0, 0.0, 0.0, 0.0, 0.0, 0.0, 1.7401429404101577E9, 0.0, 2025-02-21 10:02:20.410
172.0, -531305.9724934069, -550423.1513050975, -867966.829892019, -493386.5062459119, -493422.78312716284, -493261.5152909178, -493791.72102114215, -493507.6750526041, -0.12, 0.9420000000000001, 0.25, 192.0, 0.0, 0.0, 0.0, 0.0, 0.0, 0.0, 0.0, 0.0, 0.0, 1.7401429404101813E9, 0.0, 2025-02-21 10:02:20.410
173.0, -558620.5194736146, -577558.5267017516, -847183.8649730522, -488055.950469488, -493426.53822023136, -493269.89719508856, -493760.1380062268, -493481.99289822497, -0.12, 0.9420000000000001, 0.25, 192.0, 0.0, 0.0, 0.0, 0.0, 0.0, 0.0, 0.0, 0.0, 0.0, 1.7401429404102044E9, 0.0, 2025-02-21 10:02:20.410
174.0, -569268.8905321229, -588635.5148119349, -834988.6637912588, -481889.01476729097, -493416.54699045984, -493263.929279319, -493730.0302064455, -493453.15914787765, -0.12, 0.9420000000000001, 0.25, 192.0, 0.0, 0.0, 0.0, 0.0, 0.0, 0.0, 0.0, 0.0, 0.0, 1.7401429404102275E9, 0.0, 2025-02-21 10:02:20.410
175.0, -542310.004509688, -561908.9081178794, -855061.1114574805, -490965.3429347686, -493397.23508325045, -493242.3374941752, -493742.16720368474, -493458.79178748035, -0.12, 0.9420000000000001, 0.25, 192.0, 0.0, 0.0, 0.0, 0.0, 0.0, 0.0, 0.0, 0.0, 0.0, 1.7401429404102511E9, 0.0, 2025-02-21 10:02:20.410
176.0, -529228.8695846641, -548425.44179266, -869041.0547305412, -493403.8735513537, -493381.1418272426, -493220.54454333126, -493751.75610205607, -493467.3748573512, -0.12, 0.9420000000000001, 0.25, 192.0, 0.0, 0.0, 0.0, 0.0, 0.0, 0.0, 0.0, 0.0, 0.0, 1.7401429404102707E9, 0.0, 2025-02-21 10:02:20.410
177.0, -553420.7884574877, -572342.1659877498, -851631.1021603468, -489851.4213980939, -493384.29342321085, -493226.7136248009, -493725.6716162767, -493446.3195140743, -0.12, 0.9420000000000001, 0.25, 192.0, 0.0, 0.0, 0.0, 0.0, 0.0, 0.0, 0.0, 0.0, 0.0, 1.74014294041029E9, 0.0, 2025-02-21 10:02:20.410
178.0, -570906.6475518522, -590185.8318073549, -834494.8690527522, -481575.39744083857, -493377.72201034095, -493224.8360782667, -493691.0711158599, -493413.9988915919, -0.124, 0.9460000000000001, 0.254, 192.0, 252.0, 32.0, 29.0, 144.0, 7.0, 240.0, 0.0, 0.0, 0.0, 1.7401429404103224E9, 0.0, 2025-02-21 10:02:20.410
179.0, -547654.5748298854, -567261.5250660807, -850697.4250909598, -489622.29366568255, -493363.0369142338, -493209.14515365905, -493701.1294008648, -493418.4915922274, -0.124, 0.9460000000000001, 0.254, 192.0, 0.0, 0.0, 0.0, 0.0, 0.0, 0.0, 0.0, 0.0, 0.0, 1.7401429404103472E9, 0.0, 2025-02-21 10:02:20.410
180.0, -528397.3846909266, -547680.8604813648, -869075.3870100245, -493339.5005273224, -493341.8474604902, -493182.12189461256, -493711.72412773664, -493427.07466209825, -0.124, 0.9460000000000001, 0.254, 192.0, 0.0, 0.0, 0.0, 0.0, 0.0, 0.0, 0.0, 0.0, 0.0, 1.74014294041037E9, 0.0, 2025-02-21 10:02:20.410
181.0, -548147.5649055917, -567087.1814593293, -855946.9110902442, -491272.0535721843, -493340.9086872231, -493182.2560050793, -493689.39473502577, -493408.9697490895, -0.124, 0.9460000000000001, 0.254, 192.0, 0.0, 0.0, 0.0, 0.0, 0.0, 0.0, 0.0, 0.0, 0.0, 1.7401429404103935E9, 0.0, 2025-02-21 10:02:20.410
182.0, -571099.2301820791, -590283.4642271358, -835189.8294913566, -482014.8103850854, -493343.9932279579, -493190.9731854169, -493658.68343814416, -493381.81237957627, -0.124, 0.9460000000000001, 0.254, 192.0, 0.0, 0.0, 0.0, 0.0, 0.0, 0.0, 0.0, 0.0, 0.0, 1.7401429404104164E9, 0.0, 2025-02-21 10:02:20.410
183.0, -553490.5259001883, -573087.283740912, -846120.234861402, -487901.8575432131, -493327.6317510166, -493174.3434875421, -493658.88460384426, -493377.0514580073, -0.124, 0.9460000000000001, 0.254, 192.0, 0.0, 0.0, 0.0, 0.0, 0.0, 0.0, 0.0, 0.0, 0.0, 1.7401429404104395E9, 0.0, 2025-02-21 10:02:20.410
184.0, -529110.85237394, -548487.6690492235, -867812.2005238773, -493199.5562552877, -493309.7950589413, -493150.8071006307, -493677.19068255316, -493391.8036093478, -0.124, 0.9460000000000001, 0.254, 192.0, 0.0, 0.0, 0.0, 0.0, 0.0, 0.0, 0.0, 0.0, 0.0, 1.740142940410463E9, 0.0, 2025-02-21 10:02:20.410
185.0, -543076.5799375272, -562041.4092590105, -859930.9307254471, -492194.5324175993, -493308.85628567415, -493149.3318854966, -493664.517243447, -493383.01937377686, -0.124, 0.9460000000000001, 0.254, 192.0, 0.0, 0.0, 0.0, 0.0, 0.0, 0.0, 0.0, 0.0, 0.0, 1.7401429404104912E9, 0.0, 2025-02-21 10:02:20.410
186.0, -569766.1721427647, -588860.8203960443, -837042.6996997237, -483109.5541250174, -493308.92334090755, -493155.5680221997, -493627.1004232288, -493350.6316960611, -0.124, 0.9460000000000001, 0.254, 192.0, 0.0, 0.0, 0.0, 0.0, 0.0, 0.0, 0.0, 0.0, 0.0, 1.740142940410519E9, 0.0, 2025-02-21 10:02:20.410
187.0, -559001.3931991331, -578567.0374115751, -841977.1602126552, -486072.3896112907, -493292.7630296663, -493140.3464842256, -493618.45029812463, -493337.8912017216, -0.124, 0.9460000000000001, 0.254, 192.0, 0.0, 0.0, 0.0, 0.0, 0.0, 0.0, 0.0, 0.0, 0.0, 1.7401429404105527E9, 0.0, 2025-02-21 10:02:20.410
188.0, -531280.7597256612, -550739.6520065847, -865423.2907799829, -492921.3440920525, -493268.2878694878, -493110.7080710779, -493631.45901339763, -493345.87077449216, -0.122, 0.9460000000000001, 0.258, 192.0, 252.0, 48.0, 29.0, 144.0, 8.0, 16.0, 0.0, 0.0, 0.0, 1.7401429404105875E9, 0.0, 2025-02-21 10:02:20.410
189.0, -538385.3958112474, -557397.4320170203, -863459.1088842284, -492774.22491004766, -493268.3549247211, -493108.15997220995, -493630.05085349694, -493347.4130448596, -0.122, 0.9460000000000001, 0.258, 192.0, 0.0, 0.0, 0.0, 0.0, 0.0, 0.0, 0.0, 0.0, 0.0, 1.7401429404106147E9, 0.0, 2025-02-21 10:02:20.410
190.0, -567004.5694118225, -586021.4335943977, -839981.7305781521, -484732.89426957304, -493271.30535498925, -493117.07831824763, -493594.3104141129, -493317.439355545, -0.122, 0.9460000000000001, 0.258, 192.0, 0.0, 0.0, 0.0, 0.0, 0.0, 0.0, 0.0, 0.0, 0.0, 1.7401429404106402E9, 0.0, 2025-02-21 10:02:20.410
191.0, -563840.6352806849, -583345.1251202971, -838564.7193866634, -484315.47544187016, -493258.69897111645, -493106.21537044237, -493579.42415230564, -493300.0720501032, -0.122, 0.9460000000000001, 0.258, 192.0, 0.0, 0.0, 0.0, 0.0, 0.0, 0.0, 0.0, 0.0, 0.0, 1.740142940410664E9, 0.0, 2025-02-21 10:02:20.410
192.0, -534627.0840915542, -554151.4222802428, -862220.4646134931, -492463.96034526353, -493238.5153458733, -493082.20959689736, -493596.32207111386, -493311.203218842, -0.122, 0.9460000000000001, 0.258, 192.0, 0.0, 0.0, 0.0, 0.0, 0.0, 0.0, 0.0, 0.0, 0.0, 1.740142940410694E9, 0.0, 2025-02-21 10:02:20.410
193.0, -534496.7287178909, -553568.8464127596, -866199.2539404935, -493071.145483392, -493227.25006666785, -493066.7868932232, -493593.5057513125, -493309.86211417464, -0.122, 0.9460000000000001, 0.258, 192.0, 0.0, 0.0, 0.0, 0.0, 0.0, 0.0, 0.0, 0.0, 0.0, 1.7401429404107237E9, 0.0, 2025-02-21 10:02:20.410
194.0, -563079.9607133819, -582048.0086860667, -843692.8354135556, -486598.97435891326, -493232.2121539369, -493076.91223346145, -493561.31923929683, -493283.5764626952, -0.122, 0.9460000000000001, 0.258, 192.0, 0.0, 0.0, 0.0, 0.0, 0.0, 0.0, 0.0, 0.0, 0.0, 1.7401429404107478E9, 0.0, 2025-02-21 10:02:20.410
195.0, -567828.544119423, -587270.2702606047, -835974.5098322047, -482848.03871489037, -493222.08681369864, -493069.6702682579, -493539.3251227528, -493261.11295951763, -0.122, 0.9460000000000001, 0.258, 192.0, 0.0, 0.0, 0.0, 0.0, 0.0, 0.0, 0.0, 0.0, 0.0, 1.7401429404107714E9, 0.0, 2025-02-21 10:02:20.410
196.0, -538977.6276323352, -558554.0006821157, -858321.605124665, -491713.00878679863, -493198.75159248733, -493043.2505063118, -493550.1210153247, -493265.80682585324, -0.122, 0.9460000000000001, 0.258, 192.0, 0.0, 0.0, 0.0, 0.0, 0.0, 0.0, 0.0, 0.0, 0.0, 1.7401429404107947E9, 0.0, 2025-02-21 10:02:20.410
197.0, -531562.3917057981, -550697.8095409643, -868054.940468662, -493181.78661844577, -493186.14520861453, -493025.34675900306, -493555.41837876063, -493270.90302358905, -0.122, 0.9460000000000001, 0.258, 192.0, 0.0, 0.0, 0.0, 0.0, 0.0, 0.0, 0.0, 0.0, 0.0, 1.740142940410818E9, 0.0, 2025-02-21 10:02:20.410
198.0, -558256.2754459709, -577187.3089298379, -847966.3995464325, -488529.62863798486, -493191.9790139174, -493035.1368230745, -493528.3280644808, -493249.5124041453, -0.12, 0.9460000000000001, 0.25, 192.0, 252.0, 64.0, 29.0, 144.0, 7.0, 208.0, 0.0, 0.0, 0.0, 1.7401429404108417E9, 0.0, 2025-02-21 10:02:20.410
199.0, -570670.0766885373, -590016.8526192728, -834463.0848721367, -481945.9446604186, -493183.32888881315, -493030.9123433724, -493498.8908170332, -493221.48331659834, -0.12, 0.9460000000000001, 0.25, 192.0, 0.0, 0.0, 0.0, 0.0, 0.0, 0.0, 0.0, 0.0, 0.0, 1.7401429404108665E9, 0.0, 2025-02-21 10:02:20.410
200.0, -544430.022767785, -564028.9263759764, -853725.6394297647, -490618.06388116645, -493164.82164440415, -493010.7957733626, -493509.82082007185, -493226.17718293396, -0.12, 0.9460000000000001, 0.25, 192.0, 0.0, 0.0, 0.0, 0.0, 0.0, 0.0, 0.0, 0.0, 0.0, 1.7401429404109073E9, 0.0, 2025-02-21 10:02:20.410
201.0, -529837.7311036267, -549052.5423350981, -868800.7287741577, -493176.62336547655, -493150.47182446386, -492990.4109824194, -493521.01904404396, -493235.56491560524, -0.12, 0.9460000000000001, 0.25, 192.0, 0.0, 0.0, 0.0, 0.0, 0.0, 0.0, 0.0, 0.0, 0.0, 1.7401429404109328E9, 0.0, 2025-02-21 10:02:20.410
202.0, -553040.9876157031, -571964.510913433, -852357.9808900334, -490152.70056160697, -493152.7517023983, -492995.5742353886, -493496.81210479885, -493216.99061596283, -0.12, 0.9460000000000001, 0.25, 192.0, 0.0, 0.0, 0.0, 0.0, 0.0, 0.0, 0.0, 0.0, 0.0, 1.740142940410956E9, 0.0, 2025-02-21 10:02:20.410
203.0, -571997.7703091825, -591252.8146806735, -834214.9805086829, -481786.95670210803, -493152.41642623144, -492999.5975493905, -493467.7771887514, -493190.83907495014, -0.12, 0.9460000000000001, 0.25, 192.0, 0.0, 0.0, 0.0, 0.0, 0.0, 0.0, 0.0, 0.0, 0.0, 1.7401429404109793E9, 0.0, 2025-02-21 10:02:20.410
204.0, -549980.5867648824, -569584.3183498762, -849234.2798989153, -489227.2712859239, -493134.98206555634, -492981.29147068167, -493473.00749695394, -493190.5708540167, -0.12, 0.9460000000000001, 0.25, 192.0, 0.0, 0.0, 0.0, 0.0, 0.0, 0.0, 0.0, 0.0, 0.0, 1.740142940411003E9, 0.0, 2025-02-21 10:02:20.411
205.0, -529369.953795666, -548675.9601445151, -868520.5720091548, -493096.0900302041, -493107.55647510965, -492948.09913016553, -493477.0308109559, -493191.7107929839, -0.12, 0.9460000000000001, 0.25, 192.0, 0.0, 0.0, 0.0, 0.0, 0.0, 0.0, 0.0, 0.0, 0.0, 1.740142940411028E9, 0.0, 2025-02-21 10:02:20.411
206.0, -547797.8048083549, -566741.1764551612, -856626.4488251745, -491376.79384670185, -493109.9034082775, -492951.2507261337, -493460.9375549481, -493180.1102376116, -0.12, 0.9460000000000001, 0.25, 192.0, 0.0, 0.0, 0.0, 0.0, 0.0, 0.0, 0.0, 0.0, 0.0, 1.7401429404110525E9, 0.0, 2025-02-21 10:02:20.411
207.0, -571818.5987256287, -590973.3284680044, -835211.689497434, -482373.48882835975, -493116.87715254753, -492963.52183383965, -493434.04840636835, -493157.4455687339, -0.12, 0.9460000000000001, 0.25, 192.0, 0.0, 0.0, 0.0, 0.0, 0.0, 0.0, 0.0, 0.0, 0.0, 1.740142940411081E9, 0.0, 2025-02-21 10:02:20.411
208.0, -555706.5672524652, -575287.768279048, -844792.6753512234, -487552.0303907431, -493099.64395757247, -492946.62391503144, -493431.3661970337, -493150.06949306367, -0.122, 0.9460000000000001, 0.254, 192.0, 252.0, 48.0, 29.0, 144.0, 7.0, 240.0, 0.0, 0.0, 0.0, 1.74014294041111E9, 0.0, 2025-02-21 10:02:20.411
209.0, -530381.683156691, -549775.6659717162, -867025.6426364951, -492949.90962146636, -493078.5886142956, -492920.27120831865, -493445.64896174066, -493160.12777806853, -0.122, 0.9460000000000001, 0.254, 192.0, 0.0, 0.0, 0.0, 0.0, 0.0, 0.0, 0.0, 0.0, 0.0, 1.7401429404111333E9, 0.0, 2025-02-21 10:02:20.411
210.0, -542755.2512592378, -561728.6636505919, -860543.4132270114, -492195.87352226663, -493070.1396548915, -492910.8164204141, -493427.87932489865, -493145.912068595, -0.122, 0.9460000000000001, 0.254, 192.0, 0.0, 0.0, 0.0, 0.0, 0.0, 0.0, 0.0, 0.0, 0.0, 1.7401429404111528E9, 0.0, 2025-02-21 10:02:20.411
211.0, -570077.3084255825, -589149.9625623182, -837378.646418887, -483618.3692357981, -493067.7927217237, -492914.37034778245, -493388.98728954647, -493112.25034144527, -0.122, 0.9460000000000001, 0.254, 192.0, 0.0, 0.0, 0.0, 0.0, 0.0, 0.0, 0.0, 0.0, 0.0, 1.740142940411172E9, 0.0, 2025-02-21 10:02:20.411
212.0, -561152.5250855119, -580697.2480651436, -840751.3905467261, -485756.76062783727, -493055.8568901845, -492903.2391790437, -493381.7453243429, -493101.72266980686, -0.122, 0.9460000000000001, 0.254, 192.0, 0.0, 0.0, 0.0, 0.0, 0.0, 0.0, 0.0, 0.0, 0.0, 1.7401429404111912E9, 0.0, 2025-02-21 10:02:20.411
213.0, -532958.7498854101, -552436.9540735428, -864330.022255185, -492657.41469352425, -493041.7752911777, -492884.26254800113, -493403.53827518685, -493118.2853124482, -0.122, 0.9460000000000001, 0.254, 192.0, 0.0, 0.0, 0.0, 0.0, 0.0, 0.0, 0.0, 0.0, 0.0, 1.7401429404112103E9, 0.0, 2025-02-21 10:02:20.411
214.0, -538238.4107397093, -557266.003759623, -863887.5918254367, -492681.75574323605, -493038.15430857596, -492877.6911351313, -493401.12428678566, -493117.95003628137, -0.122, 0.9460000000000001, 0.254, 192.0, 0.0, 0.0, 0.0, 0.0, 0.0, 0.0, 0.0, 0.0, 0.0, 1.740142940411288E9, 0.0, 2025-02-21 10:02:20.411
215.0, -566973.9922254076, -585975.8360357089, -840564.1723351685, -485295.9570641467, -493040.0318551102, -492885.4024869684, -493366.32262066874, -493088.91512023396, -0.122, 0.9460000000000001, 0.254, 192.0, 0.0, 0.0, 0.0, 0.0, 0.0, 0.0, 0.0, 0.0, 0.0, 1.7401429404113085E9, 0.0, 2025-02-21 10:02:20.411
216.0, -565827.079513917, -585311.1845625859, -837510.3428972177, -484074.88126455323, -493031.78406140616, -492879.3675159654, -493353.58212632925, -493074.632355527, -0.122, 0.9460000000000001, 0.254, 192.0, 0.0, 0.0, 0.0, 0.0, 0.0, 0.0, 0.0, 0.0, 0.0, 1.7401429404113288E9, 0.0, 2025-02-21 10:02:20.411
217.0, -536571.685859166, -556109.9715363946, -860926.2986095308, -492156.64621074754, -493009.1193925285, -492853.21597495273, -493366.0543997353, -493081.1367131635, -0.122, 0.9460000000000001, 0.254, 192.0, 0.0, 0.0, 0.0, 0.0, 0.0, 0.0, 0.0, 0.0, 0.0, 1.7401429404113493E9, 0.0, 2025-02-21 10:02:20.411
218.0, -534569.684811793, -553657.8957626696, -866409.8073732624, -492906.92721687886, -492993.5625783876, -492833.09940494294, -493360.89114676614, -493076.7781229947, -0.124, 0.9480000000000001, 0.26, 192.0, 252.0, 32.0, 29.0, 160.0, 8.0, 32.0, 0.0, 0.0, 0.0, 1.740142940411369E9, 0.0, 2025-02-21 10:02:20.411
219.0, -562732.346383613, -581684.8375421569, -844483.1483940063, -487176.31991819385, -492993.7637440877, -492838.3297131455, -493326.15653588256, -493048.2125935808, -0.124, 0.9480000000000001, 0.26, 192.0, 0.0, 0.0, 0.0, 0.0, 0.0, 0.0, 0.0, 0.0, 0.0, 1.7401429404113908E9, 0.0, 2025-02-21 10:02:20.411
220.0, -569500.0969767687, -588910.7094896686, -835224.16177084, -482793.12047876365, -492987.3934969179, -492835.1110619439, -493305.9729106394, -493028.2301340378, -0.124, 0.9480000000000001, 0.26, 192.0, 0.0, 0.0, 0.0, 0.0, 0.0, 0.0, 0.0, 0.0, 0.0, 1.7401429404114113E9, 0.0, 2025-02-21 10:02:20.411
221.0, -541190.9867752775, -560772.7242437273, -856878.3082816969, -491381.68887873756, -492973.848339778, -492819.08486116945, -493324.4801550484, -493040.30007604364, -0.124, 0.9480000000000001, 0.26, 192.0, 0.0, 0.0, 0.0, 0.0, 0.0, 0.0, 0.0, 0.0, 0.0, 1.7401429404114313E9, 0.0, 2025-02-21 10:02:20.411
222.0, -531934.1459195788, -551092.6307550229, -868001.5645029027, -492974.2506711782, -492959.43146460433, -492798.9682911597, -493328.7046347505, -493043.85400341207, -0.124, 0.9480000000000001, 0.26, 192.0, 0.0, 0.0, 0.0, 0.0, 0.0, 0.0, 0.0, 0.0, 0.0, 1.7401429404114609E9, 0.0, 2025-02-21 10:02:20.411
223.0, -557826.0490686953, -576759.2283200298, -848766.7708118882, -488953.6188785576, -492958.9620779708, -492802.7233842282, -493298.46272450243, -493019.44589846686, -0.124, 0.9480000000000001, 0.26, 192.0, 0.0, 0.0, 0.0, 0.0, 0.0, 0.0, 0.0, 0.0, 0.0, 1.7401429404114912E9, 0.0, 2025-02-21 10:02:20.411
224.0, -571938.7617038204, -591265.6892854797, -834041.3074542651, -482095.0084441911, -492951.854223234, -492799.57178826, -493268.9584218214, -492992.0203080202, -0.124, 0.9480000000000001, 0.26, 192.0, 0.0, 0.0, 0.0, 0.0, 0.0, 0.0, 0.0, 0.0, 0.0, 1.7401429404115143E9, 0.0, 2025-02-21 10:02:20.411
225.0, -546629.970864054, -566239.0668677172, -852334.3774478886, -490274.2716996994, -492935.5598015261, -492781.93626188475, -493279.55314869323, -492996.378898189, -0.124, 0.9480000000000001, 0.26, 192.0, 0.0, 0.0, 0.0, 0.0, 0.0, 0.0, 0.0, 0.0, 0.0, 1.7401429404115372E9, 0.0, 2025-02-21 10:02:20.411
226.0, -530463.7587623309, -549708.6107383503, -868536.6652651627, -492947.09330166504, -492921.7464234527, -492762.1549680418, -493291.75720116583, -493006.1689622604, -0.124, 0.9480000000000001, 0.26, 192.0, 0.0, 0.0, 0.0, 0.0, 0.0, 0.0, 0.0, 0.0, 0.0, 1.7401429404115613E9, 0.0, 2025-02-21 10:02:20.411
227.0, -552558.7263773354, -571490.2963030692, -853178.871056899, -490429.03517830797, -492923.3557490535, -492766.3794477439, -493270.2324712554, -492990.0757062526, -0.124, 0.9480000000000001, 0.26, 192.0, 0.0, 0.0, 0.0, 0.0, 0.0, 0.0, 0.0, 0.0, 0.0, 1.7401429404115849E9, 0.0, 2025-02-21 10:02:20.411
228.0, -572920.4503202975, -592149.2090403091, -834096.6950770253, -482106.6089995634, -492919.7347664517, -492767.51938671106, -493237.2412964394, -492960.7055140383, -0.12, 0.9440000000000001, 0.26, 192.0, 252.0, 64.0, 29.0, 128.0, 8.0, 32.0, 0.0, 0.0, 0.0, 1.7401429404116082E9, 0.0, 2025-02-21 10:02:20.411
229.0, -552353.2691423022, -571956.4642854291, -847754.102677596, -488857.3275634441, -492902.3004057766, -492749.48152893566, -493239.85645054065, -492957.7550837702, -0.12, 0.9440000000000001, 0.26, 192.0, 0.0, 0.0, 0.0, 0.0, 0.0, 0.0, 0.0, 0.0, 0.0, 1.7401429404116395E9, 0.0, 2025-02-21 10:02:20.411
230.0, -530378.4645054894, -549708.6107383503, -867921.9028856639, -492856.09934998746, -492877.55702466454, -492718.9043425208, -493246.29375294375, -492960.7725692717, -0.12, 0.9440000000000001, 0.26, 192.0, 0.0, 0.0, 0.0, 0.0, 0.0, 0.0, 0.0, 0.0, 0.0, 1.740142940411663E9, 0.0, 2025-02-21 10:02:20.411
231.0, -547318.7622211889, -566268.0347285313, -857386.4528401438, -491484.752772421, -492888.21880676976, -492730.16962172627, -493241.6669418415, -492960.5043483382, -0.12, 0.9440000000000001, 0.26, 192.0, 0.0, 0.0, 0.0, 0.0, 0.0, 0.0, 0.0, 0.0, 0.0, 1.7401429404116824E9, 0.0, 2025-02-21 10:02:20.411
232.0, -572377.571150967, -591514.0618698671, -835353.4442607694, -482819.6743511766, -492888.8893591034, -492736.1375374958, -493208.6757670255, -492932.2070398578, -0.12, 0.9440000000000001, 0.26, 192.0, 0.0, 0.0, 0.0, 0.0, 0.0, 0.0, 0.0, 0.0, 0.0, 1.740142940411702E9, 0.0, 2025-02-21 10:02:20.411
233.0, -558017.0223733213, -577597.6869580373, -843392.8302994765, -487168.00506925647, -492869.577451894, -492717.0938512199, -493201.5008570553, -492920.338263552, -0.12, 0.9440000000000001, 0.26, 192.0, 0.0, 0.0, 0.0, 0.0, 0.0, 0.0, 0.0, 0.0, 0.0, 1.7401429404117215E9, 0.0, 2025-02-21 10:02:20.411
234.0, -531763.020964029, -551180.607221199, -866147.889631735, -492693.75863000855, -492850.332599918, -492692.55163580796, -493216.3200636292, -492930.1953828568, -0.12, 0.9440000000000001, 0.26, 192.0, 0.0, 0.0, 0.0, 0.0, 0.0, 0.0, 0.0, 0.0, 0.0, 1.7401429404117403E9, 0.0, 2025-02-21 10:02:20.411
235.0, -542416.2199993397, -561403.5798792338, -861163.0035833125, -492189.16799893003, -492847.0468934831, -492688.12599040585, -493206.52999955777, -492924.0263013871, -0.12, 0.9440000000000001, 0.26, 192.0, 0.0, 0.0, 0.0, 0.0, 0.0, 0.0, 0.0, 0.0, 0.0, 1.7401429404117599E9, 0.0, 2025-02-21 10:02:20.411
236.0, -570213.5646597821, -589268.5162149091, -837864.1263084563, -484201.280379448, -492849.8632132844, -492696.8431707434, -493173.6729352085, -492897.0030423407, -0.12, 0.9440000000000001, 0.26, 192.0, 0.0, 0.0, 0.0, 0.0, 0.0, 0.0, 0.0, 0.0, 0.0, 1.7401429404117868E9, 0.0, 2025-02-21 10:02:20.411
237.0, -563252.6949945325, -582785.6162530918, -839586.5070326934, -485463.05870569457, -492835.4463381108, -492683.43212407024, -493161.9382693694, -492882.1838357668, -0.12, 0.9440000000000001, 0.26, 192.0, 0.0, 0.0, 0.0, 0.0, 0.0, 0.0, 0.0, 0.0, 0.0, 1.7401429404118235E9, 0.0, 2025-02-21 10:02:20.411
238.0, -534610.4543936795, -554100.9967447516, -863270.9518994036, -492382.8235128908, -492814.1227739004, -492657.8840801578, -493175.3493160426, -492889.96224283724, -0.122, 0.9400000000000001, 0.264, 192.0, 252.0, 48.0, 29.0, 96.0, 8.0, 64.0, 0.0, 0.0, 0.0, 1.740142940411844E9, 0.0, 2025-02-21 10:02:20.411
239.0, -538109.6646916467, -557152.2780838344, -864302.6637199717, -492568.7006197811, -492806.4784772967, -492647.0211323525, -493170.92367064045, -492887.21297826926, -0.122, 0.9400000000000001, 0.264, 192.0, 0.0, 0.0, 0.0, 0.0, 0.0, 0.0, 0.0, 0.0, 0.0, 1.7401429404118648E9, 0.0, 2025-02-21 10:02:20.411
240.0, -566780.8731533138, -585773.0610100104, -841258.059890039, -485910.7864988788, -492808.49013429764, -492654.59837372287, -493138.26777199126, -492860.3908849229, -0.122, 0.9400000000000001, 0.264, 192.0, 0.0, 0.0, 0.0, 0.0, 0.0, 0.0, 0.0, 0.0, 0.0, 1.740142940411884E9, 0.0, 2025-02-21 10:02:20.411
241.0, -567699.7980713604, -587169.9556314893, -836570.4967463609, -483929.6396290827, -492799.84000919346, -492647.89285038627, -493122.643902617, -492843.7611870481, -0.122, 0.9400000000000001, 0.264, 192.0, 0.0, 0.0, 0.0, 0.0, 0.0, 0.0, 0.0, 0.0, 0.0, 1.7401429404119031E9, 0.0, 2025-02-21 10:02:20.411
242.0, -538614.9929302923, -558162.3981192587, -859600.8848668201, -491857.04342806863, -492777.577671716, -492622.2106960071, -493133.1045190221, -492848.38799815037, -0.122, 0.9400000000000001, 0.264, 192.0, 0.0, 0.0, 0.0, 0.0, 0.0, 0.0, 0.0, 0.0, 0.0, 1.7401429404119227E9, 0.0, 2025-02-21 10:02:20.411
243.0, -534659.8070454368, -553756.0646243173, -866624.6523409669, -492723.0617669895, -492764.63601167634, -492604.776335332, -493132.2328009883, -492847.7174458167, -0.122, 0.9400000000000001, 0.264, 192.0, 0.0, 0.0, 0.0, 0.0, 0.0, 0.0, 0.0, 0.0, 0.0, 1.7401429408895555E9, 0.0, 2025-02-21 10:02:20.889
244.0, -562413.1634727912, -581355.4622358636, -845252.1378102468, -487659.4528745953, -492767.2511657776, -492612.08535576885, -493102.86260877404, -492824.85161123896, -0.122, 0.9400000000000001, 0.264, 192.0, 0.0, 0.0, 0.0, 0.0, 0.0, 0.0, 0.0, 0.0, 0.0, 1.7401429408896685E9, 0.0, 2025-02-21 10:02:20.889
245.0, -571117.4692055547, -590510.379136846, -834519.1430472307, -482778.97182452347, -492759.13748254033, -492606.85504756635, -493078.85683522903, -492801.58344526094, -0.122, 0.9400000000000001, 0.264, 192.0, 0.0, 0.0, 0.0, 0.0, 0.0, 0.0, 0.0, 0.0, 0.0, 1.7401429408896966E9, 0.0, 2025-02-21 10:02:20.889
246.0, -543421.5120579615, -563004.3224101451, -855425.4895955909, -491043.93166827346, -492741.5019561651, -492587.00669849, -493091.12794293504, -492807.35019533045, -0.122, 0.9400000000000001, 0.264, 192.0, 0.0, 0.0, 0.0, 0.0, 0.0, 0.0, 0.0, 0.0, 0.0, 1.7401429408897233E9, 0.0, 2025-02-21 10:02:20.889
247.0, -532261.9119002714, -551433.2713405218, -867987.885235296, -492755.8517761054, -492729.7002350927, -492569.9746692151, -493099.375736639, -492814.18982913374, -0.122, 0.9400000000000001, 0.264, 192.0, 0.0, 0.0, 0.0, 0.0, 0.0, 0.0, 0.0, 0.0, 0.0, 1.7401429408897495E9, 0.0, 2025-02-21 10:02:20.889
248.0, -557356.6624351338, -576286.0865933999, -849621.0544849699, -489315.18069686665, -492732.18127872725, -492576.0766954514, -493074.632355527, -492795.54847425804, -0.126, 0.9440000000000001, 0.26, 192.0, 252.0, 16.0, 29.0, 128.0, 8.0, 32.0, 0.0, 0.0, 0.0, 1.7401429408897755E9, 0.0, 2025-02-21 10:02:20.889
249.0, -573218.7119983091, -592522.5725796906, -833630.2588737321, -482249.6378123329, -492728.0238542585, -492575.6073088178, -493046.6703232134, -492769.8663198789, -0.126, 0.9440000000000001, 0.26, 192.0, 0.0, 0.0, 0.0, 0.0, 0.0, 0.0, 0.0, 0.0, 0.0, 1.7401429408898036E9, 0.0, 2025-02-21 10:02:20.889
250.0, -549027.3295673525, -568633.743361681, -850791.8388595389, -489897.0860120161, -492708.8460575159, -492555.28957310796, -493052.1688523494, -492768.99460184516, -0.126, 0.9440000000000001, 0.26, 192.0, 0.0, 0.0, 0.0, 0.0, 0.0, 0.0, 0.0, 0.0, 0.0, 1.7401429408898292E9, 0.0, 2025-02-21 10:02:20.889
251.0, -531142.3577239941, -550407.0580490897, -868208.89928447, -492713.3387581514, -492691.4787520741, -492531.88729666325, -493061.0871983871, -492774.69429668126, -0.126, 0.9440000000000001, 0.26, 192.0, 0.0, 0.0, 0.0, 0.0, 0.0, 0.0, 0.0, 0.0, 0.0, 1.740142940889927E9, 0.0, 2025-02-21 10:02:20.889
252.0, -552074.3193714999, -571008.0350647015, -853984.4726305571, -490609.6149217624, -492691.0093654406, -492533.8318984308, -493040.30007604364, -492759.53981394053, -0.126, 0.9440000000000001, 0.26, 192.0, 0.0, 0.0, 0.0, 0.0, 0.0, 0.0, 0.0, 0.0, 0.0, 1.7401429408899672E9, 0.0, 2025-02-21 10:02:20.889
253.0, -573790.0225865868, -592998.9329575221, -834002.9518607798, -482441.88516639295, -492684.03562117054, -492531.9543518966, -493004.090250026, -492727.3533019249, -0.126, 0.9440000000000001, 0.26, 192.0, 0.0, 0.0, 0.0, 0.0, 0.0, 0.0, 0.0, 0.0, 0.0, 1.7401429408900115E9, 0.0, 2025-02-21 10:02:20.890
254.0, -554610.6165183326, -574211.1294521248, -846368.6074457894, -488512.73071917664, -492671.4962925311, -492518.9456366236, -493008.98528206174, -492727.21919145813, -0.126, 0.9440000000000001, 0.26, 192.0, 0.0, 0.0, 0.0, 0.0, 0.0, 0.0, 0.0, 0.0, 0.0, 1.7401429408900385E9, 0.0, 2025-02-21 10:02:20.890
255.0, -531445.4473788079, -550801.8792631483, -867297.7527734939, -492619.79670760594, -492651.2456120546, -492492.995261311, -493019.24473276676, -492732.98594152764, -0.126, 0.9440000000000001, 0.26, 192.0, 0.0, 0.0, 0.0, 0.0, 0.0, 0.0, 0.0, 0.0, 0.0, 1.7401429408900645E9, 0.0, 2025-02-21 10:02:20.890
0.0, -546935.2062863358, -565893.598305416, -858067.5999006749, -491554.0878837214, -492648.3622370198, -492490.3801072097, -493003.35264245904, -492721.8547727889, -0.126, 0.9440000000000001, 0.26, 192.0, 0.0, 0.0, 0.0, 0.0, 0.0, 0.0, 0.0, 0.0, 0.0, 1.7401429408900895E9, 0.0, 2025-02-21 10:02:20.890
1.0, -572790.6313885011, -591904.0551071233, -835623.0062989005, -483344.85093889845, -492648.8316236534, -492496.1468572792, -492970.7637990432, -492694.4962375756, -0.126, 0.9440000000000001, 0.26, 192.0, 0.0, 0.0, 0.0, 0.0, 0.0, 0.0, 0.0, 0.0, 0.0, 1.7401429408901148E9, 0.0, 2025-02-21 10:02:20.890
2.0, -560166.0084922324, -579739.1628908113, -842146.1394007372, -486871.8891587126, -492636.9628473476, -492484.54630190687, -492968.21570017526, -492688.05893517245, -0.12, 0.9420000000000001, 0.258, 192.0, 252.0, 64.0, 29.0, 112.0, 8.0, 16.0, 0.0, 0.0, 0.0, 1.740142940890148E9, 0.0, 2025-02-21 10:02:20.890
3.0, -533159.9155855079, -552596.2773080203, -865278.0491445124, -492439.7534060185, -492615.7063383706, -492458.3947608942, -492979.9503660143, -492694.63034804235, -0.12, 0.9420000000000001, 0.258, 192.0, 0.0, 0.0, 0.0, 0.0, 0.0, 0.0, 0.0, 0.0, 0.0, 1.7401429408901749E9, 0.0, 2025-02-21 10:02:20.890
4.0, -542142.6346472066, -561141.7962481733, -861721.7077877173, -492111.78625962575, -492607.1232684998, -492448.3364758893, -492967.7463135417, -492685.041449671, -0.12, 0.9420000000000001, 0.258, 192.0, 0.0, 0.0, 0.0, 0.0, 0.0, 0.0, 0.0, 0.0, 0.0, 1.740142940890199E9, 0.0, 2025-02-21 10:02:20.890
5.0, -570378.7887547957, -589416.5741701811, -838298.2418892672, -484712.91181003, -492608.3302627004, -492455.4443306261, -492935.2245253592, -492658.286411558, -0.12, 0.9420000000000001, 0.258, 192.0, 0.0, 0.0, 0.0, 0.0, 0.0, 0.0, 0.0, 0.0, 0.0, 1.7401429408902237E9, 0.0, 2025-02-21 10:02:20.890
6.0, -565373.2496944964, -584894.3692319833, -838393.9967625138, -485189.8756849618, -492595.9250445277, -492443.9778857205, -492922.6181414865, -492643.3330945174, -0.12, 0.9420000000000001, 0.258, 192.0, 0.0, 0.0, 0.0, 0.0, 0.0, 0.0, 0.0, 0.0, 0.0, 1.7401429408902483E9, 0.0, 2025-02-21 10:02:20.890
7.0, -536361.9370891973, -555876.0828824142, -862113.1762401076, -492099.5151519198, -492580.23411992006, -492424.39775757765, -492939.98544692824, -492654.8665946563, -0.12, 0.9420000000000001, 0.258, 192.0, 0.0, 0.0, 0.0, 0.0, 0.0, 0.0, 0.0, 0.0, 0.0, 1.740142940890273E9, 0.0, 2025-02-21 10:02:20.890
8.0, -537982.5279691849, -557042.8439429813, -864688.6336432259, -492411.1208213712, -492571.5839948159, -492412.3278155718, -492936.4985747932, -492652.6537719553, -0.12, 0.9420000000000001, 0.258, 192.0, 0.0, 0.0, 0.0, 0.0, 0.0, 0.0, 0.0, 0.0, 0.0, 1.740142940890298E9, 0.0, 2025-02-21 10:02:20.890
9.0, -566677.3398729968, -585660.9446598226, -841854.3150251288, -486377.2897574055, -492570.1758349152, -492416.35112957377, -492901.96512960974, -492624.75879487506, -0.12, 0.9420000000000001, 0.258, 192.0, 0.0, 0.0, 0.0, 0.0, 0.0, 0.0, 0.0, 0.0, 0.0, 1.7401429408903232E9, 0.0, 2025-02-21 10:02:20.890
10.0, -569499.5605349017, -588962.7443507606, -835648.755508513, -483808.3367119237, -492560.251660377, -492408.17039110314, -492883.05555380054, -492605.24572196556, -0.12, 0.9420000000000001, 0.258, 192.0, 0.0, 0.0, 0.0, 0.0, 0.0, 0.0, 0.0, 0.0, 0.0, 1.740142940890355E9, 0.0, 2025-02-21 10:02:20.890
11.0, -540527.4081858883, -560093.5888401972, -858338.6371539399, -491557.1724244562, -492539.8668694338, -492384.9692803585, -492894.25377777265, -492610.0736987679, -0.12, 0.9420000000000001, 0.258, 192.0, 0.0, 0.0, 0.0, 0.0, 0.0, 0.0, 0.0, 0.0, 0.0, 1.7401429408903868E9, 0.0, 2025-02-21 10:02:20.890
12.0, -534788.5530934994, -553908.9505563916, -866766.2729938356, -492518.7444709235, -492526.99226462754, -492367.53491968336, -492894.5890539395, -492610.0736987679, -0.122, 0.9420000000000001, 0.256, 192.0, 252.0, 48.0, 29.0, 112.0, 8.0, 0.0, 0.0, 0.0, 0.0, 1.740142940890412E9, 0.0, 2025-02-21 10:02:20.890
13.0, -562030.680421672, -580976.7342778128, -846028.5033021574, -488118.64711268514, -492534.5695059979, -492380.14130355616, -492872.72904786223, -492594.58393986034, -0.122, 0.9420000000000001, 0.256, 192.0, 0.0, 0.0, 0.0, 0.0, 0.0, 0.0, 0.0, 0.0, 0.0, 1.7401429408904383E9, 0.0, 2025-02-21 10:02:20.890
14.0, -572576.5910835972, -591949.1162239452, -833913.6342899364, -482856.0182876609, -492529.07097686187, -492377.25792852143, -492849.9302685178, -492572.8580442498, -0.122, 0.9420000000000001, 0.256, 192.0, 0.0, 0.0, 0.0, 0.0, 0.0, 0.0, 0.0, 0.0, 0.0, 1.7401429408904636E9, 0.0, 2025-02-21 10:02:20.890
15.0, -545541.5303160584, -565131.3144125121, -854049.1138755219, -490734.0023796561, -492504.05937481637, -492350.23466947494, -492852.6795330858, -492569.5723378149, -0.122, 0.9420000000000001, 0.256, 192.0, 0.0, 0.0, 0.0, 0.0, 0.0, 0.0, 0.0, 0.0, 0.0, 1.7401429408904884E9, 0.0, 2025-02-21 10:02:20.890
16.0, -532712.5230684904, -551902.6579740832, -867841.1683846914, -492521.9631221251, -492489.8436653428, -492330.52043086535, -492859.11683548894, -492573.4615413501, -0.122, 0.9420000000000001, 0.256, 192.0, 0.0, 0.0, 0.0, 0.0, 0.0, 0.0, 0.0, 0.0, 0.0, 1.7401429408905132E9, 0.0, 2025-02-21 10:02:20.890
17.0, -556923.7538485234, -575846.7407043864, -850374.0847556692, -489602.5123718396, -492491.65415664366, -492336.08601523476, -492836.45216661127, -492556.83184347535, -0.122, 0.9420000000000001, 0.256, 192.0, 0.0, 0.0, 0.0, 0.0, 0.0, 0.0, 0.0, 0.0, 0.0, 1.7401429408905454E9, 0.0, 2025-02-21 10:02:20.890
18.0, -574367.2340354007, -593646.4182909034, -833271.3792647576, -482468.640204506, -492491.7882671104, -492339.7740530699, -492811.97700643266, -492535.7094449651, -0.122, 0.9420000000000001, 0.256, 192.0, 0.0, 0.0, 0.0, 0.0, 0.0, 0.0, 0.0, 0.0, 0.0, 1.74014294089057E9, 0.0, 2025-02-21 10:02:20.890
19.0, -551279.3125247136, -570887.8720865097, -849343.1775979016, -489573.94684242574, -492477.17022623663, -492324.1501836956, -492819.48719256965, -492537.2517153325, -0.122, 0.9420000000000001, 0.256, 192.0, 0.0, 0.0, 0.0, 0.0, 0.0, 0.0, 0.0, 0.0, 0.0, 1.7401429408905947E9, 0.0, 2025-02-21 10:02:20.890
20.0, -531944.8747569174, -551232.1056404241, -867758.9586685847, -492479.04777277086, -492460.4734731285, -492301.5525700513, -492828.7408147742, -492543.08552063536, -0.122, 0.9420000000000001, 0.256, 192.0, 0.0, 0.0, 0.0, 0.0, 0.0, 0.0, 0.0, 0.0, 0.0, 1.7401429408906198E9, 0.0, 2025-02-21 10:02:20.890
21.0, -551627.9997382164, -570564.9340826195, -854713.0947963113, -490777.72239181073, -492457.25482192694, -492300.211465384, -492808.15485813085, -492527.6628169612, -0.122, 0.9420000000000001, 0.256, 192.0, 0.0, 0.0, 0.0, 0.0, 0.0, 0.0, 0.0, 0.0, 0.0, 1.7401429408906448E9, 0.0, 2025-02-21 10:02:20.890
22.0, -574552.3064794906, -593732.2489896117, -833973.1793371653, -482839.85797641973, -492452.42684512463, -492300.1444101506, -492774.09079958097, -492497.8232381134, -0.124, 0.9420000000000001, 0.252, 192.0, 252.0, 32.0, 29.0, 112.0, 7.0, 224.0, 0.0, 0.0, 0.0, 1.7401429408906703E9, 0.0, 2025-02-21 10:02:20.890
23.0, -556877.0834061007, -576461.5030838852, -844960.447545105, -488176.0463924464, -492438.1440804177, -492285.32520357677, -492774.7613519146, -492493.66581364465, -0.124, 0.9420000000000001, 0.252, 192.0, 0.0, 0.0, 0.0, 0.0, 0.0, 0.0, 0.0, 0.0, 0.0, 1.7401429408906968E9, 0.0, 2025-02-21 10:02:20.890
24.0, -532567.68376442, -551931.6258348973, -866599.9760150881, -492375.9838790875, -492418.29573134135, -492260.2465462979, -492784.8196369195, -492498.96317708056, -0.124, 0.9420000000000001, 0.252, 192.0, 0.0, 0.0, 0.0, 0.0, 0.0, 0.0, 0.0, 0.0, 0.0, 1.7401429408907213E9, 0.0, 2025-02-21 10:02:20.890
25.0, -546540.3850722773, -565501.4593006921, -858715.2193445229, -491555.6972093221, -492421.5143825429, -492263.73341843294, -492778.3823345164, -492496.8844648462, -0.124, 0.9420000000000001, 0.252, 192.0, 0.0, 0.0, 0.0, 0.0, 0.0, 0.0, 0.0, 0.0, 0.0, 1.74014294089076E9, 0.0, 2025-02-21 10:02:20.890
26.0, -573235.8781380509, -592325.1619726613, -835815.5889291274, -483802.56996185426, -492421.5814377763, -492268.62845046865, -492746.061712034, -492469.9953162665, -0.124, 0.9420000000000001, 0.252, 192.0, 0.0, 0.0, 0.0, 0.0, 0.0, 0.0, 0.0, 0.0, 0.0, 1.7401429408907857E9, 0.0, 2025-02-21 10:02:20.890
27.0, -562363.2743791669, -581924.6270566734, -840821.3962103601, -486565.3126317636, -492404.0129666344, -492251.73053166043, -492735.7352060956, -492455.71255155955, -0.124, 0.9420000000000001, 0.252, 192.0, 0.0, 0.0, 0.0, 0.0, 0.0, 0.0, 0.0, 0.0, 0.0, 1.7401429408908107E9, 0.0, 2025-02-21 10:02:20.890
28.0, -534605.0899750101, -554062.3729303328, -864317.2817608454, -492181.79192325973, -492383.35995475773, -492226.8530400817, -492746.93343006773, -492461.479301629, -0.124, 0.9420000000000001, 0.252, 192.0, 0.0, 0.0, 0.0, 0.0, 0.0, 0.0, 0.0, 0.0, 0.0, 1.7401429408908355E9, 0.0, 2025-02-21 10:02:20.890
29.0, -541887.2883185493, -560891.2778963182, -862208.7970028875, -492017.5736567466, -492377.5932046882, -492219.0746330112, -492739.3561886974, -492456.1819381931, -0.124, 0.9420000000000001, 0.252, 192.0, 0.0, 0.0, 0.0, 0.0, 0.0, 0.0, 0.0, 0.0, 0.0, 1.7401429408908608E9, 0.0, 2025-02-21 10:02:20.890
30.0, -570443.6982206939, -589453.5886589991, -838756.49735409, -485236.94845878467, -492380.8118558898, -492227.9259238155, -492709.58366508293, -492432.91377221514, -0.124, 0.9420000000000001, 0.252, 192.0, 0.0, 0.0, 0.0, 0.0, 0.0, 0.0, 0.0, 0.0, 0.0, 1.740142940890886E9, 0.0, 2025-02-21 10:02:20.890
31.0, -567322.6794389104, -586823.9506273211, -837309.0430866532, -485024.1151480812, -492370.75357088493, -492218.9405225445, -492697.7819440105, -492419.10039414174, -0.124, 0.9420000000000001, 0.252, 192.0, 0.0, 0.0, 0.0, 0.0, 0.0, 0.0, 0.0, 0.0, 0.0, 1.7401429408909123E9, 0.0, 2025-02-21 10:02:20.890
32.0, -538145.6062967308, -557669.4080435524, -860926.2986095308, -491839.5420121601, -492356.13553001115, -492200.76855430234, -492714.8139732855, -492429.89628671366, -0.124, 0.9380000000000001, 0.252, 192.0, 252.0, 32.0, 29.0, 80.0, 7.0, 224.0, 0.0, 0.0, 0.0, 1.7401429408909457E9, 0.0, 2025-02-21 10:02:20.890
33.0, -537993.2568065234, -557055.7185477875, -864930.5689252102, -492254.7480171619, -492345.20552697254, -492186.35167912865, -492710.5894935834, -492426.2753041119, -0.124, 0.9380000000000001, 0.252, 192.0, 0.0, 0.0, 0.0, 0.0, 0.0, 0.0, 0.0, 0.0, 0.0, 1.7401429408909733E9, 0.0, 2025-02-21 10:02:20.890
34.0, -566411.8011488678, -585374.4847028834, -842548.336690466, -486926.40506343904, -492348.49123340746, -492194.7335832994, -492682.96273743664, -492405.6222922352, -0.124, 0.9380000000000001, 0.252, 192.0, 0.0, 0.0, 0.0, 0.0, 0.0, 0.0, 0.0, 0.0, 0.0, 1.740142940890998E9, 0.0, 2025-02-21 10:02:20.890
35.0, -571185.5973226544, -590619.2768358323, -834831.6204347159, -483793.2492844164, -492342.12098623766, -492190.1738274305, -492666.4000947953, -492388.5232077269, -0.124, 0.9380000000000001, 0.252, 192.0, 0.0, 0.0, 0.0, 0.0, 0.0, 0.0, 0.0, 0.0, 0.0, 1.7401429408910227E9, 0.0, 2025-02-21 10:02:20.891
36.0, -542478.9836977702, -562049.9923288813, -857054.6635454493, -491282.2459676559, -492317.17643942556, -492162.8823474506, -492671.16101636423, -492387.04799259285, -0.124, 0.9380000000000001, 0.252, 192.0, 0.0, 0.0, 0.0, 0.0, 0.0, 0.0, 0.0, 0.0, 0.0, 1.7401429408910477E9, 0.0, 2025-02-21 10:02:20.891
37.0, -535033.1705848182, -554170.1977455852, -866795.6431860499, -492314.3601196242, -492302.3572328517, -492143.168108841, -492670.22224309715, -492385.1033908252, -0.124, 0.9380000000000001, 0.252, 192.0, 0.0, 0.0, 0.0, 0.0, 0.0, 0.0, 0.0, 0.0, 0.0, 1.7401429408910725E9, 0.0, 2025-02-21 10:02:20.891
38.0, -561679.8474407014, -580617.3182269714, -846734.5949095006, -488494.62580616784, -492307.721651521, -492153.02522814577, -492648.5634027199, -492369.94890808454, -0.124, 0.9380000000000001, 0.252, 192.0, 0.0, 0.0, 0.0, 0.0, 0.0, 0.0, 0.0, 0.0, 0.0, 1.7401429408910973E9, 0.0, 2025-02-21 10:02:20.891
39.0, -574043.7595896435, -593392.6812878468, -833279.5600032283, -482949.493282973, -492302.0219566849, -492150.14185311104, -492624.35646347486, -492347.3512944402, -0.124, 0.9380000000000001, 0.252, 192.0, 0.0, 0.0, 0.0, 0.0, 0.0, 0.0, 0.0, 0.0, 0.0, 1.7401429408911304E9, 0.0, 2025-02-21 10:02:20.891
40.0, -547894.9007862689, -567493.2679525934, -852476.5345426244, -490415.15474500123, -492279.0890668737, -492125.4655272324, -492627.0386728095, -492344.19969847205, -0.124, 0.9380000000000001, 0.252, 192.0, 0.0, 0.0, 0.0, 0.0, 0.0, 0.0, 0.0, 0.0, 0.0, 1.7401429408911624E9, 0.0, 2025-02-21 10:02:20.891
41.0, -533236.0903306116, -552454.1202132845, -867597.2214457061, -492299.87618921715, -492266.34857253416, -492107.4276694569, -492634.9511903467, -492349.3629514412, -0.124, 0.9380000000000001, 0.252, 192.0, 0.0, 0.0, 0.0, 0.0, 0.0, 0.0, 0.0, 0.0, 0.0, 1.7401429408911881E9, 0.0, 2025-02-21 10:02:20.891
42.0, -556449.5392381597, -575371.4532102887, -851160.3744221181, -489854.371828362, -492268.695505702, -492113.2614747598, -492615.7063383706, -492336.22012570145, -0.12, 0.9460000000000001, 0.256, 192.0, 252.0, 64.0, 29.0, 144.0, 8.0, 0.0, 0.0, 0.0, 0.0, 1.740142940891214E9, 0.0, 2025-02-21 10:02:20.891
43.0, -575409.0041409737, -594660.829861263, -833012.5460639652, -482762.8115132823, -492263.33108703274, -492111.3168729922, -492585.3973728892, -492309.196866655, -0.12, 0.9460000000000001, 0.256, 192.0, 0.0, 0.0, 0.0, 0.0, 0.0, 0.0, 0.0, 0.0, 0.0, 1.7401429408912573E9, 0.0, 2025-02-21 10:02:20.891
44.0, -553489.9894583214, -573088.3566246459, -847946.148865956, -489264.75516137545, -492244.82384262374, -492092.1390762495, -492587.34197465685, -492305.37471835315, -0.12, 0.9460000000000001, 0.256, 192.0, 0.0, 0.0, 0.0, 0.0, 0.0, 0.0, 0.0, 0.0, 0.0, 1.7401429408912835E9, 0.0, 2025-02-21 10:02:20.891
45.0, -532798.8902090658, -552098.4592555118, -867285.8169419548, -492241.20286002196, -492225.444880181, -492067.66391607095, -492593.84633229335, -492307.8557619877, -0.12, 0.9460000000000001, 0.256, 192.0, 0.0, 0.0, 0.0, 0.0, 0.0, 0.0, 0.0, 0.0, 0.0, 1.7401429408913093E9, 0.0, 2025-02-21 10:02:20.891
46.0, -551150.566476651, -570086.9643791872, -855457.1396657396, -490886.48598033027, -492218.3370254442, -492061.8971660015, -492572.0533814494, -492290.95784317947, -0.12, 0.9460000000000001, 0.256, 192.0, 0.0, 0.0, 0.0, 0.0, 0.0, 0.0, 0.0, 0.0, 0.0, 1.7401429408913348E9, 0.0, 2025-02-21 10:02:20.891
47.0, -575170.8239520579, -594329.308787502, -834044.2578845333, -483303.6790256118, -492216.99592077686, -492064.64643056947, -492541.0738636344, -492264.9404126335, -0.12, 0.9460000000000001, 0.256, 192.0, 0.0, 0.0, 0.0, 0.0, 0.0, 0.0, 0.0, 0.0, 0.0, 1.7401429408913672E9, 0.0, 2025-02-21 10:02:20.891
48.0, -559091.5154327769, -578679.6902036298, -843597.2146507758, -487872.21913006535, -492208.2116852059, -492055.92925023194, -492545.3653985698, -492264.4710259999, -0.12, 0.9460000000000001, 0.256, 192.0, 0.0, 0.0, 0.0, 0.0, 0.0, 0.0, 0.0, 0.0, 0.0, 1.7401429408913922E9, 0.0, 2025-02-21 10:02:20.891
49.0, -533758.5847089988, -553150.9581984233, -865848.2868490561, -492139.4130157725, -492192.7219262984, -492035.6785697554, -492558.9105557097, -492272.85293017066, -0.12, 0.9460000000000001, 0.256, 192.0, 0.0, 0.0, 0.0, 0.0, 0.0, 0.0, 0.0, 0.0, 0.0, 1.7401429408914173E9, 0.0, 2025-02-21 10:02:20.891
50.0, -546172.3859515651, -565143.6525754515, -859326.7630728201, -491537.1229096798, -492191.5149320978, -492033.9351336879, -492550.32748583885, -492267.82378766825, -0.12, 0.9460000000000001, 0.256, 192.0, 0.0, 0.0, 0.0, 0.0, 0.0, 0.0, 0.0, 0.0, 0.0, 1.7401429408914428E9, 0.0, 2025-02-21 10:02:20.891
51.0, -573483.7142805713, -592549.9311149039, -836163.337369363, -484343.10219801695, -492190.0397169638, -492037.01967442274, -492517.26925578946, -492240.59936292167, -0.12, 0.9460000000000001, 0.256, 192.0, 0.0, 0.0, 0.0, 0.0, 0.0, 0.0, 0.0, 0.0, 0.0, 1.7401429408914688E9, 0.0, 2025-02-21 10:02:20.891
52.0, -564528.8901959527, -584070.9309662499, -839547.2126659409, -486332.295695817, -492165.162225385, -492013.01390087773, -492497.15268577967, -492217.66647311056, -0.122, 0.9460000000000001, 0.258, 192.0, 252.0, 48.0, 29.0, 144.0, 8.0, 16.0, 0.0, 0.0, 0.0, 1.7401429408914945E9, 0.0, 2025-02-21 10:02:20.891
53.0, -536250.8936227433, -555720.5147410053, -863200.9462357695, -491927.2502574027, -492150.678294978, -491994.57371170213, -492513.17888655415, -492227.79181334877, -0.122, 0.9460000000000001, 0.258, 192.0, 0.0, 0.0, 0.0, 0.0, 0.0, 0.0, 0.0, 0.0, 0.0, 1.740142940891522E9, 0.0, 2025-02-21 10:02:20.891
54.0, -541672.7115717783, -560691.1850799543, -862646.9358977004, -491903.57976002456, -492148.93485891045, -491990.55039770016, -492511.9048371202, -492228.2611999824, -0.122, 0.9460000000000001, 0.258, 192.0, 0.0, 0.0, 0.0, 0.0, 0.0, 0.0, 0.0, 0.0, 0.0, 1.7401429408915575E9, 0.0, 2025-02-21 10:02:20.891
55.0, -570388.4447084004, -589384.3876581654, -839317.3473259625, -485780.09584904864, -492153.7628357128, -492000.40751700493, -492485.21685424057, -492208.4799061394, -0.122, 0.9460000000000001, 0.258, 192.0, 0.0, 0.0, 0.0, 0.0, 0.0, 0.0, 0.0, 0.0, 0.0, 1.7401429408915927E9, 0.0, 2025-02-21 10:02:20.891
56.0, -569258.1616947844, -588740.6574178527, -836255.4712600078, -484878.8735126107, -492136.52964073775, -491984.64953716396, -492464.2956214304, -492185.94934772846, -0.122, 0.9460000000000001, 0.258, 192.0, 0.0, 0.0, 0.0, 0.0, 0.0, 0.0, 0.0, 0.0, 0.0, 1.74014294089162E9, 0.0, 2025-02-21 10:02:20.891
57.0, -539933.5670391998, -559465.4154140253, -859733.2518974843, -491561.06162799144, -492115.6084079276, -491961.04609501915, -492473.4821884015, -492188.8997779965, -0.122, 0.9460000000000001, 0.258, 192.0, 0.0, 0.0, 0.0, 0.0, 0.0, 0.0, 0.0, 0.0, 0.0, 1.7401429408916457E9, 0.0, 2025-02-21 10:02:20.891
58.0, -537983.6008529188, -557058.4007571222, -865183.3671549996, -492062.902994502, -492108.4334979574, -491949.84787104704, -492474.35390643525, -492189.7044407969, -0.122, 0.9460000000000001, 0.258, 192.0, 0.0, 0.0, 0.0, 0.0, 0.0, 0.0, 0.0, 0.0, 0.0, 1.7401429408916707E9, 0.0, 2025-02-21 10:02:20.891
59.0, -566174.157401819, -585121.8205835606, -843209.5012914541, -487363.269908818, -492111.4509834589, -491957.4251124174, -492448.7388072895, -492170.7278097544, -0.122, 0.9460000000000001, 0.258, 192.0, 0.0, 0.0, 0.0, 0.0, 0.0, 0.0, 0.0, 0.0, 0.0, 1.7401429408916953E9, 0.0, 2025-02-21 10:02:20.891
60.0, -572929.5698320353, -592336.9636937337, -833966.0714824286, -483761.06277240074, -492102.5326374212, -491950.3172576806, -492427.3481878458, -492149.8736321776, -0.122, 0.9460000000000001, 0.258, 192.0, 0.0, 0.0, 0.0, 0.0, 0.0, 0.0, 0.0, 0.0, 0.0, 1.7401429408917203E9, 0.0, 2025-02-21 10:02:20.891
61.0, -544621.5325142781, -564198.4420059255, -855623.973086354, -490985.2583390783, -492085.36649767956, -491931.00535047124, -492438.21113565104, -492154.43338804645, -0.122, 0.9460000000000001, 0.258, 192.0, 0.0, 0.0, 0.0, 0.0, 0.0, 0.0, 0.0, 0.0, 0.0, 1.7401429408917449E9, 0.0, 2025-02-21 10:02:20.891
62.0, -535301.3915182819, -554457.7305862582, -866795.3749651164, -492103.6055211551, -492077.72220107587, -491918.93540846533, -492445.8554322548, -492160.2671933493, -0.122, 0.9460000000000001, 0.262, 192.0, 252.0, 48.0, 29.0, 144.0, 8.0, 48.0, 0.0, 0.0, 0.0, 1.7401429408917763E9, 0.0, 2025-02-21 10:02:20.891
63.0, -561229.7727143494, -580157.5875470147, -847538.1848261578, -488858.8027785782, -492076.5822621086, -491921.9528939668, -492420.4414988091, -492141.29056230676, -0.122, 0.9460000000000001, 0.262, 192.0, 0.0, 0.0, 0.0, 0.0, 0.0, 0.0, 0.0, 0.0, 0.0, 1.7401429408918028E9, 0.0, 2025-02-21 10:02:20.891
64.0, -575357.5057217486, -594676.9231172709, -832800.7856369956, -483133.4928433291, -492065.7863695367, -491913.7721554962, -492389.5960914607, -492113.0603090597, -0.122, 0.9460000000000001, 0.262, 192.0, 0.0, 0.0, 0.0, 0.0, 0.0, 0.0, 0.0, 0.0, 0.0, 1.7401429408918276E9, 0.0, 2025-02-21 10:02:20.891
65.0, -550046.0326726476, -569642.2540715045, -851086.6136654156, -490119.7093867909, -492046.80973849416, -491893.78969595314, -492394.6252339632, -492111.652149159, -0.122, 0.9460000000000001, 0.262, 192.0, 0.0, 0.0, 0.0, 0.0, 0.0, 0.0, 0.0, 0.0, 0.0, 1.7401429408918524E9, 0.0, 2025-02-21 10:02:20.891
66.0, -533838.514547171, -553072.6376858518, -867323.3678726397, -492071.82134053967, -492037.3549505896, -491879.37282077945, -492406.29284456884, -492119.69877716294, -0.122, 0.9460000000000001, 0.262, 192.0, 0.0, 0.0, 0.0, 0.0, 0.0, 0.0, 0.0, 0.0, 0.0, 1.7401429408918772E9, 0.0, 2025-02-21 10:02:20.891
67.0, -555956.0127205864, -574874.171599647, -851942.9089954983, -490076.5258165033, -492036.7514534893, -491881.38447778043, -492386.5115507259, -492105.8183438562, -0.122, 0.9460000000000001, 0.262, 192.0, 0.0, 0.0, 0.0, 0.0, 0.0, 0.0, 0.0, 0.0, 0.0, 1.740142940891902E9, 0.0, 2025-02-21 10:02:20.891
68.0, -576366.016431572, -595575.9996862411, -832826.1325152079, -483112.4375000522, -492036.0809011556, -491883.86552141496, -492360.1588440131, -492083.6901168454, -0.122, 0.9460000000000001, 0.262, 192.0, 0.0, 0.0, 0.0, 0.0, 0.0, 0.0, 0.0, 0.0, 0.0, 1.7401429408919272E9, 0.0, 2025-02-21 10:02:20.891
69.0, -555835.3133005277, -575419.1965364453, -846439.0154408235, -488955.42936985847, -492020.1888108479, -491867.63815494045, -492362.3716667142, -492080.87379704404, -0.122, 0.9460000000000001, 0.262, 192.0, 0.0, 0.0, 0.0, 0.0, 0.0, 0.0, 0.0, 0.0, 0.0, 1.7401429408919592E9, 0.0, 2025-02-21 10:02:20.891
70.0, -533792.3805466152, -553107.5064072021, -866657.9117367163, -492009.3258630426, -491998.9323018709, -491841.1513377609, -492366.39498071617, -492080.27029994375, -0.122, 0.9460000000000001, 0.262, 192.0, 0.0, 0.0, 0.0, 0.0, 0.0, 0.0, 0.0, 0.0, 0.0, 1.740142940891991E9, 0.0, 2025-02-21 10:02:20.891
71.0, -550715.512122573, -569654.5922344438, -856147.4062380083, -490951.79777762864, -491995.8477611361, -491839.20673599327, -492351.03933227534, -492069.47440737183, -0.122, 0.9460000000000001, 0.262, 192.0, 0.0, 0.0, 0.0, 0.0, 0.0, 0.0, 0.0, 0.0, 0.0, 1.7401429408920162E9, 0.0, 2025-02-21 10:02:20.892
72.0, -575712.6302376546, -594837.8556773491, -834179.3071245322, -483787.8848657471, -491989.94690059987, -491837.73152085923, -492316.37177662516, -492040.10421515757, -0.122, 0.9440000000000001, 0.262, 192.0, 252.0, 48.0, 29.0, 128.0, 8.0, 48.0, 0.0, 0.0, 0.0, 1.7401429408920412E9, 0.0, 2025-02-21 10:02:20.892
73.0, -561419.1366933747, -580992.2910919536, -842160.6233311443, -487601.24893203366, -491978.614566161, -491826.5332968871, -492315.9023899916, -492035.20918312186, -0.122, 0.9440000000000001, 0.262, 192.0, 0.0, 0.0, 0.0, 0.0, 0.0, 0.0, 0.0, 0.0, 0.0, 1.7401429408920681E9, 0.0, 2025-02-21 10:02:20.892
74.0, -535163.5259584816, -554574.1384713815, -864897.9800817943, -491892.4485912858, -491958.3638856845, -491801.99108147516, -492323.8149075288, -492037.6902267564, -0.122, 0.9440000000000001, 0.262, 192.0, 0.0, 0.0, 0.0, 0.0, 0.0, 0.0, 0.0, 0.0, 0.0, 1.7401429408920932E9, 0.0, 2025-02-21 10:02:20.892
75.0, -545815.1156681915, -564792.819594481, -859918.1902311075, -491468.3242402464, -491951.6583623479, -491794.7491162717, -492312.28140738985, -492029.10715688556, -0.122, 0.9440000000000001, 0.262, 192.0, 0.0, 0.0, 0.0, 0.0, 0.0, 0.0, 0.0, 0.0, 0.0, 1.7401429408921185E9, 0.0, 2025-02-21 10:02:20.892
76.0, -573678.442678266, -592726.9569309899, -836562.450118357, -484866.2000735045, -491950.5184233807, -491798.2359884067, -492280.63133724115, -492003.8273339066, -0.122, 0.9440000000000001, 0.262, 192.0, 0.0, 0.0, 0.0, 0.0, 0.0, 0.0, 0.0, 0.0, 0.0, 1.7401429408921509E9, 0.0, 2025-02-21 10:02:20.892
77.0, -566573.2701508129, -586101.36343257, -838399.0929602496, -486161.57307166734, -491940.0578069756, -491788.3788691019, -492272.5847092372, -491993.36671750154, -0.122, 0.9440000000000001, 0.262, 192.0, 0.0, 0.0, 0.0, 0.0, 0.0, 0.0, 0.0, 0.0, 0.0, 1.7401429408921764E9, 0.0, 2025-02-21 10:02:20.892
78.0, -537857.5370141908, -557336.8140860575, -862168.1615314677, -491677.6036235814, -491920.4776788328, -491764.7754269571, -492282.2406628419, -491996.9206448699, -0.122, 0.9440000000000001, 0.262, 192.0, 0.0, 0.0, 0.0, 0.0, 0.0, 0.0, 0.0, 0.0, 0.0, 1.7401429408922014E9, 0.0, 2025-02-21 10:02:20.892
79.0, -541564.350314659, -560588.7246833711, -863023.1157568832, -491748.0116186156, -491910.5535042946, -491752.23609831766, -492274.3952005381, -491989.8798453665, -0.122, 0.9440000000000001, 0.262, 192.0, 0.0, 0.0, 0.0, 0.0, 0.0, 0.0, 0.0, 0.0, 0.0, 1.7401429408922267E9, 0.0, 2025-02-21 10:02:20.892
80.0, -570308.5148702282, -589291.0467733201, -839891.3401235748, -486267.9226717857, -491915.3144258636, -491762.36143855593, -492249.92004035955, -491972.5795951581, -0.122, 0.9440000000000001, 0.262, 192.0, 0.0, 0.0, 0.0, 0.0, 0.0, 0.0, 0.0, 0.0, 0.0, 1.7401429408922567E9, 0.0, 2025-02-21 10:02:20.892
81.0, -571084.2098098052, -590553.2944862002, -835304.6280508791, -484820.9377909825, -491906.0608036591, -491754.3818657854, -492234.89966808556, -491956.4863391503, -0.122, 0.9440000000000001, 0.262, 192.0, 0.0, 0.0, 0.0, 0.0, 0.0, 0.0, 0.0, 0.0, 0.0, 1.7401429408922822E9, 0.0, 2025-02-21 10:02:20.892
82.0, -541815.405108381, -561357.982320545, -858485.4881150112, -491301.02143299836, -491888.8946639174, -491734.4664614757, -492246.4331682245, -491961.85075781954, -0.12, 0.9420000000000001, 0.268, 192.0, 252.0, 64.0, 29.0, 112.0, 8.0, 96.0, 0.0, 0.0, 0.0, 1.7401429408923073E9, 0.0, 2025-02-21 10:02:20.892
83.0, -538001.8398763943, -557097.5610134079, -865412.2937217109, -491864.2183380388, -491873.87429164344, -491715.5568856665, -492240.666418155, -491955.34640018304, -0.12, 0.9420000000000001, 0.268, 192.0, 0.0, 0.0, 0.0, 0.0, 0.0, 0.0, 0.0, 0.0, 0.0, 1.7401429408923337E9, 0.0, 2025-02-21 10:02:20.892
84.0, -565810.4498160422, -584749.529927913, -843987.8784403657, -487810.32714966865, -491876.75766667817, -491723.0670718035, -492217.06297601026, -491938.5825918416, -0.12, 0.9420000000000001, 0.268, 192.0, 0.0, 0.0, 0.0, 0.0, 0.0, 0.0, 0.0, 0.0, 0.0, 1.740142940892372E9, 0.0, 2025-02-21 10:02:20.892
85.0, -574483.105478657, -593873.8696424806, -833279.5600032283, -483839.78561637236, -491867.7052101738, -491715.82510659995, -492194.19714143244, -491916.6555305309, -0.12, 0.9420000000000001, 0.268, 192.0, 0.0, 0.0, 0.0, 0.0, 0.0, 0.0, 0.0, 0.0, 0.0, 1.7401429408923967E9, 0.0, 2025-02-21 10:02:20.892
86.0, -546632.6530733887, -566219.7549605077, -854312.5068321833, -490703.6263589414, -491848.86268959794, -491695.6414813568, -492201.6402723361, -491917.79546949815, -0.12, 0.9420000000000001, 0.268, 192.0, 0.0, 0.0, 0.0, 0.0, 0.0, 0.0, 0.0, 0.0, 0.0, 1.7401429408924212E9, 0.0, 2025-02-21 10:02:20.892
87.0, -535624.3295221722, -554798.3711717571, -866762.2496798337, -491874.6118992105, -491841.5536691611, -491683.57153935096, -492209.68690033996, -491923.62927480094, -0.12, 0.9420000000000001, 0.268, 192.0, 0.0, 0.0, 0.0, 0.0, 0.0, 0.0, 0.0, 0.0, 0.0, 1.7401429408924465E9, 0.0, 2025-02-21 10:02:20.892
88.0, -560821.5404536177, -579746.6730769484, -848290.4104340567, -489128.4989271759, -491836.12219525845, -491682.2304346837, -492182.39542036003, -491903.17742862436, -0.12, 0.9420000000000001, 0.268, 192.0, 0.0, 0.0, 0.0, 0.0, 0.0, 0.0, 0.0, 0.0, 0.0, 1.7401429408924713E9, 0.0, 2025-02-21 10:02:20.892
89.0, -576629.9458301003, -595933.8064114817, -832334.6176546357, -483334.1891567933, -491833.4399859238, -491681.6939928167, -492158.72492298187, -491882.1891405808, -0.12, 0.9420000000000001, 0.268, 192.0, 0.0, 0.0, 0.0, 0.0, 0.0, 0.0, 0.0, 0.0, 0.0, 1.7401429408924956E9, 0.0, 2025-02-21 10:02:20.892
90.0, -552335.5665606936, -571937.6888200867, -849584.3082170854, -489827.48267978226, -491814.5304101146, -491661.77858850703, -492161.4741875499, -491879.3057655461, -0.12, 0.9420000000000001, 0.268, 192.0, 0.0, 0.0, 0.0, 0.0, 0.0, 0.0, 0.0, 0.0, 0.0, 1.74014294089252E9, 0.0, 2025-02-21 10:02:20.892
91.0, -534527.3059043058, -553784.4960432644, -866947.0539029902, -491833.1717649903, -491799.30887214054, -491641.93023943075, -492166.9727166859, -491881.0492016136, -0.12, 0.9420000000000001, 0.268, 192.0, 0.0, 0.0, 0.0, 0.0, 0.0, 0.0, 0.0, 0.0, 0.0, 1.7401429408925512E9, 0.0, 2025-02-21 10:02:20.892
92.0, -555523.104133976, -574451.9918503752, -852661.8752076478, -490206.0094721329, -491799.4429826073, -491644.4112830653, -492151.14768161153, -491870.92386137537, -0.116, 0.9420000000000001, 0.262, 192.0, 252.0, 96.0, 29.0, 112.0, 8.0, 48.0, 0.0, 0.0, 0.0, 1.740142940892576E9, 0.0, 2025-02-21 10:02:20.892
93.0, -577228.0785117244, -596433.770231458, -832698.1911299457, -483482.1130015985, -491795.2185029052, -491643.2042888647, -492121.173992297, -491845.2417069962, -0.116, 0.9420000000000001, 0.262, 192.0, 0.0, 0.0, 0.0, 0.0, 0.0, 0.0, 0.0, 0.0, 0.0, 1.7401429408926024E9, 0.0, 2025-02-21 10:02:20.892
94.0, -558033.6520711961, -577627.7277025853, -845077.5259825619, -488696.9314452328, -491783.34972659947, -491631.2684573255, -492125.39847199904, -491844.5711546625, -0.116, 0.9420000000000001, 0.262, 192.0, 0.0, 0.0, 0.0, 0.0, 0.0, 0.0, 0.0, 0.0, 0.0, 1.7401429408926263E9, 0.0, 2025-02-21 10:02:20.892
95.0, -534820.739605515, -554168.0519781176, -866036.5779443476, -491773.35849682795, -491766.04947639105, -491609.00611984805, -492132.50632673583, -491846.6498668969, -0.116, 0.9420000000000001, 0.262, 192.0, 0.0, 0.0, 0.0, 0.0, 0.0, 0.0, 0.0, 0.0, 0.0, 1.7401429408926508E9, 0.0, 2025-02-21 10:02:20.892
96.0, -550319.0815829136, -569266.7447646552, -856799.8536586588, -490950.85900436155, -491764.9095374238, -491609.00611984805, -492121.8445446306, -491840.01139879366, -0.116, 0.9420000000000001, 0.262, 192.0, 0.0, 0.0, 0.0, 0.0, 0.0, 0.0, 0.0, 0.0, 0.0, 1.7401429408926752E9, 0.0, 2025-02-21 10:02:20.892
97.0, -576211.521173897, -595316.8982645152, -834327.4991902709, -484240.17241480027, -491758.0699036205, -491606.1227448133, -492086.77465758024, -491810.50709611265, -0.116, 0.9420000000000001, 0.262, 192.0, 0.0, 0.0, 0.0, 0.0, 0.0, 0.0, 0.0, 0.0, 0.0, 1.7401429408927E9, 0.0, 2025-02-21 10:02:20.892
98.0, -563642.6882317887, -583201.3586999606, -840805.1688438855, -487353.41278951324, -491741.7084266792, -491590.2306545056, -492079.26447144325, -491799.0406512071, -0.116, 0.9420000000000001, 0.262, 192.0, 0.0, 0.0, 0.0, 0.0, 0.0, 0.0, 0.0, 0.0, 0.0, 1.7401429408927307E9, 0.0, 2025-02-21 10:02:20.892
99.0, -536598.5079525122, -556027.3594888877, -863929.8366224571, -491642.53373653104, -491720.51897293556, -491564.8837762933, -492084.6959453459, -491798.70537504024, -0.116, 0.9420000000000001, 0.262, 192.0, 0.0, 0.0, 0.0, 0.0, 0.0, 0.0, 0.0, 0.0, 0.0, 1.7401429408927617E9, 0.0, 2025-02-21 10:02:20.892
100.0, -545476.6208501603, -564470.4180324576, -860470.0548017091, -491372.97169840004, -491720.72013863566, -491563.94500302617, -492081.9466807779, -491798.4371541068, -0.116, 0.9420000000000001, 0.262, 192.0, 0.0, 0.0, 0.0, 0.0, 0.0, 0.0, 0.0, 0.0, 0.0, 1.7401429408927865E9, 0.0, 2025-02-21 10:02:20.892
101.0, -573772.3200049782, -592805.8138854282, -837013.8659493764, -485381.58659715496, -491720.78719386907, -491568.2365379616, -492052.9788199638, -491776.1748166293, -0.116, 0.9420000000000001, 0.262, 192.0, 0.0, 0.0, 0.0, 0.0, 0.0, 0.0, 0.0, 0.0, 0.0, 1.7401429408928115E9, 0.0, 2025-02-21 10:02:20.892
102.0, -568684.1688971721, -588195.6324810544, -837184.7226839928, -486003.52388662385, -491709.92424606375, -491558.1782529567, -492042.71936925885, -491763.5684327565, -0.116, 0.9380000000000001, 0.262, 192.0, 252.0, 96.0, 29.0, 80.0, 8.0, 48.0, 0.0, 0.0, 0.0, 1.7401429408928363E9, 0.0, 2025-02-21 10:02:20.892
103.0, -539708.7978969571, -559202.5588992309, -860883.3832601766, -491425.61005659227, -491693.1604377223, -491538.3969591138, -492053.7834827642, -491768.59757525893, -0.116, 0.9380000000000001, 0.262, 192.0, 0.0, 0.0, 0.0, 0.0, 0.0, 0.0, 0.0, 0.0, 0.0, 1.7401429408928628E9, 0.0, 2025-02-21 10:02:20.892
104.0, -541380.3507543028, -560420.281937156, -863408.0127964036, -491590.2306545056, -491682.2304346837, -491524.6506362737, -492047.01090419426, -491762.16027285584, -0.116, 0.9380000000000001, 0.262, 192.0, 0.0, 0.0, 0.0, 0.0, 0.0, 0.0, 0.0, 0.0, 0.0, 1.7401429408928876E9, 0.0, 2025-02-21 10:02:20.892
105.0, -570062.8244951755, -589033.018235328, -840582.5454691107, -486781.23048320186, -491686.0525829855, -491533.1666509112, -492023.60862774955, -491745.8658511479, -0.116, 0.9380000000000001, 0.262, 192.0, 0.0, 0.0, 0.0, 0.0, 0.0, 0.0, 0.0, 0.0, 0.0, 1.740142940892913E9, 0.0, 2025-02-21 10:02:20.892
106.0, -572814.234830646, -592261.8618323639, -834443.6388544607, -484835.95816325647, -491675.5919665804, -491523.9800839401, -492005.30254904064, -491727.3586067389, -0.116, 0.9380000000000001, 0.262, 192.0, 0.0, 0.0, 0.0, 0.0, 0.0, 0.0, 0.0, 0.0, 0.0, 1.7401429408929448E9, 0.0, 2025-02-21 10:02:20.892
107.0, -543764.834852795, -563315.458692963, -857192.1267738494, -491050.16780497646, -491660.16926290625, -491506.2104470981, -492016.36666254606, -491732.3877492414, -0.116, 0.9380000000000001, 0.262, 192.0, 0.0, 0.0, 0.0, 0.0, 0.0, 0.0, 0.0, 0.0, 0.0, 1.7401429413690684E9, 0.0, 2025-02-21 10:02:21.369
108.0, -538203.005576492, -557308.3826671103, -865477.7396294761, -491660.1022076729, -491648.56870753394, -491490.7206881906, -492015.36083404557, -491729.7725951401, -0.116, 0.9380000000000001, 0.262, 192.0, 0.0, 0.0, 0.0, 0.0, 0.0, 0.0, 0.0, 0.0, 0.0, 1.7401429413691342E9, 0.0, 2025-02-21 10:02:21.369
109.0, -565463.3719281402, -584397.0876213417, -844698.395693111, -488186.90934025164, -491647.4958238001, -491493.9393393921, -491990.34923200007, -491711.93590306473, -0.116, 0.9380000000000001, 0.262, 192.0, 0.0, 0.0, 0.0, 0.0, 0.0, 0.0, 0.0, 0.0, 0.0, 1.7401429413691745E9, 0.0, 2025-02-21 10:02:21.369
110.0, -575944.9095660341, -595303.487217842, -832647.7655944545, -483987.5082954775, -491634.95649516064, -491483.47872298706, -491962.85658632003, -491685.78436205204, -0.116, 0.9380000000000001, 0.262, 192.0, 0.0, 0.0, 0.0, 0.0, 0.0, 0.0, 0.0, 0.0, 0.0, 1.7401429413692014E9, 0.0, 2025-02-21 10:02:21.369
111.0, -548866.3970072743, -568441.6971733209, -852824.1488723933, -490439.69696041313, -491615.71164318465, -491462.95982157707, -491967.95278405584, -491684.5103126181, -0.116, 0.9380000000000001, 0.262, 192.0, 0.0, 0.0, 0.0, 0.0, 0.0, 0.0, 0.0, 0.0, 0.0, 1.7401429413692272E9, 0.0, 2025-02-21 10:02:21.369
112.0, -536087.8152951974, -555269.3671309194, -866569.6670496068, -491638.71158822917, -491601.6300441778, -491444.51963240147, -491969.8303305901, -491683.3033184175, -0.114, 0.9420000000000001, 0.26, 192.0, 252.0, 112.0, 29.0, 112.0, 8.0, 32.0, 0.0, 0.0, 0.0, 1.7401429413692524E9, 0.0, 2025-02-21 10:02:21.369
113.0, -560349.4716107215, -579267.0940479153, -849057.1199723625, -489381.36421219877, -491602.16648604476, -491448.34178070334, -491950.9207547809, -491670.76398977806, -0.114, 0.9420000000000001, 0.26, 192.0, 0.0, 0.0, 0.0, 0.0, 0.0, 0.0, 0.0, 0.0, 0.0, 1.7401429413693144E9, 0.0, 2025-02-21 10:02:21.369
114.0, -577733.9431922368, -597001.3257266672, -832009.2656623443, -483637.5470325407, -491598.81372437644, -491447.2018417361, -491926.0432632021, -491649.57453603443, -0.114, 0.9420000000000001, 0.26, 192.0, 0.0, 0.0, 0.0, 0.0, 0.0, 0.0, 0.0, 0.0, 0.0, 1.7401429413693497E9, 0.0, 2025-02-21 10:02:21.369
115.0, -554570.9198201799, -574167.6776609037, -848147.716897454, -489560.6699062193, -491580.30647996743, -491428.0911002268, -491927.38436786947, -491645.3500563324, -0.114, 0.9420000000000001, 0.26, 192.0, 0.0, 0.0, 0.0, 0.0, 0.0, 0.0, 0.0, 0.0, 0.0, 1.7401429413693745E9, 0.0, 2025-02-21 10:02:21.369
116.0, -535272.9600993347, -554551.6079129706, -866530.1044619208, -491601.1606575443, -491568.4377036617, -491411.5955128188, -491935.7662720402, -491649.44042556774, -0.114, 0.9420000000000001, 0.26, 192.0, 0.0, 0.0, 0.0, 0.0, 0.0, 0.0, 0.0, 0.0, 0.0, 1.7401429413693988E9, 0.0, 2025-02-21 10:02:21.369
117.0, -554996.8546625203, -573921.9872858509, -853440.9229088931, -490313.56606645184, -491567.6330408613, -491412.8695622527, -491921.61761779996, -491640.25385859655, -0.114, 0.9420000000000001, 0.26, 192.0, 0.0, 0.0, 0.0, 0.0, 0.0, 0.0, 0.0, 0.0, 0.0, 1.740142941369424E9, 0.0, 2025-02-21 10:02:21.369
118.0, -577955.4936832779, -597120.9522629919, -832680.3544378703, -483910.46183234, -491563.94500302617, -491411.997844219, -491892.113315119, -491615.6445879513, -0.114, 0.9420000000000001, 0.26, 192.0, 0.0, 0.0, 0.0, 0.0, 0.0, 0.0, 0.0, 0.0, 0.0, 1.7401429413694487E9, 0.0, 2025-02-21 10:02:21.369
119.0, -560318.3579824398, -579896.876799688, -843630.8763779255, -488426.63179953484, -491549.1928516857, -491397.0445271784, -491891.1074866185, -491609.8778378818, -0.114, 0.9420000000000001, 0.26, 192.0, 0.0, 0.0, 0.0, 0.0, 0.0, 0.0, 0.0, 0.0, 0.0, 1.7401429413694735E9, 0.0, 2025-02-21 10:02:21.369
120.0, -535916.6903396476, -555277.9502007902, -865324.9878078685, -491534.775976512, -491532.49609857757, -491376.3244600683, -491898.349451822, -491612.4259367497, -0.114, 0.9420000000000001, 0.26, 192.0, 0.0, 0.0, 0.0, 0.0, 0.0, 0.0, 0.0, 0.0, 0.0, 1.7401429413695078E9, 0.0, 2025-02-21 10:02:21.369
121.0, -549876.5170426986, -568825.2531081741, -857466.1144573826, -490916.7949458117, -491531.4232148437, -491375.720962968, -491890.0346028846, -491607.7320704141, -0.114, 0.9420000000000001, 0.26, 192.0, 0.0, 0.0, 0.0, 0.0, 0.0, 0.0, 0.0, 0.0, 0.0, 1.7401429413695407E9, 0.0, 2025-02-21 10:02:21.369
122.0, -576593.4677831492, -595671.4863385542, -834564.0700535858, -484714.25291469734, -491529.2103921426, -491377.1291228687, -491859.9938583367, -491583.7262968691, -0.12, 0.9460000000000001, 0.262, 192.0, 252.0, 64.0, 29.0, 144.0, 8.0, 48.0, 0.0, 0.0, 0.0, 1.7401429413695655E9, 0.0, 2025-02-21 10:02:21.369
123.0, -565759.4878386841, -585304.7472601829, -839546.8103345407, -487160.6960488196, -491518.3474443373, -491366.80261693033, -491855.83643386804, -491576.2831659655, -0.12, 0.9460000000000001, 0.262, 192.0, 0.0, 0.0, 0.0, 0.0, 0.0, 0.0, 0.0, 0.0, 0.0, 1.7401429413695917E9, 0.0, 2025-02-21 10:02:21.369
124.0, -538023.2975510714, -557465.0236922532, -863002.194524073, -491411.8637337523, -491498.90142666124, -491344.0038375859, -491862.67606767133, -491576.95371829916, -0.12, 0.9460000000000001, 0.262, 192.0, 0.0, 0.0, 0.0, 0.0, 0.0, 0.0, 0.0, 0.0, 0.0, 1.7401429413696165E9, 0.0, 2025-02-21 10:02:21.369
125.0, -545234.685568176, -564230.0920760742, -860951.1090458762, -491256.6979237435, -491492.53117949143, -491335.95720958203, -491855.23293676774, -491571.25402346306, -0.12, 0.9460000000000001, 0.262, 192.0, 0.0, 0.0, 0.0, 0.0, 0.0, 0.0, 0.0, 0.0, 0.0, 1.7401429413696404E9, 0.0, 2025-02-21 10:02:21.369
126.0, -573809.3344937962, -592818.1520483675, -837498.5411761453, -485878.26471069636, -491495.5486649929, -491343.2662300189, -491830.7577765892, -491554.020828488, -0.12, 0.9460000000000001, 0.262, 192.0, 0.0, 0.0, 0.0, 0.0, 0.0, 0.0, 0.0, 0.0, 0.0, 1.740142941369665E9, 0.0, 2025-02-21 10:02:21.369
127.0, -570573.5171524903, -590072.1061315663, -836143.4890202867, -485914.5415919473, -491483.47872298706, -491331.73272987996, -491817.1455642159, -491538.53106958047, -0.12, 0.9460000000000001, 0.262, 192.0, 0.0, 0.0, 0.0, 0.0, 0.0, 0.0, 0.0, 0.0, 0.0, 1.7401429413696885E9, 0.0, 2025-02-21 10:02:21.369
128.0, -541340.6540561502, -560851.0447562987, -859807.6832065205, -491183.87594030815, -491465.37380997825, -491311.6161598702, -491825.7286340867, -491540.94505798165, -0.12, 0.9460000000000001, 0.262, 192.0, 0.0, 0.0, 0.0, 0.0, 0.0, 0.0, 0.0, 0.0, 0.0, 1.7401429413697205E9, 0.0, 2025-02-21 10:02:21.369
129.0, -541309.0039860015, -560363.4190992616, -863711.370672151, -491404.5547133154, -491450.0181615375, -491293.2430259279, -491815.0668519815, -491530.35033110983, -0.12, 0.9460000000000001, 0.262, 192.0, 0.0, 0.0, 0.0, 0.0, 0.0, 0.0, 0.0, 0.0, 0.0, 1.7401429413697517E9, 0.0, 2025-02-21 10:02:21.369
130.0, -569875.0698417509, -588824.3423490933, -841204.4157033463, -487189.73096486705, -491447.73828360304, -491294.58413059526, -491787.17187490134, -491509.42909829965, -0.12, 0.9460000000000001, 0.262, 192.0, 0.0, 0.0, 0.0, 0.0, 0.0, 0.0, 0.0, 0.0, 0.0, 1.740142941369776E9, 0.0, 2025-02-21 10:02:21.369
131.0, -574659.594852876, -594080.3997612477, -833476.7023893241, -484814.9028199796, -491442.57503063383, -491290.62787182664, -491772.68794449425, -491495.4145545262, -0.12, 0.9460000000000001, 0.262, 192.0, 0.0, 0.0, 0.0, 0.0, 0.0, 0.0, 0.0, 0.0, 0.0, 1.7401429413698003E9, 0.0, 2025-02-21 10:02:21.369
132.0, -545969.6109258665, -565527.2085103046, -855671.8505229772, -490773.363801642, -491424.2689519249, -491270.9136332171, -491779.9299096978, -491496.5544934934, -0.122, 0.9480000000000001, 0.262, 192.0, 252.0, 48.0, 29.0, 160.0, 8.0, 48.0, 0.0, 0.0, 0.0, 1.740142941369825E9, 0.0, 2025-02-21 10:02:21.369
133.0, -538324.7778802846, -557447.8575525114, -865574.299165523, -491436.8082805644, -491411.3943471187, -491254.4180458091, -491778.18647363025, -491492.8664556583, -0.122, 0.9480000000000001, 0.262, 192.0, 0.0, 0.0, 0.0, 0.0, 0.0, 0.0, 0.0, 0.0, 0.0, 1.740142941369851E9, 0.0, 2025-02-21 10:02:21.369
134.0, -565065.868504747, -583989.9282443438, -845467.7874407516, -488492.88237010036, -491413.473059353, -491260.1177406452, -491758.4722350207, -491479.99185085203, -0.122, 0.9480000000000001, 0.262, 192.0, 0.0, 0.0, 0.0, 0.0, 0.0, 0.0, 0.0, 0.0, 0.0, 1.7401429413698752E9, 0.0, 2025-02-21 10:02:21.369
