%OpenBCI Raw EXG Data
%Number of channels = 8
%Sample Rate = 250 Hz
%Board = OpenBCI_GUI$BoardCytonSerial
Sample Index, EXG Channel 0, EXG Channel 1, EXG Channel 2, EXG Channel 3, EXG Channel 4, EXG Channel 5, EXG Channel 6, EXG Channel 7, Accel Channel 0, Accel Channel 1, Accel Channel 2, Not Used, Digital Channel 0 (D11), Digital Channel 1 (D12), Digital Channel 2 (D13), Digital Channel 3 (D17), Not Used, Digital Channel 4 (D18), Analog Channel 0, Analog Channel 1, Analog Channel 2, Timestamp, Marker Channel, Timestamp (Formatted)
0.0, -144255.32004300595, -161598.6867664679, -161780.85348377866, -161795.62798686363, -161746.29768685077, -161702.3765089961, -149231.39950411316, -161767.3306783832, 0.11, 0.492, 0.056, 192.0, 3.0, 112.0, 15.0, 96.0, 1.0, 192.0, 0.0, 0.0, 0.0, 1.739536747281426E9, 0.0, 2025-02-14 09:39:07.281
1.0, -144218.86434779936, -161601.21251359137, -161783.40158264656, -161798.24314096489, -161749.11400665212, -161704.9693113529, -149340.6995344996, -161769.72231503992, 0.11, 0.492, 0.056, 192.0, 0.0, 0.0, 0.0, 0.0, 0.0, 0.0, 0.0, 0.0, 0.0, 1.7395367472815084E9, 0.0, 2025-02-14 09:39:07.281
2.0, -144175.8372397229, -161600.2960920687, -161782.26164367935, -161796.9914432754, -161747.86230896262, -161703.85172413013, -149309.742368429, -161768.47061735042, 0.11, 0.492, 0.056, 192.0, 0.0, 0.0, 0.0, 0.0, 0.0, 0.0, 0.0, 0.0, 0.0, 1.7395367472815323E9, 0.0, 2025-02-14 09:39:07.281
3.0, -144247.8992638468, -161599.8937606685, -161781.70285006796, -161796.54440838628, -161747.21410837342, -161703.29293051874, -149230.72895177949, -161768.20239641695, 0.11, 0.492, 0.056, 192.0, 0.0, 0.0, 0.0, 0.0, 0.0, 0.0, 0.0, 0.0, 0.0, 1.7395367472815475E9, 0.0, 2025-02-14 09:39:07.281
4.0, -144338.2673666796, -161601.45838278037, -161783.46863787994, -161798.42195492054, -161749.04695141877, -161705.0140148418, -149299.0358828349, -161770.01288771784, 0.11, 0.492, 0.056, 192.0, 0.0, 0.0, 0.0, 0.0, 0.0, 0.0, 0.0, 0.0, 0.0, 1.739536747281562E9, 0.0, 2025-02-14 09:39:07.281
5.0, -144282.2091915857, -161602.9335979144, -161785.10031522517, -161800.05363226577, -161750.8350909752, -161706.57863695367, -149416.22607901407, -161771.689268552, 0.11, 0.492, 0.056, 192.0, 0.0, 0.0, 0.0, 0.0, 0.0, 0.0, 0.0, 0.0, 0.0, 1.7395367472815766E9, 0.0, 2025-02-14 09:39:07.281
6.0, -144192.13166143082, -161605.52640027125, -161787.53665537082, -161802.35586194467, -161753.2714311208, -161709.01497709932, -149379.6586250852, -161774.0809052087, 0.11, 0.492, 0.056, 192.0, 0.0, 0.0, 0.0, 0.0, 0.0, 0.0, 0.0, 0.0, 0.0, 1.7395367472815907E9, 0.0, 2025-02-14 09:39:07.281
7.0, -144269.33458677944, -161606.17460086045, -161787.96133851545, -161802.84760032268, -161753.5843555432, -161709.55141896624, -149280.52863842592, -161774.46088486444, 0.168, 0.726, 0.076, 192.0, 5.0, 64.0, 22.0, 176.0, 2.0, 96.0, 0.0, 0.0, 0.0, 1.7395367472816052E9, 0.0, 2025-02-14 09:39:07.281
8.0, -144398.72883543122, -161607.91803692796, -161789.68242283852, -161804.6357398791, -161755.30543986624, -161711.22779980037, -149330.998877406, -161776.07021046523, 0.168, 0.726, 0.076, 192.0, 0.0, 0.0, 0.0, 0.0, 0.0, 0.0, 0.0, 0.0, 0.0, 1.739536747281621E9, 0.0, 2025-02-14 09:39:07.281
9.0, -144387.57531494802, -161606.62163574956, -161788.54248387128, -161803.4958009119, -161754.36666659912, -161710.08786083315, -149472.19484713016, -161774.93027149801, 0.168, 0.726, 0.076, 192.0, 0.0, 0.0, 0.0, 0.0, 0.0, 0.0, 0.0, 0.0, 0.0, 1.7395367472816355E9, 0.0, 2025-02-14 09:39:07.281
10.0, -144296.29079059252, -161606.2863595827, -161788.22955944893, -161803.11582125616, -161754.00903868783, -161709.73023292187, -149496.04415846398, -161774.6396988201, 0.168, 0.726, 0.076, 192.0, 0.0, 0.0, 0.0, 0.0, 0.0, 0.0, 0.0, 0.0, 0.0, 1.73953674728165E9, 0.0, 2025-02-14 09:39:07.281
11.0, -144291.82044170148, -161607.4933537833, -161789.25773969386, -161804.18870499, -161754.9254602105, -161710.84782014464, -149396.8694683158, -161775.80198953176, 0.168, 0.726, 0.076, 192.0, 0.0, 0.0, 0.0, 0.0, 0.0, 0.0, 0.0, 0.0, 0.0, 1.7395367472816644E9, 0.0, 2025-02-14 09:39:07.281
12.0, -144402.10394884396, -161610.30967358468, -161792.05170775077, -161807.0944317692, -161757.69707652298, -161713.68649169046, -149404.44670968613, -161778.66301282204, 0.168, 0.726, 0.076, 192.0, 0.0, 0.0, 0.0, 0.0, 0.0, 0.0, 0.0, 0.0, 0.0, 1.7395367472816787E9, 0.0, 2025-02-14 09:39:07.281
13.0, -144465.2029234413, -161609.50501078428, -161791.29174843928, -161806.2897689688, -161757.16063465603, -161712.94888412344, -149548.41429572276, -161777.65718432155, 0.168, 0.726, 0.076, 192.0, 0.0, 0.0, 0.0, 0.0, 0.0, 0.0, 0.0, 0.0, 0.0, 1.7395367472816927E9, 0.0, 2025-02-14 09:39:07.281
14.0, -144400.49462324317, -161609.90734218448, -161791.7387833284, -161806.6473968801, -161757.69707652298, -161713.39591901255, -149594.59299976742, -161778.0371639773, 0.168, 0.726, 0.076, 192.0, 0.0, 0.0, 0.0, 0.0, 0.0, 0.0, 0.0, 0.0, 0.0, 1.7395367472817068E9, 0.0, 2025-02-14 09:39:07.281
15.0, -144351.1643232303, -161611.91899918547, -161793.68338509602, -161808.56964690326, -161759.4405125905, -161715.31816903572, -149479.05683267795, -161780.22763493392, 0.168, 0.726, 0.076, 192.0, 0.0, 0.0, 0.0, 0.0, 0.0, 0.0, 0.0, 0.0, 0.0, 1.7395367472818863E9, 0.0, 2025-02-14 09:39:07.281
16.0, -144434.67044051533, -161613.52832478622, -161795.24800720788, -161810.22367599295, -161760.938079469, -161716.7710324253, -149427.37959949728, -161781.90401576806, 0.168, 0.726, 0.076, 192.0, 0.0, 0.0, 0.0, 0.0, 0.0, 0.0, 0.0, 0.0, 0.0, 1.739536747281902E9, 0.0, 2025-02-14 09:39:07.281
17.0, -144500.83160410306, -161613.41656606397, -161795.18095197453, -161810.1342690151, -161761.00513470234, -161716.7710324253, -149548.61546142286, -161781.59109134568, 0.194, 0.85, 0.096, 192.0, 6.0, 16.0, 26.0, 144.0, 3.0, 0.0, 0.0, 0.0, 0.0, 1.7395367472819169E9, 0.0, 2025-02-14 09:39:07.281
18.0, -144445.4886848317, -161612.2542753523, -161793.97395777394, -161808.81551609226, -161759.99930620188, -161715.58638996916, -149630.42284612928, -161780.20528318945, 0.194, 0.85, 0.096, 192.0, 0.0, 0.0, 0.0, 0.0, 0.0, 0.0, 0.0, 0.0, 0.0, 1.7395367472819324E9, 0.0, 2025-02-14 09:39:07.281
19.0, -144382.7920416346, -161614.891781198, -161796.47735315294, -161811.3412632157, -161762.41329460303, -161718.24624755935, -149541.1499787748, -161783.13336171312, 0.194, 0.85, 0.096, 192.0, 0.0, 0.0, 0.0, 0.0, 0.0, 0.0, 0.0, 0.0, 0.0, 1.739536747281947E9, 0.0, 2025-02-14 09:39:07.281
20.0, -144458.67621406034, -161617.4398800659, -161798.98074853193, -161813.91171382807, -161764.76022777084, -161720.72729119388, -149477.26869312153, -161785.79321930328, 0.194, 0.85, 0.096, 192.0, 0.0, 0.0, 0.0, 0.0, 0.0, 0.0, 0.0, 0.0, 0.0, 1.7395367472819612E9, 0.0, 2025-02-14 09:39:07.281
21.0, -144544.73043021327, -161617.66339751048, -161799.51719039885, -161814.3811004616, -161765.36372487113, -161721.17432608298, -149590.92731367677, -161786.12849547013, 0.194, 0.85, 0.096, 192.0, 0.0, 0.0, 0.0, 0.0, 0.0, 0.0, 0.0, 0.0, 0.0, 1.7395367472819755E9, 0.0, 2025-02-14 09:39:07.281
22.0, -144524.23388054775, -161617.46223181038, -161799.24896946538, -161814.06817603926, -161765.27431789332, -161720.95080863844, -149696.22638180573, -161785.70381232546, 0.194, 0.85, 0.096, 192.0, 0.0, 0.0, 0.0, 0.0, 0.0, 0.0, 0.0, 0.0, 0.0, 1.739536747281993E9, 0.0, 2025-02-14 09:39:07.281
23.0, -144469.71797582126, -161620.21149637838, -161801.9311788, -161816.66097839607, -161767.86712025013, -161723.5212592508, -149609.03222668555, -161788.52013212684, 0.194, 0.85, 0.096, 192.0, 0.0, 0.0, 0.0, 0.0, 0.0, 0.0, 0.0, 0.0, 0.0, 1.7395367472820077E9, 0.0, 2025-02-14 09:39:07.282
24.0, -144531.40879051792, -161620.27855161173, -161801.95353054447, -161816.72803362942, -161767.71065803894, -161723.5212592508, -149503.39788238978, -161788.65424259356, 0.194, 0.85, 0.096, 192.0, 0.0, 0.0, 0.0, 0.0, 0.0, 0.0, 0.0, 0.0, 0.0, 1.7395367472820225E9, 0.0, 2025-02-14 09:39:07.282
25.0, -144619.80993983865, -161619.47388881134, -161801.17121948855, -161815.87866734012, -161766.928346983, -161722.78365168377, -149572.24125531214, -161787.89428328208, 0.194, 0.85, 0.096, 192.0, 0.0, 0.0, 0.0, 0.0, 0.0, 0.0, 0.0, 0.0, 0.0, 1.7395367472820363E9, 0.0, 2025-02-14 09:39:07.282
26.0, -144609.46108215585, -161619.92092370044, -161801.57355088874, -161816.32570222922, -161767.6436028056, -161723.27539006178, -149689.09617532446, -161788.16250421555, 0.194, 0.85, 0.096, 192.0, 0.0, 0.0, 0.0, 0.0, 0.0, 0.0, 0.0, 0.0, 0.0, 1.7395367472820508E9, 0.0, 2025-02-14 09:39:07.282
27.0, -144559.48258155378, -161620.92675220093, -161802.40056543358, -161817.26447549637, -161768.4929690949, -161724.19181158446, -149638.64828808885, -161788.98951876038, 0.20800000000000002, 0.916, 0.10200000000000001, 192.0, 6.0, 128.0, 28.0, 160.0, 3.0, 48.0, 0.0, 0.0, 0.0, 1.7395367472820652E9, 0.0, 2025-02-14 09:39:07.282
28.0, -144612.74678859077, -161624.57008654714, -161805.97684454644, -161820.7960511203, -161771.75632378535, -161727.63398023057, -149493.74192878508, -161792.67755659553, 0.20800000000000002, 0.916, 0.10200000000000001, 192.0, 0.0, 0.0, 0.0, 0.0, 0.0, 0.0, 0.0, 0.0, 0.0, 1.7395367472820807E9, 0.0, 2025-02-14 09:39:07.282
29.0, -144727.3218306687, -161623.4524993244, -161805.06042302377, -161819.96903657546, -161770.95166098495, -161726.65050347455, -149496.5806003309, -161791.87289379514, 0.20800000000000002, 0.916, 0.10200000000000001, 192.0, 0.0, 0.0, 0.0, 0.0, 0.0, 0.0, 0.0, 0.0, 0.0, 1.7395367472820952E9, 0.0, 2025-02-14 09:39:07.282
30.0, -144727.92532776896, -161621.9996359348, -161803.62991137864, -161818.4938214414, -161769.7446667844, -161725.19764008495, -149605.99238943963, -161790.15180947207, 0.20800000000000002, 0.916, 0.10200000000000001, 192.0, 0.0, 0.0, 0.0, 0.0, 0.0, 0.0, 0.0, 0.0, 0.0, 1.7395367472821417E9, 0.0, 2025-02-14 09:39:07.282
31.0, -144669.36375729606, -161622.893705713, -161804.434574179, -161819.27613249733, -161770.61638481813, -161726.11406160763, -149609.23339238565, -161791.11293448365, 0.20800000000000002, 0.916, 0.10200000000000001, 192.0, 0.0, 0.0, 0.0, 0.0, 0.0, 0.0, 0.0, 0.0, 0.0, 1.739536747282156E9, 0.0, 2025-02-14 09:39:07.282
32.0, -144682.21601035786, -161623.9442377024, -161805.37334744615, -161820.37136797566, -161771.42104761853, -161727.14224185256, -149513.90320228378, -161792.34228042868, 0.20800000000000002, 0.916, 0.10200000000000001, 192.0, 0.0, 0.0, 0.0, 0.0, 0.0, 0.0, 0.0, 0.0, 0.0, 1.7395367472821703E9, 0.0, 2025-02-14 09:39:07.282
33.0, -144783.49176448488, -161625.9558947034, -161807.3850044471, -161822.36067323218, -161773.27624240832, -161729.08684362017, -149542.58049041993, -161794.21982696294, 0.20800000000000002, 0.916, 0.10200000000000001, 192.0, 0.0, 0.0, 0.0, 0.0, 0.0, 0.0, 0.0, 0.0, 0.0, 1.7395367472821848E9, 0.0, 2025-02-14 09:39:07.282
34.0, -144791.6725029555, -161625.397101092, -161806.96032130247, -161821.91363834307, -161773.11978019713, -161728.72921570888, -149690.99607360316, -161793.72808858493, 0.20800000000000002, 0.916, 0.10200000000000001, 192.0, 0.0, 0.0, 0.0, 0.0, 0.0, 0.0, 0.0, 0.0, 0.0, 1.7395367472821991E9, 0.0, 2025-02-14 09:39:07.282
35.0, -144662.39001302602, -161626.62644703704, -161808.2790742253, -161823.16533603257, -161774.46088486444, -161729.98091339838, -149686.65983517884, -161795.1362484856, 0.20800000000000002, 0.916, 0.10200000000000001, 192.0, 0.0, 0.0, 0.0, 0.0, 0.0, 0.0, 0.0, 0.0, 0.0, 1.7395367472822137E9, 0.0, 2025-02-14 09:39:07.282
36.0, -144686.9992836713, -161629.3980633495, -161810.80482134878, -161825.691083156, -161776.76311454334, -161732.5737157552, -149571.92833088976, -161797.66199560906, 0.20800000000000002, 0.916, 0.10200000000000001, 192.0, 0.0, 0.0, 0.0, 0.0, 0.0, 0.0, 0.0, 0.0, 0.0, 1.739536747282228E9, 0.0, 2025-02-14 09:39:07.282
37.0, -144840.3322506347, -161630.18037440543, -161811.65418763808, -161826.51809770087, -161777.54542559927, -161733.4677855334, -149570.2072465667, -161798.44430666498, 0.222, 0.9460000000000001, 0.10400000000000001, 192.0, 6.0, 240.0, 29.0, 144.0, 3.0, 64.0, 0.0, 0.0, 0.0, 1.7395367472822423E9, 0.0, 2025-02-14 09:39:07.282
38.0, -144838.56646282275, -161631.2979616282, -161812.97294056095, -161827.702740157, -161779.02064073333, -161734.674779734, -149679.95431184224, -161799.7407078434, 0.222, 0.9460000000000001, 0.10400000000000001, 192.0, 0.0, 0.0, 0.0, 0.0, 0.0, 0.0, 0.0, 0.0, 0.0, 1.7395367472822576E9, 0.0, 2025-02-14 09:39:07.282
39.0, -144735.90490053952, -161630.49329882782, -161812.0341672938, -161826.83102212322, -161778.14892269956, -161733.69130297797, -149701.27787605263, -161798.82428632074, 0.222, 0.9460000000000001, 0.10400000000000001, 192.0, 0.0, 0.0, 0.0, 0.0, 0.0, 0.0, 0.0, 0.0, 0.0, 1.7395367472822719E9, 0.0, 2025-02-14 09:39:07.282
40.0, -144735.92725228396, -161632.63906629552, -161813.91171382807, -161828.90973435758, -161779.91471051154, -161735.7253117234, -149606.50647956211, -161800.6347776216, 0.222, 0.9460000000000001, 0.10400000000000001, 192.0, 0.0, 0.0, 0.0, 0.0, 0.0, 0.0, 0.0, 0.0, 0.0, 1.739536747282286E9, 0.0, 2025-02-14 09:39:07.282
41.0, -144877.48084991943, -161633.44372909592, -161814.71637662846, -161829.71439715798, -161780.65231807856, -161736.5299745238, -149597.1187468909, -161801.35003344418, 0.222, 0.9460000000000001, 0.10400000000000001, 192.0, 0.0, 0.0, 0.0, 0.0, 0.0, 0.0, 0.0, 0.0, 0.0, 1.7395367472823005E9, 0.0, 2025-02-14 09:39:07.282
42.0, -144900.9501815975, -161636.01417970826, -161817.62210340766, -161832.53071695933, -161783.64745183557, -161739.30159083626, -149704.25065806517, -161804.30046371228, 0.222, 0.9460000000000001, 0.10400000000000001, 192.0, 0.0, 0.0, 0.0, 0.0, 0.0, 0.0, 0.0, 0.0, 0.0, 1.7395367472823143E9, 0.0, 2025-02-14 09:39:07.282
43.0, -144789.95141863244, -161636.3494558751, -161817.8009173633, -161832.77658614833, -161784.07213498023, -161739.59216351417, -149756.08435345703, -161804.6357398791, 0.222, 0.9460000000000001, 0.10400000000000001, 192.0, 0.0, 0.0, 0.0, 0.0, 0.0, 0.0, 0.0, 0.0, 0.0, 1.73953674728233E9, 0.0, 2025-02-14 09:39:07.282
44.0, -144751.81934259168, -161635.6118483081, -161816.81744060726, -161831.7484059034, -161782.90984426855, -161738.54163152477, -149660.15066625483, -161803.69696661198, 0.222, 0.9460000000000001, 0.10400000000000001, 192.0, 0.0, 0.0, 0.0, 0.0, 0.0, 0.0, 0.0, 0.0, 0.0, 1.7395367472823443E9, 0.0, 2025-02-14 09:39:07.282
45.0, -144866.3943846696, -161636.39415936402, -161817.55504817428, -161832.53071695933, -161783.51334136885, -161739.2792390918, -149626.17601468277, -161804.32281545675, 0.222, 0.9460000000000001, 0.10400000000000001, 192.0, 0.0, 0.0, 0.0, 0.0, 0.0, 0.0, 0.0, 0.0, 0.0, 1.7395367472823668E9, 0.0, 2025-02-14 09:39:07.282
46.0, -144945.9665949305, -161636.68473204193, -161818.0020830634, -161832.93304835953, -161783.96037625795, -161739.65921874755, -149763.70629831628, -161804.70279511248, 0.222, 0.9460000000000001, 0.10400000000000001, 192.0, 0.0, 0.0, 0.0, 0.0, 0.0, 0.0, 0.0, 0.0, 0.0, 1.7395367472823813E9, 0.0, 2025-02-14 09:39:07.282
47.0, -144859.688861333, -161638.0034849648, -161819.36553947517, -161834.2965047713, -161785.52499836983, -161740.95561992595, -149859.70704075182, -161806.2450654799, 0.224, 0.964, 0.10400000000000001, 192.0, 7.0, 0.0, 30.0, 32.0, 3.0, 64.0, 0.0, 0.0, 0.0, 1.7395367472823973E9, 0.0, 2025-02-14 09:39:07.282
48.0, -144737.67068835147, -161640.61863906606, -161821.8912865986, -161836.86695538365, -161788.05074549327, -161743.59312577167, -149772.42347865386, -161808.8825713256, 0.224, 0.964, 0.10400000000000001, 192.0, 0.0, 0.0, 0.0, 0.0, 0.0, 0.0, 0.0, 0.0, 0.0, 1.739536747282412E9, 0.0, 2025-02-14 09:39:07.282
49.0, -144802.28958157176, -161641.64681931102, -161822.62889416562, -161837.7610251619, -161788.69894608247, -161744.50954729432, -149685.05050957805, -161809.50842017037, 0.224, 0.964, 0.10400000000000001, 192.0, 0.0, 0.0, 0.0, 0.0, 0.0, 0.0, 0.0, 0.0, 0.0, 1.7395367472824264E9, 0.0, 2025-02-14 09:39:07.282
50.0, -144929.9627459005, -161640.86450825506, -161822.02539706533, -161837.06812108375, -161788.05074549327, -161743.83899496068, -149782.81703982558, -161808.72610911445, 0.224, 0.964, 0.10400000000000001, 192.0, 0.0, 0.0, 0.0, 0.0, 0.0, 0.0, 0.0, 0.0, 0.0, 1.739536747282441E9, 0.0, 2025-02-14 09:39:07.282
51.0, -144871.42352717204, -161641.57976407764, -161823.0982807992, -161838.11865307315, -161789.19068446048, -161744.75541648336, -149889.18899168837, -161809.91075157057, 0.224, 0.964, 0.10400000000000001, 192.0, 0.0, 0.0, 0.0, 0.0, 0.0, 0.0, 0.0, 0.0, 0.0, 1.7395367472824547E9, 0.0, 2025-02-14 09:39:07.282
52.0, -144724.1702347005, -161643.0549792117, -161824.32762674423, -161839.39270250712, -161790.46473389445, -161746.0294659173, -149835.25423231773, -161811.40831844907, 0.224, 0.964, 0.10400000000000001, 192.0, 0.0, 0.0, 0.0, 0.0, 0.0, 0.0, 0.0, 0.0, 0.0, 1.7395367472824693E9, 0.0, 2025-02-14 09:39:07.282
53.0, -144744.04093552125, -161643.81493852317, -161824.70760639998, -161839.8620891407, -161790.84471355018, -161746.58825952868, -149746.36134461896, -161811.87770508262, 0.224, 0.964, 0.10400000000000001, 192.0, 0.0, 0.0, 0.0, 0.0, 0.0, 0.0, 0.0, 0.0, 0.0, 1.7395367472824836E9, 0.0, 2025-02-14 09:39:07.282
54.0, -144857.67720433202, -161643.83729026763, -161824.86406861118, -161840.01855135185, -161790.95647227246, -161746.61061127312, -149823.00547635622, -161811.67653938252, 0.224, 0.964, 0.10400000000000001, 192.0, 0.0, 0.0, 0.0, 0.0, 0.0, 0.0, 0.0, 0.0, 0.0, 1.7395367472824976E9, 0.0, 2025-02-14 09:39:07.282
55.0, -144799.80853793724, -161642.4514821114, -161823.7017778995, -161838.78920540682, -161789.99534726088, -161745.33656183918, -149959.77580067824, -161810.62600739315, 0.224, 0.964, 0.10400000000000001, 192.0, 0.0, 0.0, 0.0, 0.0, 0.0, 0.0, 0.0, 0.0, 0.0, 1.7395367472825117E9, 0.0, 2025-02-14 09:39:07.282
56.0, -144645.7379634068, -161643.83729026763, -161824.953475589, -161840.04090309632, -161791.26939669484, -161746.65531476206, -149944.2413382818, -161811.9894638049, 0.224, 0.964, 0.10400000000000001, 192.0, 0.0, 0.0, 0.0, 0.0, 0.0, 0.0, 0.0, 0.0, 0.0, 1.739536747282526E9, 0.0, 2025-02-14 09:39:07.282
57.0, -144670.59310324112, -161644.66430481247, -161825.4899174559, -161840.57734496324, -161791.64937635057, -161747.23646011789, -149825.62063045747, -161812.4812021829, 0.224, 0.974, 0.11, 192.0, 7.0, 0.0, 30.0, 112.0, 3.0, 112.0, 0.0, 0.0, 0.0, 1.7395367472825406E9, 0.0, 2025-02-14 09:39:07.282
58.0, -144827.36823885064, -161644.82076702366, -161825.66873141157, -161840.86791764115, -161791.7387833284, -161747.39292232908, -149840.77511319818, -161812.45885043847, 0.224, 0.974, 0.11, 192.0, 0.0, 0.0, 0.0, 0.0, 0.0, 0.0, 0.0, 0.0, 0.0, 1.739536747282555E9, 0.0, 2025-02-14 09:39:07.282
59.0, -144866.7520125809, -161646.8547757691, -161827.9039058571, -161843.08074034224, -161794.21982696294, -161749.60574503016, -149969.09647811612, -161814.5822661617, 0.224, 0.974, 0.11, 192.0, 0.0, 0.0, 0.0, 0.0, 0.0, 0.0, 0.0, 0.0, 0.0, 1.7395367472825694E9, 0.0, 2025-02-14 09:39:07.282
60.0, -144785.14579357457, -161647.30181065822, -161828.28388551282, -161843.41601650906, -161794.6892135965, -161750.0304281748, -149989.2577516148, -161814.91754232856, 0.224, 0.974, 0.11, 192.0, 0.0, 0.0, 0.0, 0.0, 0.0, 0.0, 0.0, 0.0, 0.0, 1.7395367472826047E9, 0.0, 2025-02-14 09:39:07.282
61.0, -144752.2663774808, -161650.69927581542, -161831.3907779921, -161846.54526073282, -161797.55023688677, -161753.182024143, -149886.35032014255, -161818.11384178567, 0.224, 0.974, 0.11, 192.0, 0.0, 0.0, 0.0, 0.0, 0.0, 0.0, 0.0, 0.0, 0.0, 1.7395367472826192E9, 0.0, 2025-02-14 09:39:07.282
62.0, -144803.13894786107, -161652.04038048274, -161832.5977721927, -161847.84166191122, -161798.62312062064, -161754.41137008803, -149896.40860514744, -161819.41024296408, 0.224, 0.974, 0.11, 192.0, 0.0, 0.0, 0.0, 0.0, 0.0, 0.0, 0.0, 0.0, 0.0, 1.7395367472826335E9, 0.0, 2025-02-14 09:39:07.282
63.0, -144789.83965991018, -161653.24737468333, -161833.9612286045, -161849.205118323, -161800.05363226577, -161755.75247475537, -150046.411162187, -161820.61723716467, 0.224, 0.974, 0.11, 192.0, 0.0, 0.0, 0.0, 0.0, 0.0, 0.0, 0.0, 0.0, 0.0, 1.7395367472826476E9, 0.0, 2025-02-14 09:39:07.282
64.0, -144661.7418124368, -161654.72258981736, -161835.5034989719, -161850.7026852015, -161801.70766135547, -161757.2723933783, -150103.6316279926, -161822.11480404317, 0.224, 0.974, 0.11, 192.0, 0.0, 0.0, 0.0, 0.0, 0.0, 0.0, 0.0, 0.0, 0.0, 1.7395367472826633E9, 0.0, 2025-02-14 09:39:07.282
65.0, -144596.25120118275, -161655.52725261776, -161836.03994083882, -161851.28383055734, -161802.0429375223, -161757.9876492009, -150015.94573449442, -161822.80770812128, 0.224, 0.974, 0.11, 192.0, 0.0, 0.0, 0.0, 0.0, 0.0, 0.0, 0.0, 0.0, 0.0, 1.7395367472826777E9, 0.0, 2025-02-14 09:39:07.282
66.0, -144697.52695530976, -161654.87905202855, -161835.3470367607, -161850.56857473476, -161801.17121948855, -161757.2723933783, -149987.648426014, -161822.15950753208, 0.224, 0.974, 0.11, 192.0, 0.0, 0.0, 0.0, 0.0, 0.0, 0.0, 0.0, 0.0, 0.0, 1.7395367472826917E9, 0.0, 2025-02-14 09:39:07.282
67.0, -144785.8163459082, -161654.11909271707, -161834.7435396604, -161850.03213286784, -161800.76888808835, -161756.5794893002, -150111.49944204086, -161821.57836217622, 0.23, 0.974, 0.116, 192.0, 7.0, 48.0, 30.0, 112.0, 3.0, 160.0, 0.0, 0.0, 0.0, 1.739536747282706E9, 0.0, 2025-02-14 09:39:07.282
68.0, -144710.42391186047, -161654.94610726193, -161835.52585071634, -161850.83679566823, -161801.685309611, -161757.40650384504, -150194.6479314146, -161822.31596974327, 0.23, 0.974, 0.116, 192.0, 0.0, 0.0, 0.0, 0.0, 0.0, 0.0, 0.0, 0.0, 0.0, 1.7395367472827208E9, 0.0, 2025-02-14 09:39:07.282
69.0, -144647.97313785233, -161655.14727296203, -161835.5482024608, -161850.79209217933, -161801.61825437765, -161757.49591082288, -150127.36918060415, -161822.4947836989, 0.23, 0.974, 0.116, 192.0, 0.0, 0.0, 0.0, 0.0, 0.0, 0.0, 0.0, 0.0, 0.0, 1.739536747282735E9, 0.0, 2025-02-14 09:39:07.282
70.0, -144750.63470013556, -161656.46602588487, -161836.8446036392, -161852.13319684664, -161802.6911381115, -161758.70290502344, -150079.4246887475, -161823.81353662178, 0.23, 0.974, 0.116, 192.0, 0.0, 0.0, 0.0, 0.0, 0.0, 0.0, 0.0, 0.0, 0.0, 1.7395367472827492E9, 0.0, 2025-02-14 09:39:07.282
71.0, -144827.32353536173, -161658.9023660305, -161839.41505425156, -161854.72599920345, -161805.37334744615, -161761.36276261363, -150190.17758252355, -161826.31693200077, 0.23, 0.974, 0.116, 192.0, 0.0, 0.0, 0.0, 0.0, 0.0, 0.0, 0.0, 0.0, 0.0, 1.7395367472827632E9, 0.0, 2025-02-14 09:39:07.282
72.0, -144735.68138309495, -161657.42715089646, -161838.0068943509, -161853.27313581386, -161804.1440015011, -161759.9322509685, -150296.3707204307, -161824.88642035561, 0.23, 0.974, 0.116, 192.0, 0.0, 0.0, 0.0, 0.0, 0.0, 0.0, 0.0, 0.0, 0.0, 1.7395367472827775E9, 0.0, 2025-02-14 09:39:07.282
73.0, -144627.11896027555, -161660.26582244228, -161840.66675194105, -161855.93299340404, -161806.692100369, -161762.6368120476, -150239.57493776976, -161827.61333317918, 0.23, 0.974, 0.116, 192.0, 0.0, 0.0, 0.0, 0.0, 0.0, 0.0, 0.0, 0.0, 0.0, 1.739536747282792E9, 0.0, 2025-02-14 09:39:07.282
74.0, -144665.8992369055, -161664.1103224886, -161844.31008628727, -161859.73278996145, -161810.178972504, -161766.30249813825, -150166.82000956775, -161831.3460745032, 0.23, 0.974, 0.116, 192.0, 0.0, 0.0, 0.0, 0.0, 0.0, 0.0, 0.0, 0.0, 0.0, 1.739536747282806E9, 0.0, 2025-02-14 09:39:07.282
75.0, -144736.57545287316, -161664.1103224886, -161844.33243803174, -161859.88925217264, -161810.15662075958, -161766.32484988272, -150259.5126938239, -161831.3460745032, 0.23, 0.974, 0.116, 192.0, 0.0, 0.0, 0.0, 0.0, 0.0, 0.0, 0.0, 0.0, 0.0, 1.7395367472828276E9, 0.0, 2025-02-14 09:39:07.282
76.0, -144655.28215828922, -161663.2609561993, -161843.63953395362, -161859.08458937224, -161809.5978271482, -161765.49783533788, -150391.07506168785, -161830.58611519172, 0.23, 0.974, 0.116, 192.0, 0.0, 0.0, 0.0, 0.0, 0.0, 0.0, 0.0, 0.0, 0.0, 1.7395367472828417E9, 0.0, 2025-02-14 09:39:07.282
77.0, -144544.0151743907, -161663.37271492157, -161843.81834790925, -161858.99518239443, -161809.6425306371, -161765.5425388268, -150363.18008460762, -161830.697873914, 0.222, 0.972, 0.116, 192.0, 6.0, 240.0, 30.0, 96.0, 3.0, 160.0, 0.0, 0.0, 0.0, 1.739536747282856E9, 0.0, 2025-02-14 09:39:07.282
78.0, -144558.94613968686, -161663.9538602774, -161844.1089205872, -161859.44221728353, -161809.8436963372, -161765.96722197143, -150270.93443524058, -161831.12255705864, 0.222, 0.972, 0.116, 192.0, 0.0, 0.0, 0.0, 0.0, 0.0, 0.0, 0.0, 0.0, 0.0, 1.7395367472828708E9, 0.0, 2025-02-14 09:39:07.282
79.0, -144664.26755956025, -161664.3114881887, -161844.6006589652, -161860.00101089492, -161810.35778645967, -161766.436608605, -150329.00426733546, -161831.52488845884, 0.222, 0.972, 0.116, 192.0, 0.0, 0.0, 0.0, 0.0, 0.0, 0.0, 0.0, 0.0, 0.0, 1.739536747282885E9, 0.0, 2025-02-14 09:39:07.282
80.0, -144657.6514432015, -161664.82557831117, -161845.31591478776, -161860.62685973966, -161811.1848010045, -161767.10716093864, -150464.5675974569, -161832.3071995148, 0.222, 0.972, 0.116, 192.0, 0.0, 0.0, 0.0, 0.0, 0.0, 0.0, 0.0, 0.0, 0.0, 1.7395367472828996E9, 0.0, 2025-02-14 09:39:07.282
81.0, -144576.20168640633, -161665.6078893671, -161845.87470839915, -161861.14094986214, -161811.85535333818, -161767.75536152784, -150456.23039677506, -161832.9106966151, 0.222, 0.972, 0.116, 192.0, 0.0, 0.0, 0.0, 0.0, 0.0, 0.0, 0.0, 0.0, 0.0, 1.739536747282914E9, 0.0, 2025-02-14 09:39:07.282
82.0, -144594.6865790709, -161666.12197948957, -161846.18763282153, -161861.54328126233, -161811.96711206046, -161768.11298943913, -150353.52413100292, -161833.31302801528, 0.222, 0.972, 0.116, 192.0, 0.0, 0.0, 0.0, 0.0, 0.0, 0.0, 0.0, 0.0, 0.0, 1.7395367472829282E9, 0.0, 2025-02-14 09:39:07.282
83.0, -144677.72330972235, -161667.21721496788, -161847.3052200443, -161862.77262720736, -161813.10705102768, -161769.27528015082, -150388.83988724233, -161834.5423739603, 0.222, 0.972, 0.116, 192.0, 0.0, 0.0, 0.0, 0.0, 0.0, 0.0, 0.0, 0.0, 0.0, 1.7395367472829423E9, 0.0, 2025-02-14 09:39:07.282
84.0, -144670.16842009645, -161667.3066219457, -161847.52873748884, -161862.99614465193, -161813.55408591678, -161769.45409410645, -150546.86672054132, -161834.76589140485, 0.222, 0.972, 0.116, 192.0, 0.0, 0.0, 0.0, 0.0, 0.0, 0.0, 0.0, 0.0, 0.0, 1.7395367472829568E9, 0.0, 2025-02-14 09:39:07.282
85.0, -144540.95298540033, -161667.7089533459, -161847.81931016676, -161863.24201384094, -161814.0011208059, -161769.7893702733, -150587.92687510574, -161834.96705710495, 0.222, 0.972, 0.116, 192.0, 0.0, 0.0, 0.0, 0.0, 0.0, 0.0, 0.0, 0.0, 0.0, 1.739536747282971E9, 0.0, 2025-02-14 09:39:07.282
86.0, -144500.07164479158, -161670.56997663618, -161850.41211252357, -161865.8571679422, -161816.3927574626, -161772.51628309683, -150500.68801649666, -161837.71632167295, 0.222, 0.972, 0.116, 192.0, 0.0, 0.0, 0.0, 0.0, 0.0, 0.0, 0.0, 0.0, 0.0, 1.7395367472829864E9, 0.0, 2025-02-14 09:39:07.282
87.0, -144601.97324776332, -161672.6039853816, -161852.37906603565, -161867.86882494317, -161818.2479522524, -161774.4832366089, -150494.94361817164, -161839.7950339073, 0.218, 0.978, 0.114, 192.0, 6.0, 208.0, 30.0, 144.0, 3.0, 144.0, 0.0, 0.0, 0.0, 1.7395367472830007E9, 0.0, 2025-02-14 09:39:07.283
88.0, -144638.45129471438, -161672.93926154845, -161852.96021139147, -161868.4052668101, -161818.8961528416, -161774.81851277573, -150629.8587477039, -161840.1526618186, 0.218, 0.978, 0.114, 192.0, 0.0, 0.0, 0.0, 0.0, 0.0, 0.0, 0.0, 0.0, 0.0, 1.7395367472830155E9, 0.0, 2025-02-14 09:39:07.283
89.0, -144511.33692399703, -161672.4475231704, -161852.37906603565, -161867.958231921, -161818.4938214414, -161774.41618137553, -150693.4271089348, -161839.63857169612, 0.218, 0.978, 0.114, 192.0, 0.0, 0.0, 0.0, 0.0, 0.0, 0.0, 0.0, 0.0, 0.0, 1.7395367472830367E9, 0.0, 2025-02-14 09:39:07.283
90.0, -144400.85225115446, -161673.0063167818, -161852.78139743584, -161868.20410111, -161818.6949871415, -161774.81851277573, -150613.43021552925, -161839.9961996074, 0.218, 0.978, 0.114, 192.0, 0.0, 0.0, 0.0, 0.0, 0.0, 0.0, 0.0, 0.0, 0.0, 1.7395367472830513E9, 0.0, 2025-02-14 09:39:07.283
91.0, -144434.11164690397, -161674.79445633822, -161854.50248175891, -161870.01459241088, -161820.37136797566, -161776.51724535433, -150594.78886065353, -161841.76198741936, 0.218, 0.978, 0.114, 192.0, 0.0, 0.0, 0.0, 0.0, 0.0, 0.0, 0.0, 0.0, 0.0, 1.7395367472830656E9, 0.0, 2025-02-14 09:39:07.283
92.0, -144463.5041908627, -161674.83915982716, -161854.77070269236, -161870.3498685777, -161820.68429239801, -161776.69605930996, -150734.06258035454, -161841.91844963055, 0.218, 0.978, 0.114, 192.0, 0.0, 0.0, 0.0, 0.0, 0.0, 0.0, 0.0, 0.0, 0.0, 1.7395367472830808E9, 0.0, 2025-02-14 09:39:07.283
93.0, -144336.59098584545, -161674.9062150605, -161854.94951664802, -161870.46162729998, -161821.0419203093, -161776.85252152116, -150804.47057538875, -161842.4101880086, 0.218, 0.978, 0.114, 192.0, 0.0, 0.0, 0.0, 0.0, 0.0, 0.0, 0.0, 0.0, 0.0, 1.7395367472830951E9, 0.0, 2025-02-14 09:39:07.283
94.0, -144218.8419960549, -161676.9178720615, -161856.58119399325, -161872.2050633675, -161822.695949399, -161778.6406610776, -150698.41154794832, -161844.22067930945, 0.218, 0.978, 0.114, 192.0, 0.0, 0.0, 0.0, 0.0, 0.0, 0.0, 0.0, 0.0, 0.0, 1.7395367472831097E9, 0.0, 2025-02-14 09:39:07.283
95.0, -144303.4657005627, -161678.0131075398, -161857.49761551592, -161873.2555953569, -161823.47826045493, -161779.71354481144, -150656.14439918334, -161844.82417640975, 0.218, 0.978, 0.114, 192.0, 0.0, 0.0, 0.0, 0.0, 0.0, 0.0, 0.0, 0.0, 0.0, 1.7395367472831235E9, 0.0, 2025-02-14 09:39:07.283
96.0, -144366.89995132686, -161677.4096104395, -161857.05058062682, -161872.6968017455, -161823.12063254364, -161779.11004771115, -150773.35694710695, -161844.33243803174, 0.218, 0.978, 0.114, 192.0, 0.0, 0.0, 0.0, 0.0, 0.0, 0.0, 0.0, 0.0, 0.0, 1.7395367472831378E9, 0.0, 2025-02-14 09:39:07.283
97.0, -144244.9935370676, -161677.9013488175, -161857.67642947155, -161873.3002988458, -161823.9476470885, -161779.60178608916, -150858.87472139296, -161845.2041560655, 0.22, 0.982, 0.114, 192.0, 6.0, 224.0, 30.0, 176.0, 3.0, 144.0, 0.0, 0.0, 0.0, 1.739536747283152E9, 0.0, 2025-02-14 09:39:07.283
98.0, -144082.74222406652, -161679.7565436073, -161859.3528103057, -161874.9990314244, -161825.445213967, -161781.32287041223, -150750.9381474183, -161846.99229562192, 0.22, 0.982, 0.114, 192.0, 0.0, 0.0, 0.0, 0.0, 0.0, 0.0, 0.0, 0.0, 0.0, 1.7395367472831776E9, 0.0, 2025-02-14 09:39:07.283
99.0, -144150.64682372176, -161680.4047441965, -161859.64338298363, -161875.37901108016, -161825.66873141157, -161781.81460879024, -150672.12589646887, -161847.1040543442, 0.22, 0.982, 0.114, 192.0, 0.0, 0.0, 0.0, 0.0, 0.0, 0.0, 0.0, 0.0, 0.0, 1.7395367472831924E9, 0.0, 2025-02-14 09:39:07.283
100.0, -144291.57457251247, -161680.18122675197, -161859.71043821698, -161875.4013628246, -161825.75813838938, -161781.68049832352, -150771.1888278948, -161846.99229562192, 0.22, 0.982, 0.114, 192.0, 0.0, 0.0, 0.0, 0.0, 0.0, 0.0, 0.0, 0.0, 0.0, 1.7395367472832067E9, 0.0, 2025-02-14 09:39:07.283
101.0, -144262.4502494872, -161681.3658692081, -161861.09624637323, -161876.72011574748, -161827.27805701233, -161782.97689950193, -150885.4062420614, -161848.28869680033, 0.22, 0.982, 0.114, 192.0, 0.0, 0.0, 0.0, 0.0, 0.0, 0.0, 0.0, 0.0, 0.0, 1.739536747283221E9, 0.0, 2025-02-14 09:39:07.283
102.0, -144124.58468968686, -161683.5116366758, -161863.10790337418, -161878.73177274846, -161829.2897140133, -161785.10031522517, -150816.6969796058, -161850.56857473476, 0.22, 0.982, 0.114, 192.0, 0.0, 0.0, 0.0, 0.0, 0.0, 0.0, 0.0, 0.0, 0.0, 1.7395367472832353E9, 0.0, 2025-02-14 09:39:07.283
103.0, -144134.24064329156, -161686.0150320548, -161865.36542956418, -161880.98929893845, -161831.43548148102, -161787.46960013744, -150701.58549566098, -161852.82610092475, 0.22, 0.982, 0.114, 192.0, 0.0, 0.0, 0.0, 0.0, 0.0, 0.0, 0.0, 0.0, 0.0, 1.7395367472832496E9, 0.0, 2025-02-14 09:39:07.283
104.0, -144270.56393272447, -161686.35030822162, -161865.74540921993, -161881.43633382756, -161831.7484059034, -161787.91663502654, -150761.59992952348, -161853.07197011376, 0.22, 0.982, 0.114, 192.0, 0.0, 0.0, 0.0, 0.0, 0.0, 0.0, 0.0, 0.0, 0.0, 1.7395367472832713E9, 0.0, 2025-02-14 09:39:07.283
105.0, -144269.24517980163, -161687.5573024222, -161867.17592086506, -161882.77743849487, -161833.3577315042, -161789.19068446048, -150890.94947468632, -161854.39072303663, 0.22, 0.982, 0.114, 192.0, 0.0, 0.0, 0.0, 0.0, 0.0, 0.0, 0.0, 0.0, 0.0, 1.7395367472832859E9, 0.0, 2025-02-14 09:39:07.283
106.0, -144168.10353614134, -161690.59713966813, -161870.08164764426, -161885.7055170185, -161836.37521700564, -161792.14111472858, -150885.38389031697, -161857.40820853808, 0.22, 0.982, 0.114, 192.0, 0.0, 0.0, 0.0, 0.0, 0.0, 0.0, 0.0, 0.0, 0.0, 1.7395367472833E9, 0.0, 2025-02-14 09:39:07.283
107.0, -144122.30481175243, -161690.35127047912, -161869.7016679885, -161885.3031856183, -161835.72701641644, -161791.78348681732, -150762.91868244632, -161857.40820853808, 0.22, 0.982, 0.114, 192.0, 6.0, 224.0, 30.0, 176.0, 3.0, 144.0, 0.0, 0.0, 0.0, 1.739536747283316E9, 0.0, 2025-02-14 09:39:07.283
108.0, -144191.10348118586, -161689.7701251233, -161869.18757786605, -161884.83379898476, -161835.19057454952, -161791.20234146147, -150763.1421998909, -161856.89411841563, 0.22, 0.982, 0.114, 192.0, 0.0, 0.0, 0.0, 0.0, 0.0, 0.0, 0.0, 0.0, 0.0, 1.739536747283331E9, 0.0, 2025-02-14 09:39:07.283
109.0, -144248.03337431353, -161689.92658733448, -161869.36639182168, -161885.12437166268, -161835.6599611831, -161791.51526588385, -150918.10684419953, -161856.89411841563, 0.22, 0.982, 0.114, 192.0, 0.0, 0.0, 0.0, 0.0, 0.0, 0.0, 0.0, 0.0, 0.0, 1.7395367472833447E9, 0.0, 2025-02-14 09:39:07.283
110.0, -144187.46014683964, -161690.6641949015, -161870.08164764426, -161885.7502205074, -161836.44227223902, -161792.20816996196, -150978.5459612067, -161857.49761551592, 0.22, 0.982, 0.114, 192.0, 0.0, 0.0, 0.0, 0.0, 0.0, 0.0, 0.0, 0.0, 0.0, 1.7395367472833593E9, 0.0, 2025-02-14 09:39:07.283
111.0, -144165.26486459552, -161690.84300885713, -161870.08164764426, -161885.77257225188, -161836.26345828339, -161792.25287345087, -150895.1739543884, -161857.56467074927, 0.22, 0.982, 0.114, 192.0, 0.0, 0.0, 0.0, 0.0, 0.0, 0.0, 0.0, 0.0, 0.0, 1.7395367472833736E9, 0.0, 2025-02-14 09:39:07.283
112.0, -144277.09064210544, -161691.04417455723, -161870.28281334435, -161886.0631449298, -161836.37521700564, -161792.47639089543, -150883.23812284926, -161857.94465040503, 0.22, 0.982, 0.114, 192.0, 0.0, 0.0, 0.0, 0.0, 0.0, 0.0, 0.0, 0.0, 0.0, 1.7395367472833877E9, 0.0, 2025-02-14 09:39:07.283
113.0, -144315.4685873352, -161691.49120944634, -161871.08747614475, -161886.73369726347, -161837.22458329494, -161793.12459148464, -150987.01727235524, -161858.77166494986, 0.22, 0.982, 0.114, 192.0, 0.0, 0.0, 0.0, 0.0, 0.0, 0.0, 0.0, 0.0, 0.0, 1.7395367472834017E9, 0.0, 2025-02-14 09:39:07.283
114.0, -144257.46581047366, -161691.08887804614, -161870.59573776674, -161886.28666237436, -161836.93401061703, -161792.69990833997, -151027.83155773062, -161858.27992657185, 0.22, 0.982, 0.114, 192.0, 0.0, 0.0, 0.0, 0.0, 0.0, 0.0, 0.0, 0.0, 0.0, 1.739536747283416E9, 0.0, 2025-02-14 09:39:07.283
115.0, -144272.82145891446, -161692.49703794683, -161871.7580284784, -161887.5160083194, -161838.0068943509, -161793.90690254056, -150950.69568761537, -161859.3528103057, 0.22, 0.982, 0.114, 192.0, 0.0, 0.0, 0.0, 0.0, 0.0, 0.0, 0.0, 0.0, 0.0, 1.73953674728343E9, 0.0, 2025-02-14 09:39:07.283
116.0, -144405.92609714583, -161696.83327637115, -161876.02721166937, -161891.718136277, -161842.07491184174, -161798.0419752648, -150926.06406522563, -161863.62199349666, 0.22, 0.982, 0.114, 192.0, 0.0, 0.0, 0.0, 0.0, 0.0, 0.0, 0.0, 0.0, 0.0, 1.7395367472834444E9, 0.0, 2025-02-14 09:39:07.283
117.0, -144493.81315634408, -161696.94503509343, -161876.27308085837, -161891.964005466, -161842.43253975303, -161798.2878444538, -151043.47777884934, -161863.68904873004, 0.222, 0.98, 0.112, 192.0, 6.0, 240.0, 30.0, 160.0, 3.0, 128.0, 0.0, 0.0, 0.0, 1.7395367472834585E9, 0.0, 2025-02-14 09:39:07.283
118.0, -144404.67439945633, -161695.08984030364, -161874.5072930464, -161890.2652728874, -161840.8455658967, -161796.65616710857, -151124.81577692222, -161861.99031615144, 0.222, 0.98, 0.112, 192.0, 0.0, 0.0, 0.0, 0.0, 0.0, 0.0, 0.0, 0.0, 0.0, 1.7395367472834735E9, 0.0, 2025-02-14 09:39:07.283
119.0, -144310.95353495522, -161695.8274478707, -161875.22254886897, -161890.8687699877, -161841.3596560192, -161797.32671944224, -151044.41655211648, -161862.63851674064, 0.222, 0.98, 0.112, 192.0, 0.0, 0.0, 0.0, 0.0, 0.0, 0.0, 0.0, 0.0, 0.0, 1.7395367472835112E9, 0.0, 2025-02-14 09:39:07.283
120.0, -144362.9213408138, -161696.8109246267, -161876.07191515827, -161891.7628397659, -161842.14196707512, -161798.22078922045, -150973.15919079294, -161863.68904873004, 0.222, 0.98, 0.112, 192.0, 0.0, 0.0, 0.0, 0.0, 0.0, 0.0, 0.0, 0.0, 0.0, 1.739536747762002E9, 0.0, 2025-02-14 09:39:07.762
121.0, -144433.30698410358, -161696.78857288224, -161876.34013609175, -161892.03106069937, -161842.43253975303, -161798.44430666498, -151048.03753471823, -161864.18078710805, 0.222, 0.98, 0.112, 192.0, 0.0, 0.0, 0.0, 0.0, 0.0, 0.0, 0.0, 0.0, 0.0, 1.739536747762058E9, 0.0, 2025-02-14 09:39:07.762
122.0, -144368.8669048389, -161696.40859322652, -161876.07191515827, -161891.67343278808, -161842.32078103075, -161798.15373398707, -151127.65444846803, -161863.93491791905, 0.222, 0.98, 0.112, 192.0, 0.0, 0.0, 0.0, 0.0, 0.0, 0.0, 0.0, 0.0, 0.0, 1.7395367477620864E9, 0.0, 2025-02-14 09:39:07.762
123.0, -144260.93033086424, -161697.39206998254, -161876.8542262142, -161892.47809558848, -161843.08074034224, -161799.00310027637, -151051.5020551088, -161864.8066359528, 0.222, 0.98, 0.112, 192.0, 0.0, 0.0, 0.0, 0.0, 0.0, 0.0, 0.0, 0.0, 0.0, 1.7395367477621045E9, 0.0, 2025-02-14 09:39:07.762
124.0, -144292.78156671306, -161699.29196826124, -161878.53060704836, -161894.33329037827, -161844.6006589652, -161800.72418459944, -150953.2214347388, -161866.66183074258, 0.222, 0.98, 0.112, 192.0, 0.0, 0.0, 0.0, 0.0, 0.0, 0.0, 0.0, 0.0, 0.0, 1.7395367477621198E9, 0.0, 2025-02-14 09:39:07.762
125.0, -144395.97957086322, -161701.19186653994, -161880.5646157938, -161896.2555404014, -161846.63466771063, -161802.62408287814, -151025.886955963, -161868.56172902128, 0.222, 0.98, 0.112, 192.0, 0.0, 0.0, 0.0, 0.0, 0.0, 0.0, 0.0, 0.0, 0.0, 1.7395367477621355E9, 0.0, 2025-02-14 09:39:07.762
126.0, -144405.12143434543, -161702.15299155153, -161881.52574080537, -161897.2613689019, -161847.79695842232, -161803.65226312308, -151155.23650112588, -161869.54520577734, 0.222, 0.98, 0.112, 192.0, 0.0, 0.0, 0.0, 0.0, 0.0, 0.0, 0.0, 0.0, 0.0, 1.7395367477621531E9, 0.0, 2025-02-14 09:39:07.762
127.0, -144319.00016295913, -161702.28710201825, -161881.6598512721, -161897.28372064637, -161847.88636540013, -161803.7416701009, -151128.7720356908, -161869.58990926624, 0.23, 0.98, 0.114, 192.0, 7.0, 48.0, 30.0, 160.0, 3.0, 144.0, 0.0, 0.0, 0.0, 1.7395367477621684E9, 0.0, 2025-02-14 09:39:07.762
128.0, -144336.59098584545, -161699.78370663925, -161878.955290193, -161894.6685665451, -161845.09239734322, -161801.0371090218, -151024.9928861848, -161866.97475516496, 0.23, 0.98, 0.114, 192.0, 0.0, 0.0, 0.0, 0.0, 0.0, 0.0, 0.0, 0.0, 0.0, 1.7395367477621844E9, 0.0, 2025-02-14 09:39:07.762
129.0, -144435.45275157128, -161701.34832875113, -161880.54226404932, -161896.30024389032, -161846.6570194551, -161802.71348985596, -151058.54285461223, -161868.69583948803, 0.23, 0.98, 0.114, 192.0, 0.0, 0.0, 0.0, 0.0, 0.0, 0.0, 0.0, 0.0, 0.0, 1.7395367477621992E9, 0.0, 2025-02-14 09:39:07.762
130.0, -144454.2505686582, -161705.23753228635, -161884.67733677357, -161900.34590963673, -161850.9038509016, -161806.82621083574, -151181.49980086088, -161872.78620872335, 0.23, 0.98, 0.114, 192.0, 0.0, 0.0, 0.0, 0.0, 0.0, 0.0, 0.0, 0.0, 0.0, 1.739536747762214E9, 0.0, 2025-02-14 09:39:07.762
131.0, -144402.34981803296, -161705.46104973092, -161884.9008542181, -161900.48002010348, -161851.12736834615, -161806.8932660691, -151176.2918444028, -161872.87561570117, 0.23, 0.98, 0.114, 192.0, 0.0, 0.0, 0.0, 0.0, 0.0, 0.0, 0.0, 0.0, 0.0, 1.7395367477622285E9, 0.0, 2025-02-14 09:39:07.762
132.0, -144423.47221654325, -161705.19282879744, -161884.4091158401, -161900.18944742554, -161850.54622299032, -161806.51328641336, -151066.72359308286, -161872.6073947677, 0.23, 0.98, 0.114, 192.0, 0.0, 0.0, 0.0, 0.0, 0.0, 0.0, 0.0, 0.0, 0.0, 1.7395367477622428E9, 0.0, 2025-02-14 09:39:07.762
133.0, -144545.75861045823, -161707.04802358724, -161886.3537176077, -161902.17875268208, -161852.46847301346, -161808.5472951588, -151087.98010205987, -161874.68610700205, 0.23, 0.98, 0.114, 192.0, 0.0, 0.0, 0.0, 0.0, 0.0, 0.0, 0.0, 0.0, 0.0, 1.7395367477622623E9, 0.0, 2025-02-14 09:39:07.762
134.0, -144604.52134663123, -161707.4727067319, -161886.9125112191, -161902.64813931563, -161853.25078406942, -161809.10608877018, -151240.8436823897, -161875.2001971245, 0.23, 0.98, 0.114, 192.0, 0.0, 0.0, 0.0, 0.0, 0.0, 0.0, 0.0, 0.0, 0.0, 1.7395367477623165E9, 0.0, 2025-02-14 09:39:07.762
135.0, -144530.76058992872, -161709.39495675504, -161888.8571129867, -161904.45863061651, -161855.19538583703, -161810.96128355997, -151283.6025695327, -161876.92128144758, 0.23, 0.98, 0.114, 192.0, 0.0, 0.0, 0.0, 0.0, 0.0, 0.0, 0.0, 0.0, 0.0, 1.739536747762339E9, 0.0, 2025-02-14 09:39:07.762
136.0, -144498.97640931327, -161709.4173084995, -161888.6559472866, -161904.34687189423, -161854.88246141464, -161810.82717309322, -151185.8360392852, -161876.83187446976, 0.23, 0.98, 0.114, 192.0, 0.0, 0.0, 0.0, 0.0, 0.0, 0.0, 0.0, 0.0, 0.0, 1.7395367477623544E9, 0.0, 2025-02-14 09:39:07.762
137.0, -144614.80314908066, -161711.85364864513, -161891.02523219888, -161906.8726190177, -161857.22939458245, -161813.30821672778, -151173.45317285697, -161879.3129181043, 0.23, 0.984, 0.11800000000000001, 192.0, 7.0, 48.0, 30.0, 192.0, 3.0, 176.0, 0.0, 0.0, 0.0, 1.7395367477623687E9, 0.0, 2025-02-14 09:39:07.762
138.0, -144706.7582257698, -161712.01011085632, -161891.4052118546, -161907.1631916956, -161857.78818819384, -161813.71054812797, -151303.9650087315, -161879.62584252667, 0.23, 0.984, 0.11800000000000001, 192.0, 0.0, 0.0, 0.0, 0.0, 0.0, 0.0, 0.0, 0.0, 0.0, 1.739536747762384E9, 0.0, 2025-02-14 09:39:07.762
139.0, -144668.06735611765, -161713.12769807907, -161892.54515082182, -161908.28077891836, -161858.92812716105, -161814.82813535072, -151367.28750077338, -161880.74342974942, 0.23, 0.984, 0.11800000000000001, 192.0, 0.0, 0.0, 0.0, 0.0, 0.0, 0.0, 0.0, 0.0, 0.0, 1.7395367477623985E9, 0.0, 2025-02-14 09:39:07.762
140.0, -144642.5863674386, -161715.04994810224, -161894.24388340043, -161910.04656673034, -161860.53745276184, -161816.5492196738, -151270.72796472645, -161882.48686581696, 0.23, 0.984, 0.11800000000000001, 192.0, 0.0, 0.0, 0.0, 0.0, 0.0, 0.0, 0.0, 0.0, 0.0, 1.7395367477624133E9, 0.0, 2025-02-14 09:39:07.762
141.0, -144736.53074938426, -161714.44645100195, -161893.5733310668, -161909.4654213745, -161859.7551417059, -161815.87866734012, -151217.15083326708, -161881.88336871666, 0.23, 0.984, 0.11800000000000001, 192.0, 0.0, 0.0, 0.0, 0.0, 0.0, 0.0, 0.0, 0.0, 0.0, 1.7395367477624273E9, 0.0, 2025-02-14 09:39:07.762
142.0, -144829.06697142925, -161714.64761670204, -161894.0650694448, -161909.8230492858, -161860.29158357283, -161816.28099874032, -151329.80362532183, -161882.24099662795, 0.23, 0.984, 0.11800000000000001, 192.0, 0.0, 0.0, 0.0, 0.0, 0.0, 0.0, 0.0, 0.0, 0.0, 1.7395367477624416E9, 0.0, 2025-02-14 09:39:07.762
143.0, -144767.3761567326, -161715.45227950244, -161894.89208398963, -161910.69476731954, -161861.29741207333, -161817.17506851853, -151416.66250427515, -161883.09036291725, 0.23, 0.984, 0.11800000000000001, 192.0, 0.0, 0.0, 0.0, 0.0, 0.0, 0.0, 0.0, 0.0, 0.0, 1.739536747762456E9, 0.0, 2025-02-14 09:39:07.762
144.0, -144668.4473357734, -161717.12866033657, -161896.23318865697, -161912.10292722023, -161862.63851674064, -161818.6949871415, -151347.88618658617, -161884.58792979576, 0.23, 0.984, 0.11800000000000001, 192.0, 0.0, 0.0, 0.0, 0.0, 0.0, 0.0, 0.0, 0.0, 0.0, 1.7395367477624705E9, 0.0, 2025-02-14 09:39:07.762
145.0, -144703.53957456822, -161717.68745394796, -161896.79198226833, -161912.72877606496, -161863.10790337418, -161819.2537807529, -151289.48107832446, -161885.2137786405, 0.23, 0.984, 0.11800000000000001, 192.0, 0.0, 0.0, 0.0, 0.0, 0.0, 0.0, 0.0, 0.0, 0.0, 1.739536747762485E9, 0.0, 2025-02-14 09:39:07.762
146.0, -144798.04275012526, -161718.46976500392, -161897.75310727992, -161913.73460456546, -161864.09138013024, -161820.12549878663, -151391.85206792975, -161886.17490365208, 0.23, 0.984, 0.11800000000000001, 192.0, 0.0, 0.0, 0.0, 0.0, 0.0, 0.0, 0.0, 0.0, 0.0, 1.739536747762499E9, 0.0, 2025-02-14 09:39:07.762
147.0, -144806.7822822073, -161720.70493944944, -161900.03298521435, -161915.94742726654, -161866.5053685314, -161822.42772846553, -151500.59330470485, -161888.4100780976, 0.224, 0.986, 0.112, 192.0, 7.0, 0.0, 30.0, 208.0, 3.0, 128.0, 0.0, 0.0, 0.0, 1.7395367477625139E9, 0.0, 2025-02-14 09:39:07.762
148.0, -144773.1205550576, -161722.00134062784, -161901.2176276705, -161917.06501448932, -161867.69001098754, -161823.5900191772, -151437.87430976325, -161889.63942404263, 0.224, 0.986, 0.112, 192.0, 0.0, 0.0, 0.0, 0.0, 0.0, 0.0, 0.0, 0.0, 0.0, 1.7395367477625377E9, 0.0, 2025-02-14 09:39:07.762
149.0, -144850.30112866178, -161721.21902957192, -161900.30120614782, -161916.08153773326, -161866.5053685314, -161822.62889416562, -151339.39252369315, -161888.7006507755, 0.224, 0.986, 0.112, 192.0, 0.0, 0.0, 0.0, 0.0, 0.0, 0.0, 0.0, 0.0, 0.0, 1.739536747762552E9, 0.0, 2025-02-14 09:39:07.762
150.0, -144995.00632226543, -161723.67772146198, -161902.8716567602, -161918.65198834563, -161869.12052263267, -161825.199344778, -151405.12900413622, -161891.2711013879, 0.224, 0.986, 0.112, 192.0, 0.0, 0.0, 0.0, 0.0, 0.0, 0.0, 0.0, 0.0, 0.0, 1.7395367477625666E9, 0.0, 2025-02-14 09:39:07.762
151.0, -145002.00241827994, -161724.41532902903, -161903.7657265384, -161919.52370637938, -161870.1487028776, -161826.11576630067, -151534.18797662115, -161892.14281942163, 0.224, 0.986, 0.112, 192.0, 0.0, 0.0, 0.0, 0.0, 0.0, 0.0, 0.0, 0.0, 0.0, 1.739536747762581E9, 0.0, 2025-02-14 09:39:07.762
152.0, -144892.5012221934, -161723.74477669536, -161903.05047071583, -161918.78609881236, -161869.41109531058, -161825.2887517558, -151502.3590925168, -161891.5169705769, 0.224, 0.986, 0.112, 192.0, 0.0, 0.0, 0.0, 0.0, 0.0, 0.0, 0.0, 0.0, 0.0, 1.7395367477625957E9, 0.0, 2025-02-14 09:39:07.762
153.0, -144906.53811771132, -161724.23651507337, -161903.34104339374, -161919.21078195702, -161869.56755752178, -161825.62402792263, -151387.47112601652, -161891.964005466, 0.224, 0.986, 0.112, 192.0, 0.0, 0.0, 0.0, 0.0, 0.0, 0.0, 0.0, 0.0, 0.0, 1.7395367477626095E9, 0.0, 2025-02-14 09:39:07.762
154.0, -145033.98776459548, -161724.92941915148, -161904.10100270523, -161919.9707412685, -161870.37222032217, -161826.3392837452, -151421.75870201096, -161892.6122060552, 0.224, 0.986, 0.112, 192.0, 0.0, 0.0, 0.0, 0.0, 0.0, 0.0, 0.0, 0.0, 0.0, 1.7395367477626238E9, 0.0, 2025-02-14 09:39:07.762
155.0, -145069.12470687923, -161727.5222215083, -161906.89497076214, -161922.69765409204, -161873.38970582365, -161829.08854831322, -151567.93911074867, -161895.2720636454, 0.224, 0.986, 0.112, 192.0, 0.0, 0.0, 0.0, 0.0, 0.0, 0.0, 0.0, 0.0, 0.0, 1.7395367477626383E9, 0.0, 2025-02-14 09:39:07.762
156.0, -144984.83627853828, -161729.31036106474, -161908.6160550852, -161924.32933143727, -161875.06608665778, -161830.8543361252, -151578.39972715377, -161896.970796224, 0.224, 0.986, 0.112, 192.0, 0.0, 0.0, 0.0, 0.0, 0.0, 0.0, 0.0, 0.0, 0.0, 1.7395367477626526E9, 0.0, 2025-02-14 09:39:07.762
157.0, -145004.01407528092, -161729.2209540869, -161908.3701858962, -161924.01640701492, -161874.66375525758, -161830.72022565844, -151478.5544846719, -161896.74727877942, 0.222, 0.982, 0.114, 192.0, 6.0, 240.0, 30.0, 176.0, 3.0, 144.0, 0.0, 0.0, 0.0, 1.7395367477626677E9, 0.0, 2025-02-14 09:39:07.762
158.0, -145146.39468746123, -161731.1208523656, -161910.24773243043, -161926.02806401587, -161876.51895004738, -161832.6424756816, -151495.29594126894, -161898.69188054703, 0.222, 0.982, 0.114, 192.0, 0.0, 0.0, 0.0, 0.0, 0.0, 0.0, 0.0, 0.0, 0.0, 1.739536747762683E9, 0.0, 2025-02-14 09:39:07.762
159.0, -145210.0301039255, -161732.2160878439, -161911.43237488656, -161927.21270647203, -161877.92710994807, -161833.73771115992, -151633.89910863628, -161899.85417125872, 0.222, 0.982, 0.114, 192.0, 0.0, 0.0, 0.0, 0.0, 0.0, 0.0, 0.0, 0.0, 0.0, 1.7395367477626972E9, 0.0, 2025-02-14 09:39:07.762
160.0, -145138.12454201275, -161732.46195703294, -161911.7229475645, -161927.45857566103, -161878.32944134827, -161834.0953390712, -151679.09433592492, -161900.21179917, 0.222, 0.982, 0.114, 192.0, 0.0, 0.0, 0.0, 0.0, 0.0, 0.0, 0.0, 0.0, 0.0, 1.739536747762712E9, 0.0, 2025-02-14 09:39:07.762
161.0, -145130.7037628536, -161732.95369541095, -161912.03587198685, -161927.81620357232, -161878.57531053727, -161834.47531872694, -151587.89921854727, -161900.5247235924, 0.222, 0.982, 0.114, 192.0, 0.0, 0.0, 0.0, 0.0, 0.0, 0.0, 0.0, 0.0, 0.0, 1.7395367477627263E9, 0.0, 2025-02-14 09:39:07.762
162.0, -145256.81230507046, -161733.69130297797, -161912.7734795539, -161928.6208663727, -161879.13410414866, -161835.1458710606, -151578.48913413158, -161901.28468290385, 0.222, 0.982, 0.114, 192.0, 0.0, 0.0, 0.0, 0.0, 0.0, 0.0, 0.0, 0.0, 0.0, 1.739536747762741E9, 0.0, 2025-02-14 09:39:07.762
163.0, -145329.6119367614, -161733.98187565588, -161913.35462490973, -161929.11260475073, -161879.7599529934, -161835.6599611831, -151706.8104990495, -161901.8211247708, 0.222, 0.982, 0.114, 192.0, 0.0, 0.0, 0.0, 0.0, 0.0, 0.0, 0.0, 0.0, 0.0, 1.7395367477627645E9, 0.0, 2025-02-14 09:39:07.762
164.0, -145263.31666270693, -161732.2160878439, -161911.61118884222, -161927.23505821647, -161878.08357215926, -161833.91652511555, -151771.5635027365, -161899.98828172544, 0.222, 0.982, 0.114, 192.0, 0.0, 0.0, 0.0, 0.0, 0.0, 0.0, 0.0, 0.0, 0.0, 1.7395367477627792E9, 0.0, 2025-02-14 09:39:07.762
165.0, -145246.95518576566, -161733.80306170025, -161913.04170048735, -161928.68792160606, -161879.4023250821, -161835.39174024962, -151710.99027526265, -161901.30703464831, 0.222, 0.982, 0.114, 192.0, 0.0, 0.0, 0.0, 0.0, 0.0, 0.0, 0.0, 0.0, 0.0, 1.7395367477627938E9, 0.0, 2025-02-14 09:39:07.762
166.0, -145393.82849858148, -161734.674779734, -161913.68990107655, -161929.53728789536, -161880.0505256713, -161836.26345828339, -151711.23614445166, -161901.88818000414, 0.222, 0.982, 0.114, 192.0, 0.0, 0.0, 0.0, 0.0, 0.0, 0.0, 0.0, 0.0, 0.0, 1.739536747762808E9, 0.0, 2025-02-14 09:39:07.762
167.0, -145500.58043010003, -161736.46291929044, -161915.63450284416, -161931.54894489635, -161882.03983092785, -161838.18570830653, -151863.093896281, -161903.69867130503, 0.23, 0.982, 0.116, 192.0, 7.0, 48.0, 30.0, 176.0, 3.0, 160.0, 0.0, 0.0, 0.0, 1.7395367477628224E9, 0.0, 2025-02-14 09:39:07.762
168.0, -145424.74096116316, -161738.89925943606, -161918.16024996762, -161934.00763678644, -161884.7667437514, -161840.66675194105, -151976.84192381406, -161906.2244184285, 0.23, 0.982, 0.116, 192.0, 0.0, 0.0, 0.0, 0.0, 0.0, 0.0, 0.0, 0.0, 0.0, 1.739536747762838E9, 0.0, 2025-02-14 09:39:07.762
169.0, -145331.91416644029, -161740.06155014772, -161919.09902323474, -161934.9240583091, -161885.6161100407, -161841.5608217193, -151912.91593467188, -161907.18554344005, 0.23, 0.982, 0.116, 192.0, 0.0, 0.0, 0.0, 0.0, 0.0, 0.0, 0.0, 0.0, 0.0, 1.739536747762852E9, 0.0, 2025-02-14 09:39:07.762
170.0, -145399.90817307332, -161739.59216351417, -161918.54022962335, -161934.5217269089, -161884.78909549586, -161840.93497287453, -151837.1882244573, -161906.55969459531, 0.23, 0.982, 0.116, 192.0, 0.0, 0.0, 0.0, 0.0, 0.0, 0.0, 0.0, 0.0, 0.0, 1.7395367477628672E9, 0.0, 2025-02-14 09:39:07.762
171.0, -145529.32477346956, -161742.40848331555, -161921.33419768026, -161937.38275019918, -161887.73952576393, -161843.77364442035, -151927.57867903457, -161909.35366265223, 0.23, 0.982, 0.116, 192.0, 0.0, 0.0, 0.0, 0.0, 0.0, 0.0, 0.0, 0.0, 0.0, 1.739536747762902E9, 0.0, 2025-02-14 09:39:07.762
172.0, -145519.6911716093, -161743.5260705383, -161922.45178490304, -161938.43328218858, -161889.14768566462, -161844.98063862094, -152031.35782854055, -161910.49360161944, 0.23, 0.982, 0.116, 192.0, 0.0, 0.0, 0.0, 0.0, 0.0, 0.0, 0.0, 0.0, 0.0, 1.7395367477629166E9, 0.0, 2025-02-14 09:39:07.762
173.0, -145462.1801331258, -161742.74375948237, -161921.73652908046, -161937.62861938818, -161888.34302286422, -161844.17597582054, -151960.27928117267, -161909.64423533014, 0.23, 0.982, 0.116, 192.0, 0.0, 0.0, 0.0, 0.0, 0.0, 0.0, 0.0, 0.0, 0.0, 1.739536747762931E9, 0.0, 2025-02-14 09:39:07.762
174.0, -145528.2071862468, -161743.05668390475, -161922.00475001393, -161937.98624729947, -161888.4547815865, -161844.44419675402, -151843.5361198826, -161910.0242149859, 0.23, 0.982, 0.116, 192.0, 0.0, 0.0, 0.0, 0.0, 0.0, 0.0, 0.0, 0.0, 0.0, 1.7395367477629457E9, 0.0, 2025-02-14 09:39:07.762
175.0, -145648.0795917606, -161742.1179106376, -161921.20008721354, -161937.20393624355, -161887.7171740195, -161843.59483046472, -151879.8577046225, -161909.2195521855, 0.23, 0.982, 0.116, 192.0, 0.0, 0.0, 0.0, 0.0, 0.0, 0.0, 0.0, 0.0, 0.0, 1.73953674776296E9, 0.0, 2025-02-14 09:39:07.762
176.0, -145609.54518431964, -161742.0285036598, -161921.20008721354, -161937.09217752126, -161887.9630432085, -161843.706589187, -151969.95758652184, -161909.35366265223, 0.23, 0.982, 0.116, 192.0, 0.0, 0.0, 0.0, 0.0, 0.0, 0.0, 0.0, 0.0, 0.0, 1.7395367477629745E9, 0.0, 2025-02-14 09:39:07.762
177.0, -145493.65138931887, -161743.43666356048, -161922.54119188085, -161938.41093044414, -161889.2594443869, -161845.0029903654, -151903.59525723403, -161910.94063650855, 0.23, 0.988, 0.112, 192.0, 7.0, 48.0, 30.0, 224.0, 3.0, 128.0, 0.0, 0.0, 0.0, 1.7395367477629888E9, 0.0, 2025-02-14 09:39:07.762
178.0, -145510.32579068255, -161745.0236374168, -161924.17286922608, -161939.99790430046, -161890.6676042876, -161846.6570194551, -151776.39147953887, -161912.66172083162, 0.23, 0.988, 0.112, 192.0, 0.0, 0.0, 0.0, 0.0, 0.0, 0.0, 0.0, 0.0, 0.0, 1.7395367477630124E9, 0.0, 2025-02-14 09:39:07.763
179.0, -145659.09900177707, -161748.04112291828, -161927.25740996093, -161943.1271485242, -161893.68508978907, -161849.69685670102, -151797.51387804913, -161915.723909822, 0.23, 0.988, 0.112, 192.0, 0.0, 0.0, 0.0, 0.0, 0.0, 0.0, 0.0, 0.0, 0.0, 1.7395367477630272E9, 0.0, 2025-02-14 09:39:07.763
180.0, -145713.48079603683, -161749.4716345634, -161928.73262509497, -161944.6694188916, -161895.4061741121, -161851.3061823018, -151915.5087370287, -161917.33323542276, 0.23, 0.988, 0.112, 192.0, 0.0, 0.0, 0.0, 0.0, 0.0, 0.0, 0.0, 0.0, 0.0, 1.739536747763042E9, 0.0, 2025-02-14 09:39:07.763
181.0, -145637.35075442205, -161748.71167525192, -161928.01736927242, -161943.9765148135, -161894.78032526738, -161850.52387124585, -151916.46986204028, -161916.59562785574, 0.23, 0.988, 0.112, 192.0, 0.0, 0.0, 0.0, 0.0, 0.0, 0.0, 0.0, 0.0, 0.0, 1.7395367477630565E9, 0.0, 2025-02-14 09:39:07.763
182.0, -145634.3779724095, -161748.8234339742, -161928.03972101686, -161943.9765148135, -161894.6238630562, -161850.4568160125, -151806.2310583867, -161916.59562785574, 0.23, 0.988, 0.112, 192.0, 0.0, 0.0, 0.0, 0.0, 0.0, 0.0, 0.0, 0.0, 0.0, 1.7395367477630708E9, 0.0, 2025-02-14 09:39:07.763
183.0, -145751.9481482444, -161749.80691073023, -161929.00084602844, -161945.00469505845, -161895.6073398122, -161851.46264451297, -151815.37292186893, -161917.57910461177, 0.23, 0.988, 0.112, 192.0, 0.0, 0.0, 0.0, 0.0, 0.0, 0.0, 0.0, 0.0, 0.0, 1.739536747763086E9, 0.0, 2025-02-14 09:39:07.763
184.0, -145815.09182633064, -161750.1198351526, -161929.2690669619, -161945.3176194808, -161896.14378167913, -161851.93203114654, -151966.9177492759, -161917.80262205633, 0.23, 0.988, 0.112, 192.0, 0.0, 0.0, 0.0, 0.0, 0.0, 0.0, 0.0, 0.0, 0.0, 1.7395367477631116E9, 0.0, 2025-02-14 09:39:07.763
185.0, -145757.5584361027, -161748.80108222977, -161928.01736927242, -161944.08827353577, -161894.93678747854, -161850.61327822367, -152021.94774412486, -161916.46151738902, 0.23, 0.988, 0.112, 192.0, 0.0, 0.0, 0.0, 0.0, 0.0, 0.0, 0.0, 0.0, 0.0, 1.7395367477631264E9, 0.0, 2025-02-14 09:39:07.763
186.0, -145714.77719721524, -161751.0362566753, -161929.96197104003, -161946.0775787923, -161896.79198226833, -161852.6025834802, -151928.1598243904, -161918.58493311226, 0.23, 0.988, 0.112, 192.0, 0.0, 0.0, 0.0, 0.0, 0.0, 0.0, 0.0, 0.0, 0.0, 1.739536747763241E9, 0.0, 2025-02-14 09:39:07.763
187.0, -145813.75072166332, -161751.61740203112, -161930.54311639586, -161946.74813112596, -161897.28372064637, -161853.22843232495, -151918.3027050856, -161919.16607846812, 0.222, 0.988, 0.10400000000000001, 192.0, 6.0, 240.0, 30.0, 224.0, 3.0, 64.0, 0.0, 0.0, 0.0, 1.7395367477632568E9, 0.0, 2025-02-14 09:39:07.763
188.0, -145883.84579227518, -161751.95267819797, -161931.12426175168, -161947.19516601507, -161897.8648660022, -161853.76487419187, -152057.86699746456, -161919.59076161275, 0.222, 0.988, 0.10400000000000001, 192.0, 0.0, 0.0, 0.0, 0.0, 0.0, 0.0, 0.0, 0.0, 0.0, 1.7395367477632728E9, 0.0, 2025-02-14 09:39:07.763
189.0, -145805.68174191497, -161754.6348875326, -161933.82882283078, -161949.94443058307, -161900.68118580358, -161856.44708352652, -152147.5645479637, -161922.16121222512, 0.222, 0.988, 0.10400000000000001, 192.0, 0.0, 0.0, 0.0, 0.0, 0.0, 0.0, 0.0, 0.0, 0.0, 1.7395367477632878E9, 0.0, 2025-02-14 09:39:07.763
190.0, -145707.84815643408, -161757.25004163387, -161936.4663286765, -161952.3807707287, -161903.1622294381, -161859.01753413887, -152056.6376515195, -161924.91047679313, 0.222, 0.988, 0.10400000000000001, 192.0, 0.0, 0.0, 0.0, 0.0, 0.0, 0.0, 0.0, 0.0, 0.0, 1.739536747763302E9, 0.0, 2025-02-14 09:39:07.763
191.0, -145775.59629387813, -161756.0206956888, -161935.14757575365, -161951.15142478366, -161901.68701430404, -161857.63172598265, -152005.80978462813, -161923.68113084807, 0.222, 0.988, 0.10400000000000001, 192.0, 0.0, 0.0, 0.0, 0.0, 0.0, 0.0, 0.0, 0.0, 0.0, 1.7395367477633166E9, 0.0, 2025-02-14 09:39:07.763
192.0, -145898.6873505935, -161756.6912480225, -161935.95223855405, -161952.0231428174, -161902.5587323378, -161858.5034440164, -152112.96404754688, -161924.53049713737, 0.222, 0.988, 0.10400000000000001, 192.0, 0.0, 0.0, 0.0, 0.0, 0.0, 0.0, 0.0, 0.0, 0.0, 1.7395367477633312E9, 0.0, 2025-02-14 09:39:07.763
193.0, -145912.09839726667, -161757.25004163387, -161936.71219786553, -161952.64899166216, -161903.3633951382, -161859.17399635006, -152193.63149328608, -161925.24575295995, 0.222, 0.988, 0.10400000000000001, 192.0, 0.0, 0.0, 0.0, 0.0, 0.0, 0.0, 0.0, 0.0, 0.0, 1.7395367477633555E9, 0.0, 2025-02-14 09:39:07.763
194.0, -145884.85162077568, -161757.4288555895, -161936.73454960997, -161952.6713434066, -161903.38574688265, -161859.08458937224, -152114.5957248921, -161925.26810470442, 0.222, 0.988, 0.10400000000000001, 192.0, 0.0, 0.0, 0.0, 0.0, 0.0, 0.0, 0.0, 0.0, 0.0, 1.73953674776337E9, 0.0, 2025-02-14 09:39:07.763
195.0, -145978.2595608544, -161758.74760851238, -161937.9191920661, -161953.94539284057, -161904.4139271276, -161860.31393531727, -152045.19355835838, -161926.43039541607, 0.222, 0.988, 0.10400000000000001, 192.0, 0.0, 0.0, 0.0, 0.0, 0.0, 0.0, 0.0, 0.0, 0.0, 1.7395367477633843E9, 0.0, 2025-02-14 09:39:07.763
196.0, -146139.6838593106, -161759.3287538682, -161938.54504091086, -161954.6159451742, -161905.218589928, -161861.05154288432, -152158.40514402452, -161926.96683728302, 0.222, 0.988, 0.10400000000000001, 192.0, 0.0, 0.0, 0.0, 0.0, 0.0, 0.0, 0.0, 0.0, 0.0, 1.7395367477633991E9, 0.0, 2025-02-14 09:39:07.763
197.0, -146169.97047304755, -161760.06636143522, -161939.48381417798, -161955.48766320798, -161906.24677017293, -161861.92326091806, -152308.72062548646, -161927.63738961666, 0.22, 0.984, 0.11, 192.0, 6.0, 224.0, 30.0, 192.0, 3.0, 112.0, 0.0, 0.0, 0.0, 1.7395367477634137E9, 0.0, 2025-02-14 09:39:07.763
198.0, -146094.5780389998, -161762.90503298104, -161942.18837525707, -161958.21457603152, -161908.92897950756, -161864.6501737416, -152288.87227641014, -161930.43135767357, 0.22, 0.984, 0.11, 192.0, 0.0, 0.0, 0.0, 0.0, 0.0, 0.0, 0.0, 0.0, 0.0, 1.7395367477634287E9, 0.0, 2025-02-14 09:39:07.763
199.0, -146124.99876320348, -161763.10619868114, -161942.3671892127, -161958.34868649827, -161909.0183864854, -161864.8066359528, -152200.2252579004, -161930.67722686258, 0.22, 0.984, 0.11, 192.0, 0.0, 0.0, 0.0, 0.0, 0.0, 0.0, 0.0, 0.0, 0.0, 1.7395367477634432E9, 0.0, 2025-02-14 09:39:07.763
200.0, -146230.85662494382, -161764.11202718163, -161943.35066596876, -161959.39921848767, -161909.97951149696, -161865.87951968666, -152267.50400871088, -161931.63835187416, 0.22, 0.984, 0.11, 192.0, 0.0, 0.0, 0.0, 0.0, 0.0, 0.0, 0.0, 0.0, 0.0, 1.7395367477634575E9, 0.0, 2025-02-14 09:39:07.763
201.0, -146218.25024107101, -161764.71552428193, -161944.04357004687, -161960.15917779913, -161910.85122953073, -161866.57242376477, -152402.28502777638, -161932.33125595227, 0.22, 0.984, 0.11, 192.0, 0.0, 0.0, 0.0, 0.0, 0.0, 0.0, 0.0, 0.0, 0.0, 1.739536747763472E9, 0.0, 2025-02-14 09:39:07.763
202.0, -146116.23687937701, -161765.27431789332, -161944.53530842488, -161960.6732679216, -161911.43237488656, -161867.13121737615, -152383.2636932449, -161932.93475305257, 0.22, 0.984, 0.11, 192.0, 0.0, 0.0, 0.0, 0.0, 0.0, 0.0, 0.0, 0.0, 0.0, 1.739536747763487E9, 0.0, 2025-02-14 09:39:07.763
203.0, -146137.91807149866, -161766.74953302735, -161945.78700611438, -161962.0367243334, -161912.63936908715, -161868.4052668101, -152289.20755257696, -161934.29820946435, 0.22, 0.984, 0.11, 192.0, 0.0, 0.0, 0.0, 0.0, 0.0, 0.0, 0.0, 0.0, 0.0, 1.739536747763502E9, 0.0, 2025-02-14 09:39:07.763
204.0, -146268.56401783993, -161766.54836732725, -161945.65289564765, -161961.94731735557, -161912.4158516426, -161868.2488045989, -152326.98200070646, -161934.16409899763, 0.22, 0.984, 0.11, 192.0, 0.0, 0.0, 0.0, 0.0, 0.0, 0.0, 0.0, 0.0, 0.0, 1.739536747763516E9, 0.0, 2025-02-14 09:39:07.763
205.0, -146302.4269106897, -161766.10133243815, -161945.29526773636, -161961.56733769982, -161912.1699824536, -161867.91352843208, -152455.75040051347, -161933.82882283078, 0.22, 0.984, 0.11, 192.0, 0.0, 0.0, 0.0, 0.0, 0.0, 0.0, 0.0, 0.0, 0.0, 1.7395367477635305E9, 0.0, 2025-02-14 09:39:07.763
206.0, -146208.7507496775, -161767.6436028056, -161946.83753810378, -161963.0202010894, -161913.77930805436, -161869.4557987995, -152457.49383658098, -161935.4157966871, 0.22, 0.984, 0.11, 192.0, 0.0, 0.0, 0.0, 0.0, 0.0, 0.0, 0.0, 0.0, 0.0, 1.7395367477635455E9, 0.0, 2025-02-14 09:39:07.763
207.0, -146207.38729326575, -161769.29763189526, -161948.24569800447, -161964.40600924563, -161915.09806097724, -161870.93101393356, -152350.83131204025, -161936.95806705454, 0.226, 0.974, 0.112, 192.0, 7.0, 16.0, 30.0, 112.0, 3.0, 128.0, 0.0, 0.0, 0.0, 1.7395367477635684E9, 0.0, 2025-02-14 09:39:07.763
208.0, -146348.292690312, -161769.65525980655, -161948.53627068238, -161964.7859889014, -161915.3215784218, -161871.22158661147, -152359.68260284455, -161937.13688101017, 0.226, 0.974, 0.112, 192.0, 0.0, 0.0, 0.0, 0.0, 0.0, 0.0, 0.0, 0.0, 0.0, 1.7395367477635837E9, 0.0, 2025-02-14 09:39:07.763
209.0, -146449.09905780543, -161771.82337901872, -161951.0173143169, -161967.2893842804, -161917.95908426752, -161873.5014645459, -152518.82702336635, -161939.34970371125, 0.226, 0.974, 0.112, 192.0, 0.0, 0.0, 0.0, 0.0, 0.0, 0.0, 0.0, 0.0, 0.0, 1.739536747763598E9, 0.0, 2025-02-14 09:39:07.763
210.0, -146367.02345216554, -161771.26458540733, -161950.54792768336, -161966.6858871801, -161917.60145635623, -161873.0097261679, -152565.09513438883, -161939.08148277778, 0.226, 0.974, 0.112, 192.0, 0.0, 0.0, 0.0, 0.0, 0.0, 0.0, 0.0, 0.0, 0.0, 1.7395367477636123E9, 0.0, 2025-02-14 09:39:07.763
211.0, -146314.42979746222, -161772.89626275256, -161952.0678463063, -161968.11639882522, -161918.96491276802, -161874.5519965353, -152451.50356906696, -161940.75786361194, 0.226, 0.974, 0.112, 192.0, 0.0, 0.0, 0.0, 0.0, 0.0, 0.0, 0.0, 0.0, 0.0, 1.7395367477636263E9, 0.0, 2025-02-14 09:39:07.763
212.0, -146409.26824918608, -161772.7398005414, -161951.84432886177, -161968.04934359185, -161918.62963660117, -161874.5072930464, -152420.65816171863, -161940.60140140075, 0.226, 0.974, 0.112, 192.0, 0.0, 0.0, 0.0, 0.0, 0.0, 0.0, 0.0, 0.0, 0.0, 1.7395367477636409E9, 0.0, 2025-02-14 09:39:07.763
213.0, -146479.5197820091, -161774.01384997534, -161953.29719225137, -161969.50220698144, -161920.06014824632, -161875.93780469155, -152544.53152948996, -161941.98720955697, 0.226, 0.974, 0.112, 192.0, 0.0, 0.0, 0.0, 0.0, 0.0, 0.0, 0.0, 0.0, 0.0, 1.739536747763655E9, 0.0, 2025-02-14 09:39:07.763
214.0, -146411.9057550318, -161775.37730638712, -161954.6159451742, -161970.7762564154, -161921.53536338036, -161877.2118541255, -152611.94439076717, -161943.23890724647, 0.226, 0.974, 0.112, 192.0, 0.0, 0.0, 0.0, 0.0, 0.0, 0.0, 0.0, 0.0, 0.0, 1.7395367477636693E9, 0.0, 2025-02-14 09:39:07.763
215.0, -146378.4451935822, -161775.98080348741, -161955.06298006332, -161971.22329130452, -161921.98239826947, -161877.7482959924, -152522.96209609057, -161943.6635903911, 0.226, 0.974, 0.112, 192.0, 0.0, 0.0, 0.0, 0.0, 0.0, 0.0, 0.0, 0.0, 0.0, 1.7395367477636836E9, 0.0, 2025-02-14 09:39:07.763
216.0, -146484.63833148938, -161777.54542559927, -161956.5828986863, -161972.76556167193, -161923.39055817015, -161879.3576215932, -152476.96220600157, -161945.13880552517, 0.226, 0.974, 0.112, 192.0, 0.0, 0.0, 0.0, 0.0, 0.0, 0.0, 0.0, 0.0, 0.0, 1.7395367477636979E9, 0.0, 2025-02-14 09:39:07.763
217.0, -146582.42721348134, -161776.31607965424, -161955.5323666969, -161971.67032619362, -161922.31767443632, -161878.17297913707, -152597.52751559348, -161943.90945958014, 0.228, 0.98, 0.112, 192.0, 7.0, 32.0, 30.0, 160.0, 3.0, 128.0, 0.0, 0.0, 0.0, 1.739536747763712E9, 0.0, 2025-02-14 09:39:07.763
218.0, -146553.01231777816, -161777.47837036592, -161956.64995391967, -161972.8326169053, -161923.63642735916, -161879.29056635985, -152719.99272346412, -161944.95999156954, 0.228, 0.98, 0.112, 192.0, 0.0, 0.0, 0.0, 0.0, 0.0, 0.0, 0.0, 0.0, 0.0, 1.7395367477637267E9, 0.0, 2025-02-14 09:39:07.763
219.0, -146496.8870874509, -161777.94775699946, -161956.8734713642, -161973.0784860943, -161923.88229654817, -161879.53643554886, -152667.5778827164, -161945.29526773636, 0.228, 0.98, 0.112, 192.0, 0.0, 0.0, 0.0, 0.0, 0.0, 0.0, 0.0, 0.0, 0.0, 1.7395367477637503E9, 0.0, 2025-02-14 09:39:07.763
220.0, -146598.92280088936, -161779.44532387797, -161958.41574173162, -161974.59840471725, -161925.13399423767, -161881.0116506829, -152616.01240825802, -161946.7257793815, 0.228, 0.98, 0.112, 192.0, 0.0, 0.0, 0.0, 0.0, 0.0, 0.0, 0.0, 0.0, 0.0, 1.7395367477637649E9, 0.0, 2025-02-14 09:39:07.763
221.0, -146716.2918110242, -161778.6853645665, -161957.8792998647, -161973.95020412805, -161924.66460760412, -161880.47520881597, -152721.04325545352, -161946.1669857701, 0.228, 0.98, 0.112, 192.0, 0.0, 0.0, 0.0, 0.0, 0.0, 0.0, 0.0, 0.0, 0.0, 1.7395367477637796E9, 0.0, 2025-02-14 09:39:07.763
222.0, -146692.68836887938, -161779.95941400045, -161959.19805278757, -161975.24660530646, -161926.25158146044, -161881.8163134833, -152857.34419314197, -161947.39633171516, 0.228, 0.98, 0.112, 192.0, 0.0, 0.0, 0.0, 0.0, 0.0, 0.0, 0.0, 0.0, 0.0, 1.7395367477638032E9, 0.0, 2025-02-14 09:39:07.763
223.0, -146622.7497604787, -161781.00994598985, -161960.0697708213, -161976.20773031804, -161927.10094774974, -161882.7103832615, -152842.50263482364, -161948.22334626, 0.228, 0.98, 0.112, 192.0, 0.0, 0.0, 0.0, 0.0, 0.0, 0.0, 0.0, 0.0, 0.0, 1.739536747763818E9, 0.0, 2025-02-14 09:39:07.763
224.0, -146719.01872384772, -161780.09352446717, -161958.99688708747, -161975.31366053983, -161925.89395354915, -161881.7492582499, -152783.85165737293, -161947.0610555483, 0.228, 0.98, 0.112, 192.0, 0.0, 0.0, 0.0, 0.0, 0.0, 0.0, 0.0, 0.0, 0.0, 1.7395367477638323E9, 0.0, 2025-02-14 09:39:07.763
225.0, -146890.00956893084, -161780.62996633412, -161959.7344946545, -161975.91715764013, -161926.49745064945, -161882.3080518613, -152882.579312632, -161947.5304421819, 0.228, 0.98, 0.112, 192.0, 0.0, 0.0, 0.0, 0.0, 0.0, 0.0, 0.0, 0.0, 0.0, 1.7395367477638464E9, 0.0, 2025-02-14 09:39:07.763
226.0, -146910.79669127427, -161783.80391404676, -161962.8860906227, -161979.15816058614, -161929.96197104003, -161885.6161100407, -153039.71207615282, -161950.65968640562, 0.228, 0.98, 0.112, 192.0, 0.0, 0.0, 0.0, 0.0, 0.0, 0.0, 0.0, 0.0, 0.0, 1.7395367477638612E9, 0.0, 2025-02-14 09:39:07.763
227.0, -146835.78423688226, -161782.39575414607, -161961.2767650219, -161977.5935384743, -161928.46440416152, -161884.07383967328, -153042.5283959542, -161949.1174160382, 0.224, 0.984, 0.114, 192.0, 7.0, 0.0, 30.0, 192.0, 3.0, 144.0, 0.0, 0.0, 0.0, 1.739536747763876E9, 0.0, 2025-02-14 09:39:07.763
228.0, -146865.0650221187, -161783.55804485775, -161962.3720005002, -161978.59936697475, -161929.31377045083, -161885.0126129404, -152943.1972435948, -161950.1679480276, 0.224, 0.984, 0.114, 192.0, 0.0, 0.0, 0.0, 0.0, 0.0, 0.0, 0.0, 0.0, 0.0, 1.739536747763891E9, 0.0, 2025-02-14 09:39:07.763
229.0, -146998.3931777946, -161784.07213498023, -161962.84138713378, -161979.0911053528, -161929.69375010655, -161885.6161100407, -152974.8026102546, -161950.63733466118, 0.224, 0.984, 0.114, 192.0, 0.0, 0.0, 0.0, 0.0, 0.0, 0.0, 0.0, 0.0, 0.0, 1.739536747763906E9, 0.0, 2025-02-14 09:39:07.763
230.0, -147019.76144549387, -161785.56970185874, -161964.49541622348, -161980.67807920912, -161931.54894489635, -161887.24778738592, -153112.15407993246, -161952.24666026197, 0.224, 0.984, 0.114, 192.0, 0.0, 0.0, 0.0, 0.0, 0.0, 0.0, 0.0, 0.0, 0.0, 1.7395367477639213E9, 0.0, 2025-02-14 09:39:07.763
231.0, -146917.90454601104, -161786.21790244794, -161965.1883203016, -161981.37098328723, -161932.33125595227, -161887.9630432085, -153130.61662085255, -161953.00661957345, 0.224, 0.984, 0.114, 192.0, 0.0, 0.0, 0.0, 0.0, 0.0, 0.0, 0.0, 0.0, 0.0, 1.7395367477639415E9, 0.0, 2025-02-14 09:39:07.763
232.0, -146902.30302838125, -161787.02256524834, -161965.85887263523, -161982.1309425987, -161932.8229943303, -161888.67829903107, -153032.8277388606, -161953.78893062938, 0.224, 0.984, 0.114, 192.0, 0.0, 0.0, 0.0, 0.0, 0.0, 0.0, 0.0, 0.0, 0.0, 1.7395367477639568E9, 0.0, 2025-02-14 09:39:07.763
233.0, -147019.13559664914, -161788.09544898217, -161966.84234939129, -161983.1814745881, -161933.89587806416, -161889.6617757871, -153049.45743673533, -161954.7724073854, 0.224, 0.984, 0.114, 192.0, 0.0, 0.0, 0.0, 0.0, 0.0, 0.0, 0.0, 0.0, 0.0, 1.7395367477639713E9, 0.0, 2025-02-14 09:39:07.763
234.0, -147064.6661001046, -161788.67659433803, -161967.5799569583, -161983.91908215513, -161934.74524435346, -161890.37703160968, -153204.28797057725, -161955.4206079746, 0.224, 0.984, 0.114, 192.0, 0.0, 0.0, 0.0, 0.0, 0.0, 0.0, 0.0, 0.0, 0.0, 1.7395367477639856E9, 0.0, 2025-02-14 09:39:07.763
235.0, -146965.4914099564, -161789.50360888286, -161968.45167499204, -161984.67904146662, -161935.63931413167, -161891.13699092116, -153271.85729406564, -161956.20291903056, 0.224, 0.984, 0.114, 192.0, 0.0, 0.0, 0.0, 0.0, 0.0, 0.0, 0.0, 0.0, 0.0, 1.7395367477640002E9, 0.0, 2025-02-14 09:39:07.764
236.0, -146919.7373890564, -161791.62702460613, -161970.50803548194, -161986.71305021204, -161937.58391589927, -161893.14864792212, -153184.3055110342, -161958.39338998718, 0.224, 0.984, 0.114, 192.0, 0.0, 0.0, 0.0, 0.0, 0.0, 0.0, 0.0, 0.0, 0.0, 1.7395367477640145E9, 0.0, 2025-02-14 09:39:07.764
237.0, -146973.85096238268, -161793.01283276235, -161972.0279541049, -161988.30002406836, -161938.90266882215, -161894.60151131172, -153131.55539411967, -161960.20388128803, 0.224, 0.982, 0.112, 192.0, 7.0, 0.0, 30.0, 176.0, 3.0, 128.0, 0.0, 0.0, 0.0, 1.7395367477641108E9, 0.0, 2025-02-14 09:39:07.764
238.0, -147006.03747439833, -161794.64451010758, -161973.74903842795, -161990.04346013587, -161940.713160123, -161896.34494737923, -153227.8243574887, -161961.90261386664, 0.224, 0.982, 0.112, 192.0, 0.0, 0.0, 0.0, 0.0, 0.0, 0.0, 0.0, 0.0, 0.0, 1.7395367477641268E9, 0.0, 2025-02-14 09:39:07.764
239.0, -146929.43804615, -161794.59980661867, -161973.7266866835, -161989.97640490253, -161940.9143258231, -161896.3225956348, -153288.8222681072, -161961.90261386664, 0.224, 0.982, 0.112, 192.0, 0.0, 0.0, 0.0, 0.0, 0.0, 0.0, 0.0, 0.0, 0.0, 1.7395367477641428E9, 0.0, 2025-02-14 09:39:07.764
240.0, -146881.89588569355, -161794.64451010758, -161973.61492796123, -161989.93170141362, -161940.713160123, -161896.1661334236, -153188.55234248072, -161961.76850339992, 0.224, 0.982, 0.112, 192.0, 0.0, 0.0, 0.0, 0.0, 0.0, 0.0, 0.0, 0.0, 0.0, 1.7395367477641575E9, 0.0, 2025-02-14 09:39:07.764
241.0, -146989.36307303465, -161794.9350827855, -161973.70433493904, -161989.99875664696, -161940.6237531452, -161896.23318865697, -153137.56801337816, -161961.74615165548, 0.224, 0.982, 0.112, 192.0, 0.0, 0.0, 0.0, 0.0, 0.0, 0.0, 0.0, 0.0, 0.0, 1.7395367482426991E9, 0.0, 2025-02-14 09:39:08.242
242.0, -147085.58733291476, -161796.32089094174, -161975.20190181755, -161991.51867526994, -161942.23307874598, -161897.84251425773, -153254.71350606842, -161963.3331255118, 0.224, 0.982, 0.112, 192.0, 0.0, 0.0, 0.0, 0.0, 0.0, 0.0, 0.0, 0.0, 0.0, 1.7395367482427542E9, 0.0, 2025-02-14 09:39:08.242
243.0, -147036.72641953547, -161797.70669909797, -161976.744172185, -161992.94918691507, -161943.84240434677, -161899.42948811408, -153369.1991411685, -161964.69658192358, 0.224, 0.982, 0.112, 192.0, 0.0, 0.0, 0.0, 0.0, 0.0, 0.0, 0.0, 0.0, 0.0, 1.739536748242781E9, 0.0, 2025-02-14 09:39:08.242
244.0, -146969.1347443026, -161797.39377467558, -161976.27478555142, -161992.54685551487, -161943.3730177132, -161899.00480496942, -153309.51998347283, -161964.29425052338, 0.224, 0.982, 0.112, 192.0, 0.0, 0.0, 0.0, 0.0, 0.0, 0.0, 0.0, 0.0, 0.0, 1.7395367482428117E9, 0.0, 2025-02-14 09:39:08.242
245.0, -147062.5650361258, -161798.10903049816, -161976.8782826517, -161993.23975959298, -161943.7753491134, -161899.54124683634, -153234.3734186141, -161964.85304413474, 0.224, 0.982, 0.112, 192.0, 0.0, 0.0, 0.0, 0.0, 0.0, 0.0, 0.0, 0.0, 0.0, 1.7395367482428393E9, 0.0, 2025-02-14 09:39:08.242
246.0, -147191.95928477758, -161799.02545202084, -161978.17468383012, -161994.44675379357, -161945.0270468029, -161900.70353754802, -153322.52869874582, -161966.06003833533, 0.224, 0.982, 0.112, 192.0, 0.0, 0.0, 0.0, 0.0, 0.0, 0.0, 0.0, 0.0, 0.0, 1.7395367482428625E9, 0.0, 2025-02-14 09:39:08.242
247.0, -147167.99821472148, -161801.01475727736, -161980.16398908664, -161996.48076253902, -161947.23986950397, -161902.78224978235, -153443.69750543803, -161968.1387505697, 0.224, 0.978, 0.108, 192.0, 7.0, 0.0, 30.0, 144.0, 3.0, 96.0, 0.0, 0.0, 0.0, 1.7395367482428765E9, 0.0, 2025-02-14 09:39:08.242
248.0, -147082.43573694656, -161802.19939973348, -161981.1921693316, -161997.35248057276, -161948.29040149337, -161903.89983700513, -153410.30399922183, -161969.09987558125, 0.224, 0.978, 0.108, 192.0, 0.0, 0.0, 0.0, 0.0, 0.0, 0.0, 0.0, 0.0, 0.0, 1.7395367482428913E9, 0.0, 2025-02-14 09:39:08.242
249.0, -147109.7272169265, -161802.95935904497, -161981.75096294296, -161998.02303290644, -161948.75978812692, -161904.54803759433, -153313.7891666638, -161969.77042791492, 0.224, 0.978, 0.108, 192.0, 0.0, 0.0, 0.0, 0.0, 0.0, 0.0, 0.0, 0.0, 0.0, 1.739536748242905E9, 0.0, 2025-02-14 09:39:08.242
250.0, -147183.37621490672, -161803.65226312308, -161982.51092225444, -161998.85004745127, -161949.5197474384, -161905.218589928, -153358.58206255222, -161970.70920118204, 0.224, 0.978, 0.108, 192.0, 0.0, 0.0, 0.0, 0.0, 0.0, 0.0, 0.0, 0.0, 0.0, 1.7395367482429185E9, 0.0, 2025-02-14 09:39:08.242
251.0, -147147.83694122278, -161803.71931835645, -161982.6897362101, -161999.00650966246, -161949.98913407198, -161905.4197556281, -153478.16389538813, -161970.99977385995, 0.224, 0.978, 0.108, 192.0, 0.0, 0.0, 0.0, 0.0, 0.0, 0.0, 0.0, 0.0, 0.0, 1.739536748242932E9, 0.0, 2025-02-14 09:39:08.242
252.0, -147019.18030013805, -161803.16052474506, -161982.1309425987, -161998.3359573288, -161949.3632852272, -161904.88331376115, -153454.24752882094, -161970.5303872264, 0.224, 0.978, 0.108, 192.0, 0.0, 0.0, 0.0, 0.0, 0.0, 0.0, 0.0, 0.0, 0.0, 1.73953674824299E9, 0.0, 2025-02-14 09:39:08.242
253.0, -147039.0957044477, -161803.87578056764, -161982.75679144345, -161999.00650966246, -161949.7656166274, -161905.44210737254, -153351.38480083764, -161971.06682909332, 0.224, 0.978, 0.108, 192.0, 0.0, 0.0, 0.0, 0.0, 0.0, 0.0, 0.0, 0.0, 0.0, 1.7395367482430038E9, 0.0, 2025-02-14 09:39:08.243
254.0, -147160.95741521806, -161805.30629221277, -161984.20965483304, -162000.57113177434, -161951.26318350591, -161906.93967425104, -153378.76568779539, -161972.60909946074, 0.224, 0.978, 0.108, 192.0, 0.0, 0.0, 0.0, 0.0, 0.0, 0.0, 0.0, 0.0, 0.0, 1.7395367482430174E9, 0.0, 2025-02-14 09:39:08.243
255.0, -147196.42963366862, -161805.2392369794, -161984.32141355533, -162000.6381870077, -161951.59845967276, -161907.0290812289, -153522.82268080983, -161972.6314512052, 0.224, 0.978, 0.108, 192.0, 0.0, 0.0, 0.0, 0.0, 0.0, 0.0, 0.0, 0.0, 0.0, 1.739536748243031E9, 0.0, 2025-02-14 09:39:08.243
0.0, -147110.95656287152, -161805.50745791287, -161984.41082053314, -162000.8393527078, -161951.7325701395, -161907.25259867343, -153554.04806781388, -161972.8773203942, 0.224, 0.978, 0.108, 192.0, 0.0, 0.0, 0.0, 0.0, 0.0, 0.0, 0.0, 0.0, 0.0, 1.7395367482430449E9, 0.0, 2025-02-14 09:39:08.243
1.0, -147069.9187600516, -161808.16731550306, -161986.91421591214, -162003.29804459788, -161954.1242067962, -161909.75599405242, -153443.89867113813, -161975.47012275102, 0.222, 0.982, 0.106, 192.0, 6.0, 240.0, 30.0, 176.0, 3.0, 80.0, 0.0, 0.0, 0.0, 1.739536748243058E9, 0.0, 2025-02-14 09:39:08.243
2.0, -147200.07296801484, -161809.46371668146, -161988.14356185717, -162004.46033530956, -161955.26414576342, -161910.962988253, -153456.9744416445, -161976.47595125152, 0.222, 0.982, 0.106, 192.0, 0.0, 0.0, 0.0, 0.0, 0.0, 0.0, 0.0, 0.0, 0.0, 1.7395367482430727E9, 0.0, 2025-02-14 09:39:08.243
3.0, -147273.83372471735, -161809.21784749246, -161988.09885836826, -162004.37092833174, -161955.28649750788, -161910.82887778626, -153607.73695799554, -161976.25243380695, 0.222, 0.982, 0.106, 192.0, 0.0, 0.0, 0.0, 0.0, 0.0, 0.0, 0.0, 0.0, 0.0, 1.7395367482430873E9, 0.0, 2025-02-14 09:39:08.243
4.0, -147198.62010462524, -161809.7319376149, -161988.59059674627, -162004.86266670976, -161955.91234635262, -161911.3206161643, -153672.93699657166, -161976.744172185, 0.222, 0.982, 0.106, 192.0, 0.0, 0.0, 0.0, 0.0, 0.0, 0.0, 0.0, 0.0, 0.0, 1.739536748243101E9, 0.0, 2025-02-14 09:39:08.243
5.0, -147153.80485699236, -161811.2295044934, -161989.95405315806, -162006.24847486598, -161957.20874753103, -161912.70642432052, -153580.87016116027, -161978.17468383012, 0.222, 0.982, 0.106, 192.0, 0.0, 0.0, 0.0, 0.0, 0.0, 0.0, 0.0, 0.0, 0.0, 1.7395367482431152E9, 0.0, 2025-02-14 09:39:08.243
6.0, -147273.5655037839, -161812.90588532758, -161991.71984097004, -162007.94720744458, -161958.7733696429, -161914.33810166575, -153555.00919282547, -161979.80636117535, 0.222, 0.982, 0.106, 192.0, 0.0, 0.0, 0.0, 0.0, 0.0, 0.0, 0.0, 0.0, 0.0, 1.739536748243129E9, 0.0, 2025-02-14 09:39:08.243
7.0, -147354.76939139003, -161814.51521092837, -161993.44092529308, -162009.7800504899, -161960.74032315498, -161916.12624122217, -153683.97875833258, -161981.59450073176, 0.222, 0.982, 0.106, 192.0, 0.0, 0.0, 0.0, 0.0, 0.0, 0.0, 0.0, 0.0, 0.0, 1.7395367482431428E9, 0.0, 2025-02-14 09:39:08.243
8.0, -147288.65293129123, -161814.9845975619, -161993.93266367112, -162010.27178886795, -161961.45557897753, -161916.5732761113, -153775.21857919917, -161982.10859085424, 0.222, 0.982, 0.106, 192.0, 0.0, 0.0, 0.0, 0.0, 0.0, 0.0, 0.0, 0.0, 0.0, 1.739536748243156E9, 0.0, 2025-02-14 09:39:08.243
9.0, -147221.19536652512, -161814.80578360628, -161993.53033227092, -162009.86945746775, -161960.986192344, -161916.28270343336, -153700.74256667407, -161981.75096294296, 0.222, 0.982, 0.106, 192.0, 0.0, 0.0, 0.0, 0.0, 0.0, 0.0, 0.0, 0.0, 0.0, 1.7395367482431695E9, 0.0, 2025-02-14 09:39:08.243
10.0, -147297.95125698464, -161815.72220512896, -161994.44675379357, -162010.8305824793, -161961.6790964221, -161917.2214767005, -153644.6620398357, -161982.60032923226, 0.222, 0.982, 0.106, 192.0, 0.0, 0.0, 0.0, 0.0, 0.0, 0.0, 0.0, 0.0, 0.0, 1.7395367482431831E9, 0.0, 2025-02-14 09:39:08.243
11.0, -147391.02392089652, -161813.9340655725, -161992.74802121497, -162009.10949815626, -161959.95801209903, -161915.5674476108, -153752.77742776604, -161980.8792449092, 0.218, 0.982, 0.1, 192.0, 6.0, 208.0, 30.0, 176.0, 3.0, 32.0, 0.0, 0.0, 0.0, 1.7395367482432067E9, 0.0, 2025-02-14 09:39:08.243
12.0, -147338.31850747092, -161814.11287952817, -161992.97153865953, -162009.3330156008, -161960.44975047707, -161915.85802028872, -153862.94917618623, -161981.2368728205, 0.218, 0.982, 0.1, 192.0, 0.0, 0.0, 0.0, 0.0, 0.0, 0.0, 0.0, 0.0, 0.0, 1.7395367482432227E9, 0.0, 2025-02-14 09:39:08.243
13.0, -147246.38578252625, -161817.66680689657, -161996.41370730565, -162012.79753599138, -161963.86956737872, -161919.23313370146, -153796.38568119833, -161984.67904146662, 0.218, 0.982, 0.1, 192.0, 0.0, 0.0, 0.0, 0.0, 0.0, 0.0, 0.0, 0.0, 0.0, 1.7395367482432363E9, 0.0, 2025-02-14 09:39:08.243
14.0, -147301.3710738863, -161819.0526150528, -161997.77716371743, -162014.20569589207, -161965.00950634593, -161920.50718313543, -153700.00495910706, -161986.10955311175, 0.218, 0.982, 0.1, 192.0, 0.0, 0.0, 0.0, 0.0, 0.0, 0.0, 0.0, 0.0, 0.0, 1.73953674824325E9, 0.0, 2025-02-14 09:39:08.243
15.0, -147422.85280500088, -161816.92919932952, -161995.5866927608, -162012.10463191327, -161962.8860906227, -161918.36141566772, -153775.10682047688, -161983.94143389957, 0.218, 0.982, 0.1, 192.0, 0.0, 0.0, 0.0, 0.0, 0.0, 0.0, 0.0, 0.0, 0.0, 1.7395367482432632E9, 0.0, 2025-02-14 09:39:08.243
16.0, -147399.62934251182, -161816.77273711836, -161995.47493403853, -162011.92581795764, -161962.99784934497, -161918.24965694544, -153902.60117084996, -161983.7849716884, 0.218, 0.982, 0.1, 192.0, 0.0, 0.0, 0.0, 0.0, 0.0, 0.0, 0.0, 0.0, 0.0, 1.7395367482432773E9, 0.0, 2025-02-14 09:39:08.243
17.0, -147310.08825422387, -161816.90684758508, -161995.56434101635, -162011.97052144655, -161963.0202010894, -161918.38376741216, -153865.58668203195, -161983.91908215513, 0.218, 0.982, 0.1, 192.0, 0.0, 0.0, 0.0, 0.0, 0.0, 0.0, 0.0, 0.0, 0.0, 1.739536748243291E9, 0.0, 2025-02-14 09:39:08.243
18.0, -147375.35534803336, -161819.2984842418, -161997.88892243968, -162014.4292133366, -161965.1883203016, -161920.75305232443, -153770.27884367455, -161986.3330705563, 0.218, 0.982, 0.1, 192.0, 0.0, 0.0, 0.0, 0.0, 0.0, 0.0, 0.0, 0.0, 0.0, 1.739536748243304E9, 0.0, 2025-02-14 09:39:08.243
19.0, -147479.20155277272, -161820.7960511203, -161999.54295152938, -162015.9938354485, -161966.81999764682, -161922.36237792522, -153805.92987608074, -161987.987099646, 0.218, 0.982, 0.1, 192.0, 0.0, 0.0, 0.0, 0.0, 0.0, 0.0, 0.0, 0.0, 0.0, 1.739536748243318E9, 0.0, 2025-02-14 09:39:08.243
20.0, -147465.94696831072, -161820.93016158702, -161999.69941374057, -162016.10559417077, -161967.24468079148, -161922.60824711423, -153920.46021466973, -161988.16591360164, 0.218, 0.982, 0.1, 192.0, 0.0, 0.0, 0.0, 0.0, 0.0, 0.0, 0.0, 0.0, 0.0, 1.739536748243332E9, 0.0, 2025-02-14 09:39:08.243
21.0, -147374.66244395525, -161822.62889416562, -162001.487553297, -162017.82667849382, -161968.988116859, -161924.32933143727, -153904.41166215084, -161989.90934966915, 0.222, 0.986, 0.1, 192.0, 6.0, 240.0, 30.0, 208.0, 3.0, 32.0, 0.0, 0.0, 0.0, 1.7395367482433455E9, 0.0, 2025-02-14 09:39:08.243
22.0, -147398.6011622669, -161822.38302497662, -162000.95111143007, -162017.51375407146, -161968.49637848098, -161923.88229654817, -153793.39054744132, -161989.46231478004, 0.222, 0.986, 0.1, 192.0, 0.0, 0.0, 0.0, 0.0, 0.0, 0.0, 0.0, 0.0, 0.0, 1.7395367482433596E9, 0.0, 2025-02-14 09:39:08.243
23.0, -147530.0294196641, -161822.18185927652, -162000.86170445225, -162017.31258837137, -161968.1834540586, -161923.61407561472, -153811.69662615022, -161989.21644559104, 0.222, 0.986, 0.1, 192.0, 0.0, 0.0, 0.0, 0.0, 0.0, 0.0, 0.0, 0.0, 0.0, 1.7395367482433736E9, 0.0, 2025-02-14 09:39:08.243
24.0, -147529.09064639697, -161824.93112384452, -162003.81213472036, -162020.21831515056, -161971.2903465379, -161926.60920937173, -153927.590421151, -161992.39039330368, 0.222, 0.986, 0.1, 192.0, 0.0, 0.0, 0.0, 0.0, 0.0, 0.0, 0.0, 0.0, 0.0, 1.7395367482433867E9, 0.0, 2025-02-14 09:39:08.243
25.0, -147413.62153454084, -161827.56862969024, -162006.31553009935, -162022.81111750737, -161973.95020412805, -161929.15730823964, -153934.72062763222, -161995.05025089387, 0.222, 0.986, 0.1, 192.0, 0.0, 0.0, 0.0, 0.0, 0.0, 0.0, 0.0, 0.0, 0.0, 1.7395367482434103E9, 0.0, 2025-02-14 09:39:08.243
26.0, -147400.32224658993, -161828.194478535, -162006.71786149955, -162023.25815239648, -161974.240776806, -161929.62669487318, -153822.8054431445, -161995.54198927188, 0.222, 0.986, 0.1, 192.0, 0.0, 0.0, 0.0, 0.0, 0.0, 0.0, 0.0, 0.0, 0.0, 1.739536748243425E9, 0.0, 2025-02-14 09:39:08.243
27.0, -147525.40260856182, -161828.61916167964, -162007.12019289975, -162023.7498907745, -161974.59840471725, -161930.07372976228, -153799.13494576633, -161996.03372764992, 0.222, 0.986, 0.1, 192.0, 0.0, 0.0, 0.0, 0.0, 0.0, 0.0, 0.0, 0.0, 0.0, 1.7395367482434392E9, 0.0, 2025-02-14 09:39:08.243
28.0, -147600.8844495874, -161827.52392620133, -162006.22612312154, -162022.9005244852, -161973.74903842795, -161929.09025300626, -153922.829499582, -161994.89378868268, 0.222, 0.986, 0.1, 192.0, 0.0, 0.0, 0.0, 0.0, 0.0, 0.0, 0.0, 0.0, 0.0, 1.739536748243454E9, 0.0, 2025-02-14 09:39:08.243
29.0, -147567.64740558236, -161830.02732158033, -162008.66246326716, -162025.22510590852, -161976.36419252923, -161931.52659315188, -153992.0528521601, -161997.01720440594, 0.222, 0.986, 0.1, 192.0, 0.0, 0.0, 0.0, 0.0, 0.0, 0.0, 0.0, 0.0, 0.0, 1.739536748243468E9, 0.0, 2025-02-14 09:39:08.243
30.0, -147547.39672510585, -161831.36842624765, -162009.82475397884, -162026.36504487577, -161977.41472451863, -161932.73358735247, -153900.58951384897, -161998.26890209544, 0.222, 0.986, 0.1, 192.0, 0.0, 0.0, 0.0, 0.0, 0.0, 0.0, 0.0, 0.0, 0.0, 1.7395367482434828E9, 0.0, 2025-02-14 09:39:08.243
31.0, -147627.86300514496, -161830.02732158033, -162008.50600105597, -162025.0909954418, -161975.91715764013, -161931.48188966297, -153839.39043753035, -161997.06190789485, 0.23, 0.988, 0.096, 192.0, 7.0, 48.0, 30.0, 224.0, 3.0, 0.0, 0.0, 0.0, 0.0, 1.7395367482434976E9, 0.0, 2025-02-14 09:39:08.243
32.0, -147698.47216587927, -161831.43548148102, -162010.07062316785, -162026.5885623203, -161977.5935384743, -161933.0688635193, -153929.7808921076, -161998.64888175117, 0.23, 0.988, 0.096, 192.0, 0.0, 0.0, 0.0, 0.0, 0.0, 0.0, 0.0, 0.0, 0.0, 1.7395367482435129E9, 0.0, 2025-02-14 09:39:08.243
33.0, -147633.56269998106, -161831.88251637013, -162010.56236154586, -162027.05794895388, -161978.26409080793, -161933.4711949195, -154004.0110354437, -161999.14062012918, 0.23, 0.988, 0.096, 192.0, 0.0, 0.0, 0.0, 0.0, 0.0, 0.0, 0.0, 0.0, 0.0, 1.7395367482435265E9, 0.0, 2025-02-14 09:39:08.243
34.0, -147564.22758868072, -161832.1954407925, -162010.71882375705, -162027.21441116507, -161978.37584953022, -161933.73941585296, -153912.570048877, -161999.43119280713, 0.23, 0.988, 0.096, 192.0, 0.0, 0.0, 0.0, 0.0, 0.0, 0.0, 0.0, 0.0, 0.0, 1.7395367482435403E9, 0.0, 2025-02-14 09:39:08.243
35.0, -147670.68894752132, -161834.58707744922, -162013.02105343595, -162029.62839956622, -161980.54396874236, -161936.08634902077, -153849.89575742432, -162001.64401550818, 0.23, 0.988, 0.096, 192.0, 0.0, 0.0, 0.0, 0.0, 0.0, 0.0, 0.0, 0.0, 0.0, 1.739536748243554E9, 0.0, 2025-02-14 09:39:08.243
36.0, -147784.57108552114, -161836.48697572792, -162015.1891726481, -162031.72946354502, -161982.55562574335, -161937.96389555503, -153944.4436364703, -162003.65567250917, 0.23, 0.988, 0.096, 192.0, 0.0, 0.0, 0.0, 0.0, 0.0, 0.0, 0.0, 0.0, 0.0, 1.739536748243568E9, 0.0, 2025-02-14 09:39:08.243
37.0, -147751.19993104934, -161837.26928678385, -162015.9938354485, -162032.53412634542, -161983.51675075493, -161938.81326184433, -154042.18781497335, -162004.4379835651, 0.23, 0.988, 0.096, 192.0, 0.0, 0.0, 0.0, 0.0, 0.0, 0.0, 0.0, 0.0, 0.0, 1.7395367482435813E9, 0.0, 2025-02-14 09:39:08.243
38.0, -147668.2973108646, -161837.06812108375, -162015.6809110261, -162032.13179494522, -161983.1814745881, -161938.5226891664, -153974.37262229595, -162004.19211437608, 0.23, 0.988, 0.096, 192.0, 0.0, 0.0, 0.0, 0.0, 0.0, 0.0, 0.0, 0.0, 0.0, 1.7395367482435946E9, 0.0, 2025-02-14 09:39:08.243
39.0, -147709.84920380704, -161836.68814142802, -162015.21152439257, -162031.6400565672, -161982.60032923226, -161938.14270951066, -153878.84126649395, -162003.85683820926, 0.23, 0.988, 0.096, 192.0, 0.0, 0.0, 0.0, 0.0, 0.0, 0.0, 0.0, 0.0, 0.0, 1.739536748243608E9, 0.0, 2025-02-14 09:39:08.243
40.0, -147808.77802476622, -161836.7104931725, -162015.3456348593, -162031.7518152895, -161982.75679144345, -161938.25446823295, -153945.7847411376, -162003.8344864648, 0.23, 0.988, 0.096, 192.0, 0.0, 0.0, 0.0, 0.0, 0.0, 0.0, 0.0, 0.0, 0.0, 1.73953674824365E9, 0.0, 2025-02-14 09:39:08.243
41.0, -147792.34949259157, -161838.34217051772, -162017.06671918236, -162033.4505478681, -161984.56728274433, -161939.975552556, -154073.79318163314, -162005.39910857668, 0.228, 0.988, 0.1, 192.0, 7.0, 32.0, 30.0, 224.0, 3.0, 32.0, 0.0, 0.0, 0.0, 1.7395367482436638E9, 0.0, 2025-02-14 09:39:08.243
42.0, -147726.0095150482, -161838.54333621782, -162017.1337744157, -162033.56230659038, -161984.7908001889, -161940.08731127827, -154050.97205054428, -162005.46616381005, 0.228, 0.988, 0.1, 192.0, 0.0, 0.0, 0.0, 0.0, 0.0, 0.0, 0.0, 0.0, 0.0, 1.7395367482436779E9, 0.0, 2025-02-14 09:39:08.243
43.0, -147742.54980594513, -161839.39270250712, -162017.96078896057, -162034.41167287968, -161985.50605601145, -161940.93667756757, -153934.36299972094, -162006.47199231054, 0.228, 0.988, 0.1, 192.0, 0.0, 0.0, 0.0, 0.0, 0.0, 0.0, 0.0, 0.0, 0.0, 1.7395367482436912E9, 0.0, 2025-02-14 09:39:08.243
44.0, -147861.90812133648, -161840.13031007414, -162018.7431000165, -162035.32809440233, -161986.35542230075, -161941.7636921124, -153969.11996234895, -162007.25430336647, 0.228, 0.988, 0.1, 192.0, 0.0, 0.0, 0.0, 0.0, 0.0, 0.0, 0.0, 0.0, 0.0, 1.7395367482437055E9, 0.0, 2025-02-14 09:39:08.243
45.0, -147866.66904290547, -161841.06908334125, -162019.72657677252, -162036.33392290282, -161987.54006475687, -161942.74716886846, -154092.41218476443, -162008.26013186696, 0.228, 0.988, 0.1, 192.0, 0.0, 0.0, 0.0, 0.0, 0.0, 0.0, 0.0, 0.0, 0.0, 1.739536748243719E9, 0.0, 2025-02-14 09:39:08.243
46.0, -147779.09490812957, -161841.13613857463, -162019.6818732836, -162036.33392290282, -161987.54006475687, -161942.7695206129, -154080.7669259032, -162008.26013186696, 0.228, 0.988, 0.1, 192.0, 0.0, 0.0, 0.0, 0.0, 0.0, 0.0, 0.0, 0.0, 0.0, 1.7395367482437327E9, 0.0, 2025-02-14 09:39:08.243
47.0, -147792.55065829167, -161842.74546417542, -162021.17944016212, -162037.83148978133, -161988.94822465756, -161944.2223840025, -153963.06263960156, -162009.7800504899, 0.228, 0.988, 0.1, 192.0, 0.0, 0.0, 0.0, 0.0, 0.0, 0.0, 0.0, 0.0, 0.0, 1.739536748243746E9, 0.0, 2025-02-14 09:39:08.243
48.0, -147912.93715392795, -161844.31008628727, -162022.7887657629, -162039.3514084043, -161990.40108804716, -161945.80935785885, -153958.59229071048, -162011.36702434625, 0.228, 0.988, 0.1, 192.0, 0.0, 0.0, 0.0, 0.0, 0.0, 0.0, 0.0, 0.0, 0.0, 1.7395367482437596E9, 0.0, 2025-02-14 09:39:08.243
49.0, -147959.69700332845, -161843.81834790925, -162022.4311378516, -162039.12789095973, -161990.28932932488, -161945.54113692537, -154093.59682722055, -162011.05409992387, 0.228, 0.988, 0.1, 192.0, 0.0, 0.0, 0.0, 0.0, 0.0, 0.0, 0.0, 0.0, 0.0, 1.7395367482437732E9, 0.0, 2025-02-14 09:39:08.243
50.0, -147863.47274344836, -161842.4548914975, -162021.06768143986, -162037.71973105904, -161989.05998337985, -161944.1776805136, -154120.128347889, -162009.735347001, 0.228, 0.988, 0.1, 192.0, 0.0, 0.0, 0.0, 0.0, 0.0, 0.0, 0.0, 0.0, 0.0, 1.7395367482437875E9, 0.0, 2025-02-14 09:39:08.243
51.0, -147853.03447878774, -161845.27121129885, -162023.6828355411, -162040.31253341588, -161991.40691654765, -161946.70342763705, -154010.2024686578, -162012.35050110228, 0.222, 0.982, 0.10200000000000001, 192.0, 6.0, 240.0, 30.0, 176.0, 3.0, 48.0, 0.0, 0.0, 0.0, 1.7395367482438009E9, 0.0, 2025-02-14 09:39:08.243
52.0, -147996.0185880683, -161847.3499235332, -162025.6944925421, -162042.3465421613, -161993.23975959298, -161948.715084638, -153997.3949190849, -162014.16099240317, 0.222, 0.982, 0.10200000000000001, 192.0, 0.0, 0.0, 0.0, 0.0, 0.0, 0.0, 0.0, 0.0, 0.0, 1.7395367482438152E9, 0.0, 2025-02-14 09:39:08.243
53.0, -148074.51791459537, -161847.3499235332, -162025.8956582422, -162042.48065262803, -161993.61973924874, -161948.89389859367, -154140.31197313213, -162014.36215810326, 0.222, 0.982, 0.10200000000000001, 192.0, 0.0, 0.0, 0.0, 0.0, 0.0, 0.0, 0.0, 0.0, 0.0, 1.7395367482438288E9, 0.0, 2025-02-14 09:39:08.243
54.0, -147978.85244832665, -161847.39462702212, -162025.87330649773, -162042.4583008836, -161993.79855320437, -161948.9162503381, -154203.83563087412, -162014.5409720589, 0.222, 0.982, 0.10200000000000001, 192.0, 0.0, 0.0, 0.0, 0.0, 0.0, 0.0, 0.0, 0.0, 0.0, 1.739536748243842E9, 0.0, 2025-02-14 09:39:08.243
55.0, -147918.03335166376, -161848.93689738953, -162027.25911465398, -162043.86646078425, -161995.09495438277, -161950.25735500545, -154107.7678332052, -162015.9938354485, 0.222, 0.982, 0.10200000000000001, 192.0, 0.0, 0.0, 0.0, 0.0, 0.0, 0.0, 0.0, 0.0, 0.0, 1.7395367482438636E9, 0.0, 2025-02-14 09:39:08.243
56.0, -148013.85528014367, -161850.79209217933, -162029.15901293268, -162045.78871080742, -161996.88309393922, -161952.04549456187, -154065.9700710738, -162017.82667849382, 0.222, 0.982, 0.10200000000000001, 192.0, 0.0, 0.0, 0.0, 0.0, 0.0, 0.0, 0.0, 0.0, 0.0, 1.7395367482438772E9, 0.0, 2025-02-14 09:39:08.243
57.0, -148117.96970581647, -161851.26147881287, -162029.76251003298, -162046.43691139662, -161997.64305325068, -161952.7160468955, -154190.2010667564, -162018.36312036077, 0.222, 0.982, 0.10200000000000001, 192.0, 0.0, 0.0, 0.0, 0.0, 0.0, 0.0, 0.0, 0.0, 0.0, 1.7395367482438908E9, 0.0, 2025-02-14 09:39:08.243
58.0, -148062.3362138672, -161850.94855439052, -162029.56134433288, -162046.23574569653, -161997.55364627286, -161952.55958468432, -154285.64301558054, -162018.11725117176, 0.222, 0.982, 0.10200000000000001, 192.0, 0.0, 0.0, 0.0, 0.0, 0.0, 0.0, 0.0, 0.0, 0.0, 1.739536748243904E9, 0.0, 2025-02-14 09:39:08.243
59.0, -148020.82902441372, -161852.17790033555, -162030.7012833001, -162047.33098117483, -161998.49241953998, -161953.6771719071, -154229.54013699773, -162019.12307967225, 0.222, 0.982, 0.10200000000000001, 192.0, 0.0, 0.0, 0.0, 0.0, 0.0, 0.0, 0.0, 0.0, 0.0, 1.7395367482439177E9, 0.0, 2025-02-14 09:39:08.243
60.0, -148123.15531053013, -161853.16137709157, -162031.61770482277, -162048.29210618642, -161999.23002710703, -161954.6159451742, -154163.37897341003, -162020.17361166162, 0.222, 0.982, 0.10200000000000001, 192.0, 0.0, 0.0, 0.0, 0.0, 0.0, 0.0, 0.0, 0.0, 0.0, 1.7395367482439308E9, 0.0, 2025-02-14 09:39:08.243
61.0, -148259.7915243854, -161854.48013001445, -162033.003512979, -162049.72261783155, -162000.77229747444, -161956.0241050749, -154262.9559949584, -162021.40295760668, 0.224, 0.978, 0.10400000000000001, 192.0, 7.0, 0.0, 30.0, 144.0, 3.0, 64.0, 0.0, 0.0, 0.0, 1.7395367482439444E9, 0.0, 2025-02-14 09:39:08.243
62.0, -148222.1288349782, -161853.49665325842, -162032.06473971187, -162048.71678933105, -162000.07939339633, -161955.19709053007, -154363.22592058493, -162020.50888782847, 0.224, 0.978, 0.10400000000000001, 192.0, 0.0, 0.0, 0.0, 0.0, 0.0, 0.0, 0.0, 0.0, 0.0, 1.7395367482439582E9, 0.0, 2025-02-14 09:39:08.243
63.0, -148134.1076653132, -161855.06127537027, -162033.495251357, -162050.19200446512, -162001.37579457473, -161956.6276021752, -154305.17844023448, -162022.00645470698, 0.224, 0.978, 0.10400000000000001, 192.0, 0.0, 0.0, 0.0, 0.0, 0.0, 0.0, 0.0, 0.0, 0.0, 1.7395367482439716E9, 0.0, 2025-02-14 09:39:08.243
64.0, -148177.85002921225, -161854.703647459, -162033.07056821234, -162049.76732132045, -162000.77229747444, -161956.24762251947, -154205.57906694163, -162021.6935302846, 0.224, 0.978, 0.10400000000000001, 192.0, 0.0, 0.0, 0.0, 0.0, 0.0, 0.0, 0.0, 0.0, 0.0, 1.7395367482439852E9, 0.0, 2025-02-14 09:39:08.243
65.0, -148289.56404799988, -161853.89898465862, -162032.46707111207, -162049.11912073125, -162000.12409688524, -161955.59942193027, -154259.93850945696, -162020.97827446202, 0.224, 0.978, 0.10400000000000001, 192.0, 0.0, 0.0, 0.0, 0.0, 0.0, 0.0, 0.0, 0.0, 0.0, 1.7395367482439985E9, 0.0, 2025-02-14 09:39:08.243
66.0, -148277.5388094829, -161856.46943527096, -162035.1492804467, -162051.73427483253, -162002.9404166866, -161958.14752079817, -154369.17148461004, -162023.66048379667, 0.224, 0.978, 0.10400000000000001, 192.0, 0.0, 0.0, 0.0, 0.0, 0.0, 0.0, 0.0, 0.0, 0.0, 1.7395367482440124E9, 0.0, 2025-02-14 09:39:08.244
67.0, -148196.33492187678, -161859.57632775026, -162038.16676594815, -162054.70705684507, -162005.98025393253, -161961.14265455518, -154318.83535609668, -162026.5885623203, 0.224, 0.978, 0.10400000000000001, 192.0, 0.0, 0.0, 0.0, 0.0, 0.0, 0.0, 0.0, 0.0, 0.0, 1.739536748244026E9, 0.0, 2025-02-14 09:39:08.244
68.0, -148255.52234119445, -161859.15164460562, -162037.63032408123, -162054.1482632337, -162005.35440508777, -161960.56150919932, -154204.32736925213, -162025.91800998666, 0.224, 0.978, 0.10400000000000001, 192.0, 0.0, 0.0, 0.0, 0.0, 0.0, 0.0, 0.0, 0.0, 0.0, 1.7395367482440393E9, 0.0, 2025-02-14 09:39:08.244
69.0, -148410.777558181, -161859.30810681678, -162037.71973105904, -162054.37178067825, -162005.46616381005, -161960.65091617717, -154249.32143084068, -162026.02976870892, 0.224, 0.978, 0.10400000000000001, 192.0, 0.0, 0.0, 0.0, 0.0, 0.0, 0.0, 0.0, 0.0, 0.0, 1.739536748244053E9, 0.0, 2025-02-14 09:39:08.244
70.0, -148406.10604358985, -161859.19634809453, -162037.6973793146, -162054.46118765607, -162005.66732951015, -161960.65091617717, -154378.55921728126, -162026.16387917567, 0.224, 0.978, 0.10400000000000001, 192.0, 0.0, 0.0, 0.0, 0.0, 0.0, 0.0, 0.0, 0.0, 0.0, 1.7395367482440748E9, 0.0, 2025-02-14 09:39:08.244
71.0, -148291.46394627859, -161858.23522308294, -162036.71390255858, -162053.36595217776, -162004.72855624303, -161959.80154988787, -154365.75166770836, -162025.2027541641, 0.222, 0.984, 0.106, 192.0, 6.0, 240.0, 30.0, 192.0, 3.0, 80.0, 0.0, 0.0, 0.0, 1.7395367482440891E9, 0.0, 2025-02-14 09:39:08.244
72.0, -148309.23358312054, -161858.30227831632, -162036.71390255858, -162053.36595217776, -162004.6391492652, -161959.75684639893, -154245.18635811645, -162025.15805067518, 0.222, 0.984, 0.106, 192.0, 0.0, 0.0, 0.0, 0.0, 0.0, 0.0, 0.0, 0.0, 0.0, 1.7395367482441032E9, 0.0, 2025-02-14 09:39:08.244
73.0, -148435.1856631262, -161859.08458937224, -162037.4515101256, -162054.1482632337, -162005.26499810995, -161960.49445396598, -154245.4545790499, -162025.91800998666, 0.222, 0.984, 0.106, 192.0, 0.0, 0.0, 0.0, 0.0, 0.0, 0.0, 0.0, 0.0, 0.0, 1.7395367482441168E9, 0.0, 2025-02-14 09:39:08.244
74.0, -148469.62970133184, -161861.87855742915, -162040.3572369048, -162056.98693477953, -162008.26013186696, -161963.3778290007, -154373.79829571227, -162028.8907919992, 0.222, 0.984, 0.106, 192.0, 0.0, 0.0, 0.0, 0.0, 0.0, 0.0, 0.0, 0.0, 0.0, 1.7395367482441306E9, 0.0, 2025-02-14 09:39:08.244
75.0, -148386.74943289155, -161859.68808647254, -162038.27852467043, -162054.93057428964, -162006.20377137707, -161961.36617199972, -154416.71364506645, -162026.81207976487, 0.222, 0.984, 0.106, 192.0, 0.0, 0.0, 0.0, 0.0, 0.0, 0.0, 0.0, 0.0, 0.0, 1.7395367482441442E9, 0.0, 2025-02-14 09:39:08.244
76.0, -148359.68147035618, -161860.35863880618, -162038.77026304844, -162055.51171964547, -162006.62845452173, -161961.8802621222, -154318.7683008633, -162027.41557686517, 0.222, 0.984, 0.106, 192.0, 0.0, 0.0, 0.0, 0.0, 0.0, 0.0, 0.0, 0.0, 0.0, 1.7395367482441583E9, 0.0, 2025-02-14 09:39:08.244
77.0, -148516.6577716658, -161861.69974347352, -162039.9996089935, -162056.8528243128, -162007.81309697786, -161963.10960806723, -154312.06277752673, -162028.51081234348, 0.222, 0.984, 0.106, 192.0, 0.0, 0.0, 0.0, 0.0, 0.0, 0.0, 0.0, 0.0, 0.0, 1.7395367482441716E9, 0.0, 2025-02-14 09:39:08.244
78.0, -148604.3213134195, -161866.0583336423, -162044.6934753291, -162061.43493192614, -162012.5293150579, -161967.71406742503, -154447.04496229233, -162033.02586472343, 0.222, 0.984, 0.106, 192.0, 0.0, 0.0, 0.0, 0.0, 0.0, 0.0, 0.0, 0.0, 0.0, 1.7395367482441847E9, 0.0, 2025-02-14 09:39:08.244
79.0, -148496.92118131177, -161866.79594120933, -162045.4087311517, -162062.08313251534, -162013.51279181396, -161968.56343371433, -154495.83882043825, -162033.8975827572, 0.222, 0.984, 0.106, 192.0, 0.0, 0.0, 0.0, 0.0, 0.0, 0.0, 0.0, 0.0, 0.0, 1.7395367482441983E9, 0.0, 2025-02-14 09:39:08.244
80.0, -148440.10304690636, -161867.3547348207, -162045.72165557405, -162062.46311217107, -162013.80336449188, -161968.92106162562, -154393.2443133884, -162034.32226590184, 0.222, 0.984, 0.106, 192.0, 0.0, 0.0, 0.0, 0.0, 0.0, 0.0, 0.0, 0.0, 0.0, 1.7395367482442117E9, 0.0, 2025-02-14 09:39:08.244
81.0, -148534.5615189745, -161865.11956037517, -162043.3523706618, -162060.22793772555, -162011.25526562397, -161966.50707322443, -154334.14630104857, -162031.9529809896, 0.22, 0.984, 0.11, 192.0, 6.0, 224.0, 30.0, 192.0, 3.0, 112.0, 0.0, 0.0, 0.0, 1.739536748244225E9, 0.0, 2025-02-14 09:39:08.244
82.0, -148621.24158397218, -161865.83481619775, -162044.26879218445, -162061.01024878147, -162012.1940388911, -161967.3340877693, -154438.03720927684, -162032.75764378998, 0.22, 0.984, 0.11, 192.0, 0.0, 0.0, 0.0, 0.0, 0.0, 0.0, 0.0, 0.0, 0.0, 1.7395367482442389E9, 0.0, 2025-02-14 09:39:08.244
83.0, -148565.1610571338, -161869.8581301997, -162048.38151316423, -162065.03356278344, -162016.37381510425, -161971.31269828233, -154531.73572203348, -162036.82566128083, 0.22, 0.984, 0.11, 192.0, 0.0, 0.0, 0.0, 0.0, 0.0, 0.0, 0.0, 0.0, 0.0, 1.739536748244252E9, 0.0, 2025-02-14 09:39:08.244
84.0, -148485.96882652867, -161870.93101393356, -162049.27558294244, -162065.94998430612, -162017.31258837137, -161972.40793376064, -154455.42686646307, -162037.8985450147, 0.22, 0.984, 0.11, 192.0, 0.0, 0.0, 0.0, 0.0, 0.0, 0.0, 0.0, 0.0, 0.0, 1.7395367482442653E9, 0.0, 2025-02-14 09:39:08.244
85.0, -148576.78396425056, -161871.3556970782, -162049.56615562036, -162066.26290872847, -162017.491402327, -161972.72085818302, -154390.182124398, -162038.1444142037, 0.22, 0.984, 0.11, 192.0, 0.0, 0.0, 0.0, 0.0, 0.0, 0.0, 0.0, 0.0, 0.0, 1.7395367482442868E9, 0.0, 2025-02-14 09:39:08.244
86.0, -148697.01399767568, -161872.8085604678, -162051.24253645452, -162067.89458607373, -162019.1454314167, -161974.30783203934, -154485.5123144999, -162039.73138806003, 0.22, 0.984, 0.11, 192.0, 0.0, 0.0, 0.0, 0.0, 0.0, 0.0, 0.0, 0.0, 0.0, 1.7395367482443004E9, 0.0, 2025-02-14 09:39:08.244
87.0, -148677.07624162154, -161873.2555953569, -162051.86838529925, -162068.38632445174, -162019.90539072818, -161974.8442739063, -154596.66753967616, -162040.33488516032, 0.22, 0.984, 0.11, 192.0, 0.0, 0.0, 0.0, 0.0, 0.0, 0.0, 0.0, 0.0, 0.0, 1.7395367482443137E9, 0.0, 2025-02-14 09:39:08.244
88.0, -148614.29019144658, -161873.36735407918, -162051.756626577, -162068.31926921837, -162019.77128026146, -161974.86662565073, -154563.29638520436, -162040.22312643804, 0.22, 0.984, 0.11, 192.0, 0.0, 0.0, 0.0, 0.0, 0.0, 0.0, 0.0, 0.0, 0.0, 1.739536748244327E9, 0.0, 2025-02-14 09:39:08.244
89.0, -148697.2375151202, -161874.1496651351, -162052.49423414402, -162069.14628376323, -162020.3300738728, -161975.5371779844, -154512.42381482408, -162040.8042717939, 0.22, 0.984, 0.11, 192.0, 0.0, 0.0, 0.0, 0.0, 0.0, 0.0, 0.0, 0.0, 0.0, 1.7395367482443404E9, 0.0, 2025-02-14 09:39:08.244
90.0, -148832.622031286, -161875.08843840225, -162053.47771090004, -162070.28622273044, -162021.4476610956, -161976.69946869605, -154611.73261543902, -162041.9442107611, 0.22, 0.984, 0.11, 192.0, 0.0, 0.0, 0.0, 0.0, 0.0, 0.0, 0.0, 0.0, 0.0, 1.739536748244354E9, 0.0, 2025-02-14 09:39:08.244
91.0, -148825.6706387604, -161874.9543279355, -162053.43300741113, -162070.24151924154, -162021.67117854016, -161976.69946869605, -154760.95286142264, -162041.9442107611, 0.22, 0.984, 0.10400000000000001, 192.0, 6.0, 224.0, 30.0, 192.0, 3.0, 64.0, 0.0, 0.0, 0.0, 1.7395367482443676E9, 0.0, 2025-02-14 09:39:08.244
92.0, -148720.17040493136, -161876.72011574748, -162055.1540917342, -162071.91790007567, -162023.36991111876, -161978.35349778575, -154763.90329169075, -162043.7099985731, 0.22, 0.984, 0.10400000000000001, 192.0, 0.0, 0.0, 0.0, 0.0, 0.0, 0.0, 0.0, 0.0, 0.0, 1.739536748244382E9, 0.0, 2025-02-14 09:39:08.244
93.0, -148710.67091353785, -161877.97181343698, -162056.18227197914, -162073.03548729845, -162024.2863326414, -161979.42638151962, -154661.1523224297, -162044.93934451812, 0.22, 0.984, 0.10400000000000001, 192.0, 0.0, 0.0, 0.0, 0.0, 0.0, 0.0, 0.0, 0.0, 0.0, 1.7395367482443953E9, 0.0, 2025-02-14 09:39:08.244
94.0, -148838.7240575223, -161878.463551815, -162056.67401035715, -162073.59428090983, -162024.7333675305, -161979.9404716421, -154698.03270078095, -162045.18521370713, 0.22, 0.984, 0.10400000000000001, 192.0, 0.0, 0.0, 0.0, 0.0, 0.0, 0.0, 0.0, 0.0, 0.0, 1.7395367482444084E9, 0.0, 2025-02-14 09:39:08.244
95.0, -148874.55390388417, -161878.93293844856, -162057.16574873516, -162074.08601928785, -162025.35921637528, -161980.4322100201, -154851.56683344446, -162045.58754510732, 0.22, 0.984, 0.10400000000000001, 192.0, 0.0, 0.0, 0.0, 0.0, 0.0, 0.0, 0.0, 0.0, 0.0, 1.7395367482444215E9, 0.0, 2025-02-14 09:39:08.244
96.0, -148781.0789085721, -161880.43050532707, -162058.77507433595, -162075.56123442188, -162027.08030069832, -161982.01918387643, -154880.46763902518, -162047.21922245255, 0.22, 0.984, 0.10400000000000001, 192.0, 0.0, 0.0, 0.0, 0.0, 0.0, 0.0, 0.0, 0.0, 0.0, 1.7395367482444353E9, 0.0, 2025-02-14 09:39:08.244
97.0, -148773.9263503464, -161878.955290193, -162057.32221094635, -162074.04131579894, -162025.35921637528, -161980.54396874236, -154787.4843820911, -162045.76635906295, 0.22, 0.984, 0.10400000000000001, 192.0, 0.0, 0.0, 0.0, 0.0, 0.0, 0.0, 0.0, 0.0, 0.0, 1.7395367482444482E9, 0.0, 2025-02-14 09:39:08.244
98.0, -148908.1485758005, -161878.24003437045, -162056.4504929126, -162073.32605997636, -162024.5322018304, -161979.8287129198, -154803.0858997209, -162044.96169626256, 0.22, 0.984, 0.10400000000000001, 192.0, 0.0, 0.0, 0.0, 0.0, 0.0, 0.0, 0.0, 0.0, 0.0, 1.7395367482444618E9, 0.0, 2025-02-14 09:39:08.244
99.0, -148963.3573846051, -161877.8600547147, -162056.2046237236, -162072.99078380954, -162024.4427948526, -161979.5381402419, -154947.25465145762, -162044.53701311792, 0.22, 0.984, 0.10400000000000001, 192.0, 0.0, 0.0, 0.0, 0.0, 0.0, 0.0, 0.0, 0.0, 0.0, 1.7395367482444837E9, 0.0, 2025-02-14 09:39:08.244
100.0, -148896.0339303057, -161879.17880763757, -162057.45632141308, -162074.26483324348, -162025.82860300882, -161980.7898379314, -155008.09609986498, -162045.43108289613, 0.22, 0.984, 0.10400000000000001, 192.0, 0.0, 0.0, 0.0, 0.0, 0.0, 0.0, 0.0, 0.0, 0.0, 1.7395367482444973E9, 0.0, 2025-02-14 09:39:08.244
101.0, -148868.29541543667, -161880.47520881597, -162058.68566735814, -162075.6059379108, -162026.9461902316, -161982.10859085424, -154914.48699408615, -162047.1074637303, 0.226, 0.984, 0.10400000000000001, 192.0, 7.0, 16.0, 30.0, 192.0, 3.0, 64.0, 0.0, 0.0, 0.0, 1.739536748244511E9, 0.0, 2025-02-14 09:39:08.244
102.0, -148977.2154661674, -161881.03400242736, -162059.33386794734, -162076.23178675555, -162027.48263209852, -161982.64503272116, -154879.17123784678, -162047.8450712973, 0.226, 0.984, 0.10400000000000001, 192.0, 0.0, 0.0, 0.0, 0.0, 0.0, 0.0, 0.0, 0.0, 0.0, 1.7395367482445247E9, 0.0, 2025-02-14 09:39:08.244
103.0, -149056.49710375036, -161881.43633382756, -162059.8032545809, -162076.6564699002, -162028.01907396546, -161983.06971586583, -154998.70836719376, -162047.5992021083, 0.226, 0.984, 0.10400000000000001, 192.0, 0.0, 0.0, 0.0, 0.0, 0.0, 0.0, 0.0, 0.0, 0.0, 1.739536748244538E9, 0.0, 2025-02-14 09:39:08.244
104.0, -148983.13867844804, -161881.14576114962, -162059.46797841406, -162076.34354547784, -162027.8402600098, -161982.77914318792, -155061.40501039088, -162046.48161488553, 0.226, 0.984, 0.10400000000000001, 192.0, 0.0, 0.0, 0.0, 0.0, 0.0, 0.0, 0.0, 0.0, 0.0, 1.7395367482445512E9, 0.0, 2025-02-14 09:39:08.244
105.0, -148931.84142492313, -161883.6044530397, -162061.79255983743, -162078.62342341227, -162030.03073096642, -161985.12607635572, -154982.65981467484, -162049.9461352761, 0.226, 0.984, 0.10400000000000001, 192.0, 0.0, 0.0, 0.0, 0.0, 0.0, 0.0, 0.0, 0.0, 0.0, 1.739536748723706E9, 0.0, 2025-02-14 09:39:08.723
106.0, -149030.30085924876, -161884.9008542181, -162063.08896101583, -162080.12099029077, -162031.3047804004, -161986.51188451194, -154944.55009037856, -162051.42135041015, 0.226, 0.984, 0.10400000000000001, 192.0, 0.0, 0.0, 0.0, 0.0, 0.0, 0.0, 0.0, 0.0, 0.0, 1.7395367487237864E9, 0.0, 2025-02-14 09:39:08.723
107.0, -149118.97022950294, -161886.28666237436, -162064.60887963878, -162081.4620949581, -162032.8023472789, -161988.03180313492, -155076.06775475357, -162052.06955099935, 0.226, 0.984, 0.10400000000000001, 192.0, 0.0, 0.0, 0.0, 0.0, 0.0, 0.0, 0.0, 0.0, 0.0, 1.7395367487238157E9, 0.0, 2025-02-14 09:39:08.723
108.0, -149051.8926443926, -161888.0077466974, -162066.3523157063, -162083.1608275367, -162034.6575420687, -161989.70818396905, -155199.91877078044, -162053.74593183352, 0.226, 0.984, 0.10400000000000001, 192.0, 0.0, 0.0, 0.0, 0.0, 0.0, 0.0, 0.0, 0.0, 0.0, 1.7395367487238436E9, 0.0, 2025-02-14 09:39:08.723
109.0, -148975.2038091664, -161889.2594443869, -162067.4028476957, -162084.256063015, -162035.77512929143, -161990.78106770292, -155150.63317425648, -162054.66235335617, 0.226, 0.984, 0.10400000000000001, 192.0, 0.0, 0.0, 0.0, 0.0, 0.0, 0.0, 0.0, 0.0, 0.0, 1.7395367487238584E9, 0.0, 2025-02-14 09:39:08.723
110.0, -149032.04429531627, -161889.460610087, -162067.44755118462, -162084.3007665039, -162035.77512929143, -161990.84812293627, -155081.58863563402, -162054.79646382292, 0.226, 0.984, 0.10400000000000001, 192.0, 0.0, 0.0, 0.0, 0.0, 0.0, 0.0, 0.0, 0.0, 0.0, 1.7395367487238731E9, 0.0, 2025-02-14 09:39:08.723
111.0, -149145.74761936042, -161888.9018164756, -162067.06757152887, -162083.94313859261, -162035.48455661352, -161990.44579153607, -155174.16956116792, -162054.41648416716, 0.224, 0.984, 0.10400000000000001, 192.0, 7.0, 0.0, 30.0, 192.0, 3.0, 64.0, 0.0, 0.0, 0.0, 1.7395367487238872E9, 0.0, 2025-02-14 09:39:08.723
112.0, -149115.6398195791, -161888.49948507542, -162066.82170233986, -162083.6972694036, -162035.3057426579, -161990.17757060262, -155283.62605376556, -162054.43883591163, 0.224, 0.984, 0.10400000000000001, 192.0, 0.0, 0.0, 0.0, 0.0, 0.0, 0.0, 0.0, 0.0, 0.0, 1.7395367487239034E9, 0.0, 2025-02-14 09:39:08.723
113.0, -149033.89949010607, -161888.968871709, -162067.17933025115, -162083.94313859261, -162035.506908358, -161990.5351985139, -155235.01100957525, -162054.48353940053, 0.224, 0.984, 0.10400000000000001, 192.0, 0.0, 0.0, 0.0, 0.0, 0.0, 0.0, 0.0, 0.0, 0.0, 1.7395367487239175E9, 0.0, 2025-02-14 09:39:08.723
114.0, -149066.84596143317, -161890.57819730978, -162068.6545453852, -162085.4630572156, -162036.93742000312, -161992.05511713686, -155129.89075540195, -162055.46701615656, 0.224, 0.984, 0.10400000000000001, 192.0, 0.0, 0.0, 0.0, 0.0, 0.0, 0.0, 0.0, 0.0, 0.0, 1.7395367487240143E9, 0.0, 2025-02-14 09:39:08.724
115.0, -149149.88269208465, -161890.37703160968, -162068.54278666293, -162085.48540896006, -162036.91506825868, -161991.94335841457, -155164.44655232984, -162055.8022923234, 0.224, 0.984, 0.10400000000000001, 192.0, 0.0, 0.0, 0.0, 0.0, 0.0, 0.0, 0.0, 0.0, 0.0, 1.7395367487240283E9, 0.0, 2025-02-14 09:39:08.724
116.0, -149154.3530409757, -161890.2652728874, -162068.52043491846, -162085.32894674886, -162037.0491787254, -161991.87630318123, -155269.05271638068, -162056.13756849023, 0.224, 0.984, 0.10400000000000001, 192.0, 0.0, 0.0, 0.0, 0.0, 0.0, 0.0, 0.0, 0.0, 0.0, 1.7395367487240424E9, 0.0, 2025-02-14 09:39:08.724
117.0, -149061.54859799726, -161892.58985431073, -162070.755609364, -162087.51941770548, -162039.3514084043, -161994.11147762675, -155240.1519108, -162058.26098421347, 0.224, 0.984, 0.10400000000000001, 192.0, 0.0, 0.0, 0.0, 0.0, 0.0, 0.0, 0.0, 0.0, 0.0, 1.739536748724056E9, 0.0, 2025-02-14 09:39:08.724
118.0, -149087.36486284315, -161894.1097729337, -162072.14141752024, -162089.01698458398, -162040.58075434933, -161995.54198927188, -155132.4165025254, -162059.06564701386, 0.224, 0.984, 0.10400000000000001, 192.0, 0.0, 0.0, 0.0, 0.0, 0.0, 0.0, 0.0, 0.0, 0.0, 1.7395367487240703E9, 0.0, 2025-02-14 09:39:08.724
119.0, -149236.0263152154, -161894.37799386718, -162072.54374892043, -162089.37461249527, -162040.82662353833, -161995.94432067208, -155168.71573552082, -162059.55738539188, 0.224, 0.984, 0.10400000000000001, 192.0, 0.0, 0.0, 0.0, 0.0, 0.0, 0.0, 0.0, 0.0, 0.0, 1.7395367487240846E9, 0.0, 2025-02-14 09:39:08.724
120.0, -149278.60638840275, -161895.24971190092, -162073.504873932, -162090.24633052901, -162041.92185901664, -161996.81603870585, -155314.33735064714, -162060.98789703703, 0.224, 0.984, 0.10400000000000001, 192.0, 0.0, 0.0, 0.0, 0.0, 0.0, 0.0, 0.0, 0.0, 0.0, 1.7395367487241173E9, 0.0, 2025-02-14 09:39:08.724
121.0, -149193.5132972614, -161896.14378167913, -162074.37659196576, -162091.1627520517, -162042.8606322838, -161997.73246022852, -155341.02533352678, -162061.92667030415, 0.226, 0.978, 0.106, 192.0, 7.0, 16.0, 30.0, 144.0, 3.0, 80.0, 0.0, 0.0, 0.0, 1.7395367487241323E9, 0.0, 2025-02-14 09:39:08.724
122.0, -149205.35972182272, -161897.08255494628, -162075.09184778834, -162092.0568218299, -162043.48648112852, -161998.55947477336, -155245.62808819153, -162062.48546391554, 0.226, 0.978, 0.106, 192.0, 0.0, 0.0, 0.0, 0.0, 0.0, 0.0, 0.0, 0.0, 0.0, 1.7395367487241476E9, 0.0, 2025-02-14 09:39:08.724
123.0, -149311.35169402978, -161898.73658403594, -162076.9023390892, -162093.8002578974, -162045.18521370713, -162000.21350386305, -155238.27436426573, -162064.36301044977, 0.226, 0.978, 0.106, 192.0, 0.0, 0.0, 0.0, 0.0, 0.0, 0.0, 0.0, 0.0, 0.0, 1.739536748724162E9, 0.0, 2025-02-14 09:39:08.724
124.0, -149329.18838610512, -161897.84251425773, -162076.0529727999, -162092.97324335258, -162044.49230962901, -161999.34178582928, -155355.35280172262, -162063.87127207176, 0.226, 0.978, 0.106, 192.0, 0.0, 0.0, 0.0, 0.0, 0.0, 0.0, 0.0, 0.0, 0.0, 1.739536748724176E9, 0.0, 2025-02-14 09:39:08.724
125.0, -149247.15748395413, -161899.3177293918, -162077.41642921168, -162094.29199627542, -162046.03457999643, -162000.77229747444, -155407.90175293706, -162065.27943197245, 0.226, 0.978, 0.106, 192.0, 0.0, 0.0, 0.0, 0.0, 0.0, 0.0, 0.0, 0.0, 0.0, 1.7395367487241905E9, 0.0, 2025-02-14 09:39:08.724
126.0, -149239.20026292806, -161902.33521489325, -162080.2998042464, -162097.28713003243, -162048.8508997978, -162003.70037599807, -155320.23821118334, -162068.0510482849, 0.226, 0.978, 0.106, 192.0, 0.0, 0.0, 0.0, 0.0, 0.0, 0.0, 0.0, 0.0, 0.0, 1.739536748724204E9, 0.0, 2025-02-14 09:39:08.724
127.0, -149364.32532838886, -161900.8599997592, -162078.77988562346, -162095.7672114095, -162047.17451896364, -162002.18045737513, -155264.91764365646, -162066.46407442857, 0.226, 0.978, 0.106, 192.0, 0.0, 0.0, 0.0, 0.0, 0.0, 0.0, 0.0, 0.0, 0.0, 1.739536748724218E9, 0.0, 2025-02-14 09:39:08.724
128.0, -149447.2726520625, -161903.63161607165, -162081.66326065818, -162098.62823469978, -162050.08024574284, -162005.13088764323, -155344.44515042845, -162069.32509771886, 0.226, 0.978, 0.106, 192.0, 0.0, 0.0, 0.0, 0.0, 0.0, 0.0, 0.0, 0.0, 0.0, 1.7395367487242312E9, 0.0, 2025-02-14 09:39:08.724
129.0, -149383.57018036488, -161905.10683120572, -162083.2502345145, -162100.08109808937, -162051.756626577, -162006.71786149955, -155380.76673516832, -162070.84501634183, 0.226, 0.978, 0.106, 192.0, 0.0, 0.0, 0.0, 0.0, 0.0, 0.0, 0.0, 0.0, 0.0, 1.7395367487242544E9, 0.0, 2025-02-14 09:39:08.724
130.0, -149340.40896182167, -161904.10100270523, -162082.1549990362, -162099.0082143555, -162050.72844633204, -162005.57792253233, -155271.22083559286, -162069.59331865233, 0.226, 0.978, 0.106, 192.0, 0.0, 0.0, 0.0, 0.0, 0.0, 0.0, 0.0, 0.0, 0.0, 1.7395367487242682E9, 0.0, 2025-02-14 09:39:08.724
131.0, -149439.98598337008, -161905.10683120572, -162083.0490688144, -162100.08109808937, -162051.62251611025, -162006.60610277727, -155217.6884076224, -162070.42033319717, 0.226, 0.98, 0.108, 192.0, 7.0, 16.0, 30.0, 160.0, 3.0, 96.0, 0.0, 0.0, 0.0, 1.7395367487242825E9, 0.0, 2025-02-14 09:39:08.724
132.0, -149535.8526153389, -161905.6209213282, -162083.83137987036, -162100.75165042302, -162052.33777193283, -162007.25430336647, -155350.74834236485, -162071.42616169766, 0.226, 0.98, 0.108, 192.0, 0.0, 0.0, 0.0, 0.0, 0.0, 0.0, 0.0, 0.0, 0.0, 1.7395367487243016E9, 0.0, 2025-02-14 09:39:08.724
133.0, -149485.27061763653, -161908.213723685, -162086.4018304827, -162103.4115080132, -162055.10938824527, -162009.86945746775, -155481.3495852172, -162074.1530745212, 0.226, 0.98, 0.108, 192.0, 0.0, 0.0, 0.0, 0.0, 0.0, 0.0, 0.0, 0.0, 0.0, 1.7395367487243156E9, 0.0, 2025-02-14 09:39:08.724
134.0, -149405.78781435345, -161909.77834579686, -162087.83234212786, -162104.73026093608, -162056.53989989043, -162011.3446726018, -155438.21071841844, -162075.71769663307, 0.226, 0.98, 0.108, 192.0, 0.0, 0.0, 0.0, 0.0, 0.0, 0.0, 0.0, 0.0, 0.0, 1.7395367487243288E9, 0.0, 2025-02-14 09:39:08.724
135.0, -149468.7303267396, -161911.5217818644, -162089.41931598418, -162106.4066417702, -162058.01511502446, -162012.97634994704, -155351.48594993187, -162077.37172572277, 0.226, 0.98, 0.108, 192.0, 0.0, 0.0, 0.0, 0.0, 0.0, 0.0, 0.0, 0.0, 0.0, 1.7395367487243428E9, 0.0, 2025-02-14 09:39:08.724
136.0, -149601.05265391502, -161910.76182255291, -162088.63700492826, -162105.6690342032, -162057.21045222407, -162012.23874238, -155428.10772992467, -162076.38824896674, 0.226, 0.98, 0.108, 192.0, 0.0, 0.0, 0.0, 0.0, 0.0, 0.0, 0.0, 0.0, 0.0, 1.7395367487243564E9, 0.0, 2025-02-14 09:39:08.724
137.0, -149582.12072636138, -161909.0630899743, -162087.09473456081, -162104.0597086024, -162055.82464406785, -162010.51765805695, -155541.74399873544, -162074.77892336596, 0.226, 0.98, 0.108, 192.0, 0.0, 0.0, 0.0, 0.0, 0.0, 0.0, 0.0, 0.0, 0.0, 1.73953674872437E9, 0.0, 2025-02-14 09:39:08.724
138.0, -149496.3347311419, -161907.78904054035, -162085.73127814906, -162102.69625219062, -162054.48353940053, -162009.15420164517, -155485.05997479678, -162073.59428090983, 0.226, 0.98, 0.108, 192.0, 0.0, 0.0, 0.0, 0.0, 0.0, 0.0, 0.0, 0.0, 0.0, 1.7395367487243836E9, 0.0, 2025-02-14 09:39:08.724
139.0, -149521.50279539858, -161907.967854496, -162085.7983333824, -162102.78565916844, -162054.43883591163, -162009.3330156008, -155350.63658364257, -162073.77309486546, 0.226, 0.98, 0.108, 192.0, 0.0, 0.0, 0.0, 0.0, 0.0, 0.0, 0.0, 0.0, 0.0, 1.7395367487243972E9, 0.0, 2025-02-14 09:39:08.724
140.0, -149655.0768202635, -161911.0747469753, -162089.01698458398, -162106.02666211448, -162057.501024902, -162012.5293150579, -155390.86972366212, -162076.87998734476, 0.226, 0.98, 0.108, 192.0, 0.0, 0.0, 0.0, 0.0, 0.0, 0.0, 0.0, 0.0, 0.0, 1.7395367487244108E9, 0.0, 2025-02-14 09:39:08.724
141.0, -149643.78918931357, -161912.8181830428, -162090.93923460713, -162107.88185690425, -162059.62444062525, -162014.36215810326, -155541.94516443554, -162078.89164434574, 0.224, 0.986, 0.108, 192.0, 7.0, 0.0, 30.0, 208.0, 3.0, 96.0, 0.0, 0.0, 0.0, 1.7395367487244244E9, 0.0, 2025-02-14 09:39:08.724
