%OpenBCI Raw EXG Data
%Number of channels = 8
%Sample Rate = 250 Hz
%Board = OpenBCI_GUI$BoardCytonSerial
Sample Index, EXG Channel 0, EXG Channel 1, EXG Channel 2, EXG Channel 3, EXG Channel 4, EXG Channel 5, EXG Channel 6, EXG Channel 7, Accel Channel 0, Accel Channel 1, Accel Channel 2, Not Used, Digital Channel 0 (D11), Digital Channel 1 (D12), Digital Channel 2 (D13), Digital Channel 3 (D17), Not Used, Digital Channel 4 (D18), Analog Channel 0, Analog Channel 1, Analog Channel 2, Timestamp, Marker Channel, Timestamp (Formatted)
0.0, -179961.80712721433, -78530.35074834237, -187487.66183706067, -187499.26239243298, -187478.96700846756, -187408.3354959888, -182540.68434723432, -180255.91138075726, 0.10400000000000001, 0.496, 0.034, 192.0, 3.0, 64.0, 15.0, 128.0, 1.0, 16.0, 0.0, 0.0, 0.0, 1.7395365204433177E9, 0.0, 2025-02-14 09:35:20.443
1.0, -180085.03229439646, -78687.95289849675, -187489.02529347246, -187500.02235174447, -187480.5539823239, -187409.81071112285, -182467.34827367644, -180328.44279151474, 0.10400000000000001, 0.496, 0.034, 192.0, 0.0, 0.0, 0.0, 0.0, 0.0, 0.0, 0.0, 0.0, 0.0, 1.7395365204433825E9, 0.0, 2025-02-14 09:35:20.443
2.0, -180044.73209914353, -78714.88675056539, -187492.46746211857, -187500.02235174447, -187483.99615097002, -187413.25287976896, -182387.57489771544, -180371.84987924696, 0.10400000000000001, 0.496, 0.034, 192.0, 0.0, 0.0, 0.0, 0.0, 0.0, 0.0, 0.0, 0.0, 0.0, 1.7395365204434133E9, 0.0, 2025-02-14 09:35:20.443
3.0, -179915.7625336364, -78647.94327592175, -187495.1049679643, -187500.02235174447, -187486.63365681574, -187415.95744084805, -182454.60777933692, -180348.78287896907, 0.10400000000000001, 0.496, 0.034, 192.0, 0.0, 0.0, 0.0, 0.0, 0.0, 0.0, 0.0, 0.0, 0.0, 1.73953652044344E9, 0.0, 2025-02-14 09:35:20.443
4.0, -179941.0647083598, -78699.79932305805, -187497.58601159885, -187500.02235174447, -187488.93588649464, -187418.30437401586, -182545.40056531437, -180273.18927922123, 0.10400000000000001, 0.496, 0.034, 192.0, 0.0, 0.0, 0.0, 0.0, 0.0, 0.0, 0.0, 0.0, 0.0, 1.7395365204434717E9, 0.0, 2025-02-14 09:35:20.443
5.0, -180074.39286403573, -78862.34120873705, -187498.72595056606, -187500.02235174447, -187490.09817720632, -187419.44431298308, -182492.24811699966, -180326.9228728918, 0.10400000000000001, 0.496, 0.034, 192.0, 0.0, 0.0, 0.0, 0.0, 0.0, 0.0, 0.0, 0.0, 0.0, 1.7395365204434988E9, 0.0, 2025-02-14 09:35:20.443
6.0, -180068.53670698844, -78921.21570363232, -187499.08357847735, -187500.02235174447, -187490.47815686205, -187419.71253391655, -182395.01802861906, -180383.74100729718, 0.10400000000000001, 0.496, 0.034, 192.0, 0.0, 0.0, 0.0, 0.0, 0.0, 0.0, 0.0, 0.0, 0.0, 1.739536520443526E9, 0.0, 2025-02-14 09:35:20.443
7.0, -179936.41554551313, -78854.47339468877, -187499.93294476665, -187500.02235174447, -187491.26046791798, -187420.62895543923, -182442.0237472086, -180365.2114111437, 0.16, 0.746, 0.056, 192.0, 5.0, 0.0, 23.0, 80.0, 1.0, 192.0, 0.0, 0.0, 0.0, 1.7395365204435527E9, 0.0, 2025-02-14 09:35:20.443
8.0, -179923.80916164033, -78873.29356352014, -187500.02235174447, -187500.02235174447, -187493.87562201926, -187423.26646128495, -182543.8359432025, -180287.09206427244, 0.16, 0.746, 0.056, 192.0, 0.0, 0.0, 0.0, 0.0, 0.0, 0.0, 0.0, 0.0, 0.0, 1.7395365204435673E9, 0.0, 2025-02-14 09:35:20.443
9.0, -180054.0527765814, -79027.67706247295, -187500.02235174447, -187500.02235174447, -187497.42954938766, -187426.6862781866, -182509.9730503527, -180310.42728548378, 0.16, 0.746, 0.056, 192.0, 0.0, 0.0, 0.0, 0.0, 0.0, 0.0, 0.0, 0.0, 0.0, 1.7395365204435787E9, 0.0, 2025-02-14 09:35:20.443
10.0, -180079.33259956035, -79111.69726988045, -187500.02235174447, -187500.02235174447, -187496.04374123143, -187425.25576654146, -182404.65163047932, -180376.65550430483, 0.16, 0.746, 0.056, 192.0, 0.0, 0.0, 0.0, 0.0, 0.0, 0.0, 0.0, 0.0, 0.0, 1.7395365204435909E9, 0.0, 2025-02-14 09:35:20.443
11.0, -179949.64777823066, -79050.38643483954, -187500.02235174447, -187500.02235174447, -187497.58601159885, -187426.79803690888, -182419.82846496446, -180381.63994331838, 0.16, 0.746, 0.056, 192.0, 0.0, 0.0, 0.0, 0.0, 0.0, 0.0, 0.0, 0.0, 0.0, 1.7395365204436028E9, 0.0, 2025-02-14 09:35:20.443
12.0, -179905.74895212043, -79040.37285332357, -187500.02235174447, -187500.02235174447, -187498.54713661043, -187427.80386540937, -182524.2781668041, -180311.2095965397, 0.16, 0.746, 0.056, 192.0, 0.0, 0.0, 0.0, 0.0, 0.0, 0.0, 0.0, 0.0, 0.0, 1.7395365204436147E9, 0.0, 2025-02-14 09:35:20.443
13.0, -180027.7447733575, -79182.52994805932, -187500.02235174447, -187500.02235174447, -187499.32944766636, -187428.51912123195, -182528.34618429496, -180302.87239585788, 0.16, 0.746, 0.056, 192.0, 0.0, 0.0, 0.0, 0.0, 0.0, 0.0, 0.0, 0.0, 0.0, 1.7395365204436269E9, 0.0, 2025-02-14 09:35:20.443
14.0, -180087.26746884198, -79294.08750463575, -187500.02235174447, -187500.02235174447, -187500.02235174447, -187429.81552241035, -182433.57478780448, -180375.96260022672, 0.16, 0.746, 0.056, 192.0, 0.0, 0.0, 0.0, 0.0, 0.0, 0.0, 0.0, 0.0, 0.0, 1.7395365204436388E9, 0.0, 2025-02-14 09:35:20.443
15.0, -179972.9382959531, -79250.14397503663, -187500.02235174447, -187500.02235174447, -187500.02235174447, -187432.989470123, -182425.9528429452, -180389.5301091111, 0.16, 0.746, 0.056, 192.0, 0.0, 0.0, 0.0, 0.0, 0.0, 0.0, 0.0, 0.0, 0.0, 1.73953652044381E9, 0.0, 2025-02-14 09:35:20.443
16.0, -179894.14839674812, -79212.9953757519, -187500.02235174447, -187500.02235174447, -187500.02235174447, -187436.05165911338, -182525.39575402686, -180330.1191723489, 0.16, 0.746, 0.056, 192.0, 0.0, 0.0, 0.0, 0.0, 0.0, 0.0, 0.0, 0.0, 0.0, 1.739536520443824E9, 0.0, 2025-02-14 09:35:20.443
17.0, -179995.84883401977, -79333.8736097662, -187500.02235174447, -187500.02235174447, -187500.02235174447, -187437.25865331397, -182545.75819322566, -180293.73053237566, 0.182, 0.864, 0.068, 192.0, 5.0, 176.0, 27.0, 0.0, 2.0, 32.0, 0.0, 0.0, 0.0, 1.739536520443837E9, 0.0, 2025-02-14 09:35:20.443
18.0, -180083.3559135623, -79465.61479158579, -187500.02235174447, -187500.02235174447, -187500.02235174447, -187437.61628122526, -182442.78370652004, -180382.15403344083, 0.182, 0.864, 0.068, 192.0, 0.0, 0.0, 0.0, 0.0, 0.0, 0.0, 0.0, 0.0, 0.0, 1.7395365204438505E9, 0.0, 2025-02-14 09:35:20.443
19.0, -179990.30560139485, -79442.63719828572, -187500.02235174447, -187500.02235174447, -187500.02235174447, -187438.979737637, -182405.41158979078, -180399.49898713815, 0.182, 0.864, 0.068, 192.0, 0.0, 0.0, 0.0, 0.0, 0.0, 0.0, 0.0, 0.0, 0.0, 1.7395365204438636E9, 0.0, 2025-02-14 09:35:20.443
20.0, -179888.04637051182, -79388.30010751488, -187500.02235174447, -187500.02235174447, -187500.02235174447, -187442.9359964056, -182501.83701537098, -180354.0131871716, 0.182, 0.864, 0.068, 192.0, 0.0, 0.0, 0.0, 0.0, 0.0, 0.0, 0.0, 0.0, 0.0, 1.739536520443876E9, 0.0, 2025-02-14 09:35:20.443
21.0, -179966.00925517193, -79486.62543137377, -187500.02235174447, -187500.02235174447, -187500.02235174447, -187444.12063886176, -182549.91561769435, -180294.42343645377, 0.182, 0.864, 0.068, 192.0, 0.0, 0.0, 0.0, 0.0, 0.0, 0.0, 0.0, 0.0, 0.0, 1.739536520443889E9, 0.0, 2025-02-14 09:35:20.443
22.0, -180076.96331464808, -79635.3986424683, -187500.02235174447, -187500.02235174447, -187500.02235174447, -187443.51714176146, -182464.08491898596, -180370.1287949239, 0.182, 0.864, 0.068, 192.0, 0.0, 0.0, 0.0, 0.0, 0.0, 0.0, 0.0, 0.0, 0.0, 1.7395365204439085E9, 0.0, 2025-02-14 09:35:20.443
23.0, -180010.91390978266, -79638.90786634778, -187500.02235174447, -187500.02235174447, -187500.02235174447, -187446.17699935162, -182404.02578163455, -180402.60587961745, 0.182, 0.864, 0.068, 192.0, 0.0, 0.0, 0.0, 0.0, 0.0, 0.0, 0.0, 0.0, 0.0, 1.7395365204439204E9, 0.0, 2025-02-14 09:35:20.443
24.0, -179888.33694318976, -79570.22095563661, -187500.02235174447, -187500.02235174447, -187500.02235174447, -187448.92626391962, -182488.78359660908, -180371.4698995912, 0.182, 0.864, 0.068, 192.0, 0.0, 0.0, 0.0, 0.0, 0.0, 0.0, 0.0, 0.0, 0.0, 1.739536520443932E9, 0.0, 2025-02-14 09:35:20.443
25.0, -179937.51078099143, -79641.83594487142, -187500.02235174447, -187500.02235174447, -187500.02235174447, -187450.0885546313, -182563.86310623446, -180298.26793650008, 0.182, 0.864, 0.068, 192.0, 0.0, 0.0, 0.0, 0.0, 0.0, 0.0, 0.0, 0.0, 0.0, 1.7395365204439437E9, 0.0, 2025-02-14 09:35:20.443
26.0, -180064.13341333074, -79802.56733924954, -187500.02235174447, -187500.02235174447, -187500.02235174447, -187448.90391217518, -182491.93519257728, -180359.48936456317, 0.182, 0.864, 0.068, 192.0, 0.0, 0.0, 0.0, 0.0, 0.0, 0.0, 0.0, 0.0, 0.0, 1.7395365204439557E9, 0.0, 2025-02-14 09:35:20.443
27.0, -180031.61162514827, -79835.40205185438, -187500.02235174447, -187500.02235174447, -187500.02235174447, -187451.63082499872, -182415.31341258448, -180404.52812964062, 0.196, 0.932, 0.08, 192.0, 6.0, 32.0, 29.0, 32.0, 2.0, 128.0, 0.0, 0.0, 0.0, 1.739536520443967E9, 0.0, 2025-02-14 09:35:20.443
28.0, -179898.88696657264, -79762.64712365236, -187500.02235174447, -187500.02235174447, -187500.02235174447, -187454.98358666702, -182486.45901518574, -180391.07237947852, 0.196, 0.932, 0.08, 192.0, 0.0, 0.0, 0.0, 0.0, 0.0, 0.0, 0.0, 0.0, 0.0, 1.7395365204439797E9, 0.0, 2025-02-14 09:35:20.443
29.0, -179912.23095801246, -79801.53915900459, -187500.02235174447, -187500.02235174447, -187500.02235174447, -187455.81060121188, -182577.9447052413, -180308.37092499388, 0.196, 0.932, 0.08, 192.0, 0.0, 0.0, 0.0, 0.0, 0.0, 0.0, 0.0, 0.0, 0.0, 1.7395365204439914E9, 0.0, 2025-02-14 09:35:20.443
30.0, -180044.1956572766, -79958.76132950322, -187500.02235174447, -187500.02235174447, -187500.02235174447, -187457.7999064684, -182532.81653318604, -180359.19879188525, 0.196, 0.932, 0.08, 192.0, 0.0, 0.0, 0.0, 0.0, 0.0, 0.0, 0.0, 0.0, 0.0, 1.7395365204440312E9, 0.0, 2025-02-14 09:35:20.444
31.0, -180043.36864273174, -80019.89335058849, -187500.02235174447, -187500.02235174447, -187500.02235174447, -187458.4928105465, -182446.24822691063, -180419.10146702547, 0.196, 0.932, 0.08, 192.0, 0.0, 0.0, 0.0, 0.0, 0.0, 0.0, 0.0, 0.0, 0.0, 1.7395365204440432E9, 0.0, 2025-02-14 09:35:20.444
32.0, -179905.6595451426, -79946.35611133053, -187500.02235174447, -187500.02235174447, -187500.02235174447, -187457.8446099573, -182491.13052977688, -180403.85757730695, 0.196, 0.932, 0.08, 192.0, 0.0, 0.0, 0.0, 0.0, 0.0, 0.0, 0.0, 0.0, 0.0, 1.7395365204440548E9, 0.0, 2025-02-14 09:35:20.444
33.0, -179879.61976285218, -79949.08302415408, -187500.02235174447, -187500.02235174447, -187500.02235174447, -187460.1915431251, -182593.9485542713, -180323.03366935655, 0.196, 0.932, 0.08, 192.0, 0.0, 0.0, 0.0, 0.0, 0.0, 0.0, 0.0, 0.0, 0.0, 1.7395365204440665E9, 0.0, 2025-02-14 09:35:20.444
34.0, -180002.86728177874, -80094.8611014916, -187500.02235174447, -187500.02235174447, -187500.02235174447, -187461.4432408146, -182573.7872807726, -180337.24937883014, 0.196, 0.932, 0.08, 192.0, 0.0, 0.0, 0.0, 0.0, 0.0, 0.0, 0.0, 0.0, 0.0, 1.7395365204440782E9, 0.0, 2025-02-14 09:35:20.444
35.0, -180031.23164549252, -80179.99889612185, -187500.02235174447, -187500.02235174447, -187500.02235174447, -187463.11962164874, -182472.24330571215, -180402.9858592732, 0.196, 0.932, 0.08, 192.0, 0.0, 0.0, 0.0, 0.0, 0.0, 0.0, 0.0, 0.0, 0.0, 1.73953652044409E9, 0.0, 2025-02-14 09:35:20.444
36.0, -179944.73039445048, -80114.0612499787, -187500.02235174447, -187500.02235174447, -187500.02235174447, -187466.74060425052, -182489.45414894275, -180407.70207735326, 0.196, 0.932, 0.08, 192.0, 0.0, 0.0, 0.0, 0.0, 0.0, 0.0, 0.0, 0.0, 0.0, 1.7395365204441016E9, 0.0, 2025-02-14 09:35:20.444
37.0, -179902.19502475203, -80086.12156940956, -187500.02235174447, -187500.02235174447, -187500.02235174447, -187468.17111589565, -182600.4976153967, -180336.84704742994, 0.196, 0.964, 0.076, 192.0, 6.0, 32.0, 30.0, 32.0, 2.0, 96.0, 0.0, 0.0, 0.0, 1.7395365204441135E9, 0.0, 2025-02-14 09:35:20.444
38.0, -179968.44559531758, -80216.81221923974, -187500.02235174447, -187500.02235174447, -187500.02235174447, -187469.22164788505, -182601.65990610837, -180321.17847456675, 0.196, 0.964, 0.076, 192.0, 0.0, 0.0, 0.0, 0.0, 0.0, 0.0, 0.0, 0.0, 0.0, 1.7395365204441261E9, 0.0, 2025-02-14 09:35:20.444
39.0, -180030.2481687365, -80327.8556856937, -187500.02235174447, -187500.02235174447, -187500.02235174447, -187469.3557583518, -182496.2267275127, -180399.6778010938, 0.196, 0.964, 0.076, 192.0, 0.0, 0.0, 0.0, 0.0, 0.0, 0.0, 0.0, 0.0, 0.0, 1.7395365204441378E9, 0.0, 2025-02-14 09:35:20.444
40.0, -179970.90428720764, -80280.96172582648, -187500.02235174447, -187500.02235174447, -187500.02235174447, -187471.9485607086, -182484.35795120694, -180415.21226349025, 0.196, 0.964, 0.076, 192.0, 0.0, 0.0, 0.0, 0.0, 0.0, 0.0, 0.0, 0.0, 0.0, 1.7395365204441495E9, 0.0, 2025-02-14 09:35:20.444
41.0, -179972.24539187498, -80228.36807112314, -187500.02235174447, -187500.02235174447, -187500.02235174447, -187474.09432817632, -182578.97288548623, -180363.0209401871, 0.196, 0.964, 0.076, 192.0, 0.0, 0.0, 0.0, 0.0, 0.0, 0.0, 0.0, 0.0, 0.0, 1.7395365204441612E9, 0.0, 2025-02-14 09:35:20.444
42.0, -179965.56222028282, -80339.74681374393, -187500.02235174447, -187500.02235174447, -187500.02235174447, -187475.92717122164, -182609.81829283456, -180317.8704163874, 0.196, 0.964, 0.076, 192.0, 0.0, 0.0, 0.0, 0.0, 0.0, 0.0, 0.0, 0.0, 0.0, 1.7395365204441729E9, 0.0, 2025-02-14 09:35:20.444
43.0, -180050.99058759102, -80476.07010317685, -187500.02235174447, -187500.02235174447, -187500.02235174447, -187477.73766252253, -182509.16838755232, -180405.04221976307, 0.196, 0.964, 0.076, 192.0, 0.0, 0.0, 0.0, 0.0, 0.0, 0.0, 0.0, 0.0, 0.0, 1.7395365204441864E9, 0.0, 2025-02-14 09:35:20.444
44.0, -179975.19582214308, -80457.24993434548, -187500.02235174447, -187500.02235174447, -187500.02235174447, -187479.77167126795, -182466.16363122032, -180423.86238859445, 0.196, 0.964, 0.076, 192.0, 0.0, 0.0, 0.0, 0.0, 0.0, 0.0, 0.0, 0.0, 0.0, 1.739536520444198E9, 0.0, 2025-02-14 09:35:20.444
45.0, -179926.11139131922, -80392.11695100271, -187500.02235174447, -187500.02235174447, -187500.02235174447, -187479.34698812332, -182561.02443468865, -180387.85372827694, 0.196, 0.964, 0.076, 192.0, 0.0, 0.0, 0.0, 0.0, 0.0, 0.0, 0.0, 0.0, 0.0, 1.739536520444217E9, 0.0, 2025-02-14 09:35:20.444
46.0, -179951.14534510917, -80479.78049275643, -187500.02235174447, -187500.02235174447, -187500.02235174447, -187478.76584276746, -182617.7978656051, -180327.19109382524, 0.196, 0.964, 0.076, 192.0, 0.0, 0.0, 0.0, 0.0, 0.0, 0.0, 0.0, 0.0, 0.0, 1.7395365204442432E9, 0.0, 2025-02-14 09:35:20.444
47.0, -180053.49398297002, -80628.30783466194, -187500.02235174447, -187500.02235174447, -187500.02235174447, -187480.53163057944, -182530.42489652932, -180408.73025759822, 0.202, 0.972, 0.076, 192.0, 6.0, 80.0, 30.0, 96.0, 2.0, 96.0, 0.0, 0.0, 0.0, 1.739536520444255E9, 0.0, 2025-02-14 09:35:20.444
48.0, -179998.77691254343, -80631.12415446331, -187500.02235174447, -187500.02235174447, -187500.02235174447, -187483.88439224774, -182461.73798581815, -180432.333699743, 0.202, 0.972, 0.076, 192.0, 0.0, 0.0, 0.0, 0.0, 0.0, 0.0, 0.0, 0.0, 0.0, 1.7395365204442773E9, 0.0, 2025-02-14 09:35:20.444
49.0, -179936.05791760184, -80555.61996169329, -187500.02235174447, -187500.02235174447, -187500.02235174447, -187485.18079342615, -182536.10223962096, -180414.27349022313, 0.202, 0.972, 0.076, 192.0, 0.0, 0.0, 0.0, 0.0, 0.0, 0.0, 0.0, 0.0, 0.0, 1.7395365204442897E9, 0.0, 2025-02-14 09:35:20.444
50.0, -179934.80621991234, -80619.43419211319, -187500.02235174447, -187500.02235174447, -187500.02235174447, -187486.45484286008, -182605.48205441024, -180352.24739935965, 0.202, 0.972, 0.076, 192.0, 0.0, 0.0, 0.0, 0.0, 0.0, 0.0, 0.0, 0.0, 0.0, 1.739536520444302E9, 0.0, 2025-02-14 09:35:20.444
51.0, -180053.06929982535, -80781.75256034762, -187500.02235174447, -187500.02235174447, -187500.02235174447, -187488.86883126126, -182536.8845506769, -180415.52518791263, 0.202, 0.972, 0.076, 192.0, 0.0, 0.0, 0.0, 0.0, 0.0, 0.0, 0.0, 0.0, 0.0, 1.7395365204443147E9, 0.0, 2025-02-14 09:35:20.444
52.0, -180034.18207576062, -80817.0236130981, -187500.02235174447, -187500.02235174447, -187500.02235174447, -187490.94754349563, -182469.73991033316, -180440.15681030237, 0.202, 0.972, 0.076, 192.0, 0.0, 0.0, 0.0, 0.0, 0.0, 0.0, 0.0, 0.0, 0.0, 1.739536520444327E9, 0.0, 2025-02-14 09:35:20.444
53.0, -179949.69248171957, -80737.87608598186, -187500.02235174447, -187500.02235174447, -187500.02235174447, -187492.22159292956, -182532.34714655246, -180439.01687133516, 0.202, 0.972, 0.076, 192.0, 0.0, 0.0, 0.0, 0.0, 0.0, 0.0, 0.0, 0.0, 0.0, 1.7395365204443395E9, 0.0, 2025-02-14 09:35:20.444
54.0, -179944.6633392171, -80775.80699632251, -187500.02235174447, -187500.02235174447, -187500.02235174447, -187493.27212491896, -182603.80567357608, -180398.51551038213, 0.202, 0.972, 0.076, 192.0, 0.0, 0.0, 0.0, 0.0, 0.0, 0.0, 0.0, 0.0, 0.0, 1.739536520444352E9, 0.0, 2025-02-14 09:35:20.444
55.0, -180056.71263417156, -80945.8590681385, -187500.02235174447, -187500.02235174447, -187500.02235174447, -187493.38388364125, -182548.17218162684, -180415.72635361273, 0.202, 0.972, 0.076, 192.0, 0.0, 0.0, 0.0, 0.0, 0.0, 0.0, 0.0, 0.0, 0.0, 1.7395365204443648E9, 0.0, 2025-02-14 09:35:20.444
56.0, -180077.27623907046, -81011.12616194799, -187500.02235174447, -187500.02235174447, -187500.02235174447, -187495.01556098647, -182472.62328536788, -180420.86725483745, 0.202, 0.972, 0.076, 192.0, 0.0, 0.0, 0.0, 0.0, 0.0, 0.0, 0.0, 0.0, 0.0, 1.7395365204443767E9, 0.0, 2025-02-14 09:35:20.444
57.0, -179949.55837125285, -80929.94462608632, -187500.02235174447, -187500.02235174447, -187500.02235174447, -187496.02138948697, -182518.06438184553, -180439.01687133516, 0.20600000000000002, 0.972, 0.076, 192.0, 6.0, 112.0, 30.0, 96.0, 2.0, 96.0, 0.0, 0.0, 0.0, 1.739536520444389E9, 0.0, 2025-02-14 09:35:20.444
58.0, -179911.85097835673, -80937.58892269003, -187500.02235174447, -187500.02235174447, -187500.02235174447, -187497.63071508775, -182593.79209206012, -180412.75357160016, 0.20600000000000002, 0.972, 0.076, 192.0, 0.0, 0.0, 0.0, 0.0, 0.0, 0.0, 0.0, 0.0, 0.0, 1.7395365204444025E9, 0.0, 2025-02-14 09:35:20.444
59.0, -180038.31714848484, -81107.93156718393, -187500.02235174447, -187500.02235174447, -187500.02235174447, -187500.0, -182543.56772226904, -180430.4785049532, 0.20600000000000002, 0.972, 0.076, 192.0, 0.0, 0.0, 0.0, 0.0, 0.0, 0.0, 0.0, 0.0, 0.0, 1.7395365204444153E9, 0.0, 2025-02-14 09:35:20.444
60.0, -180104.29949811692, -81209.60965271112, -187500.02235174447, -187500.02235174447, -187500.02235174447, -187500.02235174447, -182453.80311653652, -180432.9819003322, 0.20600000000000002, 0.972, 0.076, 192.0, 0.0, 0.0, 0.0, 0.0, 0.0, 0.0, 0.0, 0.0, 0.0, 1.739536520444456E9, 0.0, 2025-02-14 09:35:20.444
61.0, -179981.32020012382, -81136.81002102018, -187500.02235174447, -187500.02235174447, -187500.02235174447, -187499.93294476665, -182493.18689026678, -180444.26953128213, 0.20600000000000002, 0.972, 0.076, 192.0, 0.0, 0.0, 0.0, 0.0, 0.0, 0.0, 0.0, 0.0, 0.0, 1.739536520444468E9, 0.0, 2025-02-14 09:35:20.444
62.0, -179921.77515289487, -81113.85477946459, -187500.02235174447, -187500.02235174447, -187500.02235174447, -187500.02235174447, -182585.38783614492, -180425.76228687316, 0.20600000000000002, 0.972, 0.076, 192.0, 0.0, 0.0, 0.0, 0.0, 0.0, 0.0, 0.0, 0.0, 0.0, 1.73953652044448E9, 0.0, 2025-02-14 09:35:20.444
63.0, -180025.8895785677, -81272.12748195262, -187500.02235174447, -187500.02235174447, -187500.02235174447, -187500.02235174447, -182555.8835334639, -180433.40658347687, 0.20600000000000002, 0.972, 0.076, 192.0, 0.0, 0.0, 0.0, 0.0, 0.0, 0.0, 0.0, 0.0, 0.0, 1.739536520444504E9, 0.0, 2025-02-14 09:35:20.444
64.0, -180121.17506518067, -81405.12036146168, -187500.02235174447, -187500.02235174447, -187500.02235174447, -187500.02235174447, -182454.45131712573, -180434.56887418855, 0.20600000000000002, 0.972, 0.076, 192.0, 0.0, 0.0, 0.0, 0.0, 0.0, 0.0, 0.0, 0.0, 0.0, 1.7395365204445174E9, 0.0, 2025-02-14 09:35:20.444
65.0, -180014.71370634006, -81353.33136955874, -187500.02235174447, -187500.02235174447, -187500.02235174447, -187500.02235174447, -182474.52318364658, -180446.46000223877, 0.20600000000000002, 0.972, 0.076, 192.0, 0.0, 0.0, 0.0, 0.0, 0.0, 0.0, 0.0, 0.0, 0.0, 1.7395365204445417E9, 0.0, 2025-02-14 09:35:20.444
66.0, -179902.55265266332, -81300.53654915531, -187500.02235174447, -187500.02235174447, -187500.02235174447, -187500.02235174447, -182575.4413098623, -180437.6310631789, 0.20600000000000002, 0.972, 0.076, 192.0, 0.0, 0.0, 0.0, 0.0, 0.0, 0.0, 0.0, 0.0, 0.0, 1.739536520444554E9, 0.0, 2025-02-14 09:35:20.444
67.0, -179997.39110438718, -81433.84235308676, -187500.02235174447, -187500.02235174447, -187500.02235174447, -187500.02235174447, -182575.4413098623, -180433.92067359935, 0.212, 0.972, 0.07, 192.0, 6.0, 160.0, 30.0, 96.0, 2.0, 48.0, 0.0, 0.0, 0.0, 1.7395365204445665E9, 0.0, 2025-02-14 09:35:20.444
68.0, -180125.48895186055, -81590.7068956741, -187500.02235174447, -187500.02235174447, -187500.02235174447, -187500.02235174447, -182477.74183484816, -180441.0955835695, 0.212, 0.972, 0.07, 192.0, 0.0, 0.0, 0.0, 0.0, 0.0, 0.0, 0.0, 0.0, 0.0, 1.7395365204445791E9, 0.0, 2025-02-14 09:35:20.444
69.0, -180049.94005560162, -81566.18703200664, -187500.02235174447, -187500.02235174447, -187500.02235174447, -187500.02235174447, -182459.21223869472, -180450.2374470517, 0.212, 0.972, 0.07, 192.0, 0.0, 0.0, 0.0, 0.0, 0.0, 0.0, 0.0, 0.0, 0.0, 1.7395365204445915E9, 0.0, 2025-02-14 09:35:20.444
70.0, -179914.15320803563, -81493.49915903797, -187500.02235174447, -187500.02235174447, -187500.02235174447, -187500.02235174447, -182548.9321409383, -180454.46192675375, 0.212, 0.972, 0.07, 192.0, 0.0, 0.0, 0.0, 0.0, 0.0, 0.0, 0.0, 0.0, 0.0, 1.739536520444604E9, 0.0, 2025-02-14 09:35:20.444
71.0, -179975.39698784315, -81598.1053230888, -187500.02235174447, -187500.02235174447, -187500.02235174447, -187500.02235174447, -182570.81449876007, -180440.089755069, 0.212, 0.972, 0.07, 192.0, 0.0, 0.0, 0.0, 0.0, 0.0, 0.0, 0.0, 0.0, 0.0, 1.7395365204446163E9, 0.0, 2025-02-14 09:35:20.444
72.0, -180120.14688493573, -81769.92318271675, -187500.02235174447, -187500.02235174447, -187500.02235174447, -187500.02235174447, -182475.03727376906, -180450.01392960714, 0.212, 0.972, 0.07, 192.0, 0.0, 0.0, 0.0, 0.0, 0.0, 0.0, 0.0, 0.0, 0.0, 1.7395365204446287E9, 0.0, 2025-02-14 09:35:20.444
73.0, -180082.506547273, -81776.51694733107, -187500.02235174447, -187500.02235174447, -187500.02235174447, -187500.02235174447, -182439.54270357403, -180454.01489186464, 0.212, 0.972, 0.07, 192.0, 0.0, 0.0, 0.0, 0.0, 0.0, 0.0, 0.0, 0.0, 0.0, 1.739536520444641E9, 0.0, 2025-02-14 09:35:20.444
74.0, -179934.7168129345, -81692.65320213475, -187500.02235174447, -187500.02235174447, -187500.02235174447, -187500.02235174447, -182526.75921043864, -180472.14215661792, 0.212, 0.972, 0.07, 192.0, 0.0, 0.0, 0.0, 0.0, 0.0, 0.0, 0.0, 0.0, 0.0, 1.7395365204446535E9, 0.0, 2025-02-14 09:35:20.444
75.0, -179960.3319120803, -81766.81629023746, -187500.02235174447, -187500.02235174447, -187500.02235174447, -187500.02235174447, -182573.80963251708, -180450.37155751843, 0.212, 0.972, 0.07, 192.0, 0.0, 0.0, 0.0, 0.0, 0.0, 0.0, 0.0, 0.0, 0.0, 1.739536520444674E9, 0.0, 2025-02-14 09:35:20.444
76.0, -180118.6716698017, -81954.72740587323, -187500.02235174447, -187500.02235174447, -187500.02235174447, -187500.02235174447, -182490.9740675657, -180466.21894433725, 0.212, 0.972, 0.07, 192.0, 0.0, 0.0, 0.0, 0.0, 0.0, 0.0, 0.0, 0.0, 0.0, 1.7395365204446864E9, 0.0, 2025-02-14 09:35:20.444
77.0, -180122.04678321443, -82000.99551689572, -187500.02235174447, -187500.02235174447, -187500.02235174447, -187500.02235174447, -182433.03834593756, -180463.4473280248, 0.214, 0.984, 0.07200000000000001, 192.0, 6.0, 176.0, 30.0, 192.0, 2.0, 64.0, 0.0, 0.0, 0.0, 1.7395365204446993E9, 0.0, 2025-02-14 09:35:20.444
78.0, -179972.3795023417, -81913.46608560874, -187500.02235174447, -187500.02235174447, -187500.02235174447, -187500.02235174447, -182501.3229252485, -180474.80201420808, 0.214, 0.984, 0.07200000000000001, 192.0, 0.0, 0.0, 0.0, 0.0, 0.0, 0.0, 0.0, 0.0, 0.0, 1.739536520444713E9, 0.0, 2025-02-14 09:35:20.444
79.0, -179956.39800505617, -81949.51944941515, -187500.02235174447, -187500.02235174447, -187500.02235174447, -187500.02235174447, -182563.3937196009, -180453.5008017422, 0.214, 0.984, 0.07200000000000001, 192.0, 0.0, 0.0, 0.0, 0.0, 0.0, 0.0, 0.0, 0.0, 0.0, 1.7395365204447253E9, 0.0, 2025-02-14 09:35:20.444
80.0, -180105.97587895108, -82130.16624810293, -187500.02235174447, -187500.02235174447, -187500.02235174447, -187500.02235174447, -182498.70777114722, -180464.78843269212, 0.214, 0.984, 0.07200000000000001, 192.0, 0.0, 0.0, 0.0, 0.0, 0.0, 0.0, 0.0, 0.0, 0.0, 1.7395365204447367E9, 0.0, 2025-02-14 09:35:20.444
81.0, -180145.04672825895, -82207.9503188074, -187500.02235174447, -187500.02235174447, -187500.02235174447, -187500.02235174447, -182424.27646211107, -180459.37931053393, 0.214, 0.984, 0.07200000000000001, 192.0, 0.0, 0.0, 0.0, 0.0, 0.0, 0.0, 0.0, 0.0, 0.0, 1.7395365204447484E9, 0.0, 2025-02-14 09:35:20.444
82.0, -180002.0849707228, -82125.76295444525, -187500.02235174447, -187500.02235174447, -187500.02235174447, -187500.02235174447, -182481.65339012785, -180482.89334570093, 0.214, 0.984, 0.07200000000000001, 192.0, 0.0, 0.0, 0.0, 0.0, 0.0, 0.0, 0.0, 0.0, 0.0, 1.73953652044476E9, 0.0, 2025-02-14 09:35:20.444
83.0, -179947.50201076295, -82126.92524515692, -187500.02235174447, -187500.02235174447, -187500.02235174447, -187500.02235174447, -182556.91171370886, -180460.67571171233, 0.214, 0.984, 0.07200000000000001, 192.0, 0.0, 0.0, 0.0, 0.0, 0.0, 0.0, 0.0, 0.0, 0.0, 1.7395365204447718E9, 0.0, 2025-02-14 09:35:20.444
84.0, -180087.71450373108, -82297.98314547338, -187500.02235174447, -187500.02235174447, -187500.02235174447, -187500.02235174447, -182507.89433811838, -180469.25878158316, 0.214, 0.984, 0.07200000000000001, 192.0, 0.0, 0.0, 0.0, 0.0, 0.0, 0.0, 0.0, 0.0, 0.0, 1.7395365204447834E9, 0.0, 2025-02-14 09:35:20.444
85.0, -180164.04571104597, -82405.29387060332, -187500.02235174447, -187500.02235174447, -187500.02235174447, -187500.02235174447, -182417.52623528556, -180463.603790236, 0.214, 0.984, 0.07200000000000001, 192.0, 0.0, 0.0, 0.0, 0.0, 0.0, 0.0, 0.0, 0.0, 0.0, 1.7395365204447951E9, 0.0, 2025-02-14 09:35:20.444
86.0, -180037.2889682399, -82335.80229709177, -187500.02235174447, -187500.02235174447, -187500.02235174447, -187500.02235174447, -182449.53393334555, -180489.21888938177, 0.214, 0.984, 0.07200000000000001, 192.0, 0.0, 0.0, 0.0, 0.0, 0.0, 0.0, 0.0, 0.0, 0.0, 1.739536520444808E9, 0.0, 2025-02-14 09:35:20.444
87.0, -179946.54088575137, -82305.09100021017, -187500.02235174447, -187500.02235174447, -187500.02235174447, -187500.02235174447, -182546.16052462586, -180473.43855779633, 0.22, 0.98, 0.078, 192.0, 6.0, 224.0, 30.0, 160.0, 2.0, 112.0, 0.0, 0.0, 0.0, 1.7395365204448197E9, 0.0, 2025-02-14 09:35:20.444
88.0, -180062.00999760747, -82457.462842162, -187500.02235174447, -187500.02235174447, -187500.02235174447, -187500.02235174447, -182525.77573368262, -180477.35011307598, 0.22, 0.98, 0.078, 192.0, 0.0, 0.0, 0.0, 0.0, 0.0, 0.0, 0.0, 0.0, 0.0, 1.7395365204448323E9, 0.0, 2025-02-14 09:35:20.444
89.0, -180169.45483320413, -82595.1942914956, -187500.02235174447, -187500.02235174447, -187500.02235174447, -187500.02235174447, -182424.96936618918, -180476.21017410877, 0.22, 0.98, 0.078, 192.0, 0.0, 0.0, 0.0, 0.0, 0.0, 0.0, 0.0, 0.0, 0.0, 1.739536520444844E9, 0.0, 2025-02-14 09:35:20.444
90.0, -180068.64846571072, -82546.73570951649, -187500.02235174447, -187500.02235174447, -187500.02235174447, -187500.02235174447, -182431.71959301468, -180485.26263061317, 0.22, 0.98, 0.078, 192.0, 0.0, 0.0, 0.0, 0.0, 0.0, 0.0, 0.0, 0.0, 0.0, 1.7395365204448633E9, 0.0, 2025-02-14 09:35:20.444
91.0, -179948.28432181888, -82487.39182798765, -187500.02235174447, -187500.02235174447, -187500.02235174447, -187500.02235174447, -182529.95550989575, -180482.37925557845, 0.22, 0.98, 0.078, 192.0, 0.0, 0.0, 0.0, 0.0, 0.0, 0.0, 0.0, 0.0, 0.0, 1.7395365204448752E9, 0.0, 2025-02-14 09:35:20.444
92.0, -180036.4396019506, -82613.14274229322, -187500.02235174447, -187500.02235174447, -187500.02235174447, -187500.02235174447, -182529.7319924512, -180476.94778167582, 0.22, 0.98, 0.078, 192.0, 0.0, 0.0, 0.0, 0.0, 0.0, 0.0, 0.0, 0.0, 0.0, 1.739536520444887E9, 0.0, 2025-02-14 09:35:20.444
93.0, -180167.51023143652, -82770.9907616366, -187500.02235174447, -187500.02235174447, -187500.02235174447, -187500.02235174447, -182428.72445925768, -180480.03232241064, 0.22, 0.98, 0.078, 192.0, 0.0, 0.0, 0.0, 0.0, 0.0, 0.0, 0.0, 0.0, 0.0, 1.7395365204448988E9, 0.0, 2025-02-14 09:35:20.444
94.0, -180099.69503875912, -82749.55543870396, -187500.02235174447, -187500.02235174447, -187500.02235174447, -187500.02235174447, -182412.72061022767, -180480.9487439333, 0.22, 0.98, 0.078, 192.0, 0.0, 0.0, 0.0, 0.0, 0.0, 0.0, 0.0, 0.0, 0.0, 1.7395365204449103E9, 0.0, 2025-02-14 09:35:20.444
95.0, -179957.80616495683, -82669.17856564267, -187500.02235174447, -187500.02235174447, -187500.02235174447, -187500.02235174447, -182506.3297160065, -180485.97788643575, 0.22, 0.98, 0.078, 192.0, 0.0, 0.0, 0.0, 0.0, 0.0, 0.0, 0.0, 0.0, 0.0, 1.739536520444922E9, 0.0, 2025-02-14 09:35:20.444
96.0, -180006.01887774694, -82760.6866074427, -187500.02235174447, -187500.02235174447, -187500.02235174447, -187500.02235174447, -182537.97978615522, -180469.72816821674, 0.22, 0.98, 0.078, 192.0, 0.0, 0.0, 0.0, 0.0, 0.0, 0.0, 0.0, 0.0, 0.0, 1.739536520444934E9, 0.0, 2025-02-14 09:35:20.444
97.0, -180150.4111469282, -82930.76103100313, -187500.02235174447, -187500.02235174447, -187500.02235174447, -187500.02235174447, -182448.2598839116, -180488.90596495938, 0.22, 0.986, 0.076, 192.0, 6.0, 224.0, 30.0, 208.0, 2.0, 96.0, 0.0, 0.0, 0.0, 1.7395365204449456E9, 0.0, 2025-02-14 09:35:20.444
98.0, -180118.3140418904, -82941.10988868594, -187500.02235174447, -187500.02235174447, -187500.02235174447, -187500.02235174447, -182400.38244728834, -180489.71062775978, 0.22, 0.986, 0.076, 192.0, 0.0, 0.0, 0.0, 0.0, 0.0, 0.0, 0.0, 0.0, 0.0, 1.739536520444958E9, 0.0, 2025-02-14 09:35:20.444
99.0, -179983.39891235816, -82850.49591666412, -187500.02235174447, -187500.02235174447, -187500.02235174447, -187500.02235174447, -182492.18106176628, -180509.5142733472, 0.22, 0.986, 0.076, 192.0, 0.0, 0.0, 0.0, 0.0, 0.0, 0.0, 0.0, 0.0, 0.0, 1.7395365204449697E9, 0.0, 2025-02-14 09:35:20.444
100.0, -179999.71568581054, -82911.69499298275, -187500.02235174447, -187500.02235174447, -187500.02235174447, -187500.02235174447, -182555.57060904155, -180480.65817125537, 0.22, 0.986, 0.076, 192.0, 0.0, 0.0, 0.0, 0.0, 0.0, 0.0, 0.0, 0.0, 0.0, 1.739536520444981E9, 0.0, 2025-02-14 09:35:20.444
101.0, -180139.01175725603, -83091.82770154807, -187500.02235174447, -187500.02235174447, -187500.02235174447, -187500.02235174447, -182476.95952379223, -180498.8077877531, 0.22, 0.986, 0.076, 192.0, 0.0, 0.0, 0.0, 0.0, 0.0, 0.0, 0.0, 0.0, 0.0, 1.7395365204449935E9, 0.0, 2025-02-14 09:35:20.444
102.0, -180147.2148474711, -83137.51466721472, -187500.02235174447, -187500.02235174447, -187500.02235174447, -187500.02235174447, -182413.72643872816, -180495.4997295737, 0.22, 0.986, 0.076, 192.0, 0.0, 0.0, 0.0, 0.0, 0.0, 0.0, 0.0, 0.0, 0.0, 1.7395365204450047E9, 0.0, 2025-02-14 09:35:20.445
103.0, -180006.39885740267, -83043.9502649248, -187500.02235174447, -187500.02235174447, -187500.02235174447, -187500.02235174447, -182493.7680356226, -180522.1653607089, 0.22, 0.986, 0.076, 192.0, 0.0, 0.0, 0.0, 0.0, 0.0, 0.0, 0.0, 0.0, 0.0, 1.7395365204450166E9, 0.0, 2025-02-14 09:35:20.445
104.0, -179987.15400542665, -83064.93855296833, -187500.02235174447, -187500.02235174447, -187500.02235174447, -187500.02235174447, -182570.7474435267, -180485.86612771347, 0.22, 0.986, 0.076, 192.0, 0.0, 0.0, 0.0, 0.0, 0.0, 0.0, 0.0, 0.0, 0.0, 1.7395365204450288E9, 0.0, 2025-02-14 09:35:20.445
105.0, -180115.87770174476, -83239.12569750854, -187500.02235174447, -187500.02235174447, -187500.02235174447, -187500.02235174447, -182508.6319456854, -180503.27813664416, 0.22, 0.986, 0.076, 192.0, 0.0, 0.0, 0.0, 0.0, 0.0, 0.0, 0.0, 0.0, 0.0, 1.739536520445048E9, 0.0, 2025-02-14 09:35:20.445
106.0, -180160.93881856668, -83320.50839907031, -187500.02235174447, -187500.02235174447, -187500.02235174447, -187500.02235174447, -182430.49024706963, -180497.42197959687, 0.22, 0.986, 0.076, 192.0, 0.0, 0.0, 0.0, 0.0, 0.0, 0.0, 0.0, 0.0, 0.0, 1.73953652044506E9, 0.0, 2025-02-14 09:35:20.445
107.0, -180040.26175025248, -83237.02463352974, -187500.02235174447, -187500.02235174447, -187500.02235174447, -187500.02235174447, -182478.45709067074, -180523.2158926983, 0.22, 0.992, 0.082, 192.0, 6.0, 224.0, 31.0, 0.0, 2.0, 144.0, 0.0, 0.0, 0.0, 1.7395365204450731E9, 0.0, 2025-02-14 09:35:20.445
108.0, -179999.71568581054, -83226.65342410248, -187500.02235174447, -187500.02235174447, -187500.02235174447, -187500.02235174447, -182566.85823999147, -180496.63966854094, 0.22, 0.992, 0.082, 192.0, 0.0, 0.0, 0.0, 0.0, 0.0, 0.0, 0.0, 0.0, 0.0, 1.7395365204450855E9, 0.0, 2025-02-14 09:35:20.445
109.0, -180094.04004741192, -83389.41882722602, -187500.02235174447, -187500.02235174447, -187500.02235174447, -187500.02235174447, -182528.52499825062, -180509.04488671361, 0.22, 0.992, 0.082, 192.0, 0.0, 0.0, 0.0, 0.0, 0.0, 0.0, 0.0, 0.0, 0.0, 1.7395365204450977E9, 0.0, 2025-02-14 09:35:20.445
110.0, -180173.2322780171, -83502.13867451414, -187500.02235174447, -187500.02235174447, -187500.02235174447, -187500.02235174447, -182433.82065699348, -180505.6027180675, 0.22, 0.992, 0.082, 192.0, 0.0, 0.0, 0.0, 0.0, 0.0, 0.0, 0.0, 0.0, 0.0, 1.7395365204451091E9, 0.0, 2025-02-14 09:35:20.445
111.0, -180073.31998030187, -83434.52464753683, -187500.02235174447, -187500.02235174447, -187500.02235174447, -187500.02235174447, -182458.20641019422, -180526.07691598855, 0.22, 0.992, 0.082, 192.0, 0.0, 0.0, 0.0, 0.0, 0.0, 0.0, 0.0, 0.0, 0.0, 1.7395365204451263E9, 0.0, 2025-02-14 09:35:20.445
112.0, -180026.91775881266, -83389.50823420385, -187500.02235174447, -187500.02235174447, -187500.02235174447, -187500.02235174447, -182553.67071076285, -180508.2625756577, 0.22, 0.992, 0.082, 192.0, 0.0, 0.0, 0.0, 0.0, 0.0, 0.0, 0.0, 0.0, 0.0, 1.7395365204451427E9, 0.0, 2025-02-14 09:35:20.445
113.0, -180081.5454222614, -83530.14541031665, -187500.02235174447, -187500.02235174447, -187500.02235174447, -187500.02235174447, -182536.77279195463, -180506.22856691226, 0.22, 0.992, 0.082, 192.0, 0.0, 0.0, 0.0, 0.0, 0.0, 0.0, 0.0, 0.0, 0.0, 1.7395365204451544E9, 0.0, 2025-02-14 09:35:20.445
114.0, -180185.99512410106, -83670.29084805142, -187500.02235174447, -187500.02235174447, -187500.02235174447, -187500.02235174447, -182438.33570937347, -180505.17803492286, 0.22, 0.992, 0.082, 192.0, 0.0, 0.0, 0.0, 0.0, 0.0, 0.0, 0.0, 0.0, 0.0, 1.7395365204451663E9, 0.0, 2025-02-14 09:35:20.445
115.0, -180097.4598643136, -83627.15198125267, -187500.02235174447, -187500.02235174447, -187500.02235174447, -187500.02235174447, -182442.8060582645, -180525.42871539935, 0.22, 0.992, 0.082, 192.0, 0.0, 0.0, 0.0, 0.0, 0.0, 0.0, 0.0, 0.0, 0.0, 1.739536520445178E9, 0.0, 2025-02-14 09:35:20.445
116.0, -180015.69718309608, -83558.06273914131, -187500.02235174447, -187500.02235174447, -187500.02235174447, -187500.02235174447, -182542.42778330183, -180521.45010488632, 0.22, 0.992, 0.082, 192.0, 0.0, 0.0, 0.0, 0.0, 0.0, 0.0, 0.0, 0.0, 0.0, 1.7395365204451897E9, 0.0, 2025-02-14 09:35:20.445
117.0, -180063.12758483025, -83671.47549050755, -187500.02235174447, -187500.02235174447, -187500.02235174447, -187500.02235174447, -182555.72707125274, -180508.37433437997, 0.212, 0.988, 0.082, 192.0, 6.0, 160.0, 30.0, 224.0, 2.0, 144.0, 0.0, 0.0, 0.0, 1.7395365204452016E9, 0.0, 2025-02-14 09:35:20.445
118.0, -180186.84449039036, -83831.71514650765, -187500.02235174447, -187500.02235174447, -187500.02235174447, -187500.02235174447, -182466.70007308724, -180520.24311068573, 0.212, 0.988, 0.082, 192.0, 0.0, 0.0, 0.0, 0.0, 0.0, 0.0, 0.0, 0.0, 0.0, 1.7395365204452133E9, 0.0, 2025-02-14 09:35:20.445
119.0, -180132.01566124152, -83818.01352715654, -187500.02235174447, -187500.02235174447, -187500.02235174447, -187500.02235174447, -182440.9061599858, -180526.30043343312, 0.212, 0.988, 0.082, 192.0, 0.0, 0.0, 0.0, 0.0, 0.0, 0.0, 0.0, 0.0, 0.0, 1.7395365204452736E9, 0.0, 2025-02-14 09:35:20.445
120.0, -180029.86818908076, -83730.6629098252, -187500.02235174447, -187500.02235174447, -187500.02235174447, -187500.02235174447, -182527.1838935833, -180532.93890153634, 0.212, 0.988, 0.082, 192.0, 0.0, 0.0, 0.0, 0.0, 0.0, 0.0, 0.0, 0.0, 0.0, 1.7395365209236615E9, 0.0, 2025-02-14 09:35:20.923
121.0, -180040.3064537414, -83811.44211428668, -187500.02235174447, -187500.02235174447, -187500.02235174447, -187500.02235174447, -182559.41510908786, -180505.62506981197, 0.212, 0.988, 0.082, 192.0, 0.0, 0.0, 0.0, 0.0, 0.0, 0.0, 0.0, 0.0, 0.0, 1.739536520923744E9, 0.0, 2025-02-14 09:35:20.923
122.0, -180176.8756123633, -83985.02576172659, -187500.02235174447, -187500.02235174447, -187500.02235174447, -187500.02235174447, -182466.34244517595, -180525.58517761054, 0.212, 0.988, 0.082, 192.0, 0.0, 0.0, 0.0, 0.0, 0.0, 0.0, 0.0, 0.0, 0.0, 1.7395365209237747E9, 0.0, 2025-02-14 09:35:20.923
123.0, -180155.08266151938, -84005.79053232557, -187500.02235174447, -187500.02235174447, -187500.02235174447, -187500.02235174447, -182418.53206378606, -180520.5560351081, 0.212, 0.988, 0.082, 192.0, 0.0, 0.0, 0.0, 0.0, 0.0, 0.0, 0.0, 0.0, 0.0, 1.7395365209237967E9, 0.0, 2025-02-14 09:35:20.923
124.0, -180026.31426171237, -83916.31649927098, -187500.02235174447, -187500.02235174447, -187500.02235174447, -187500.02235174447, -182500.0265240701, -180537.83393357205, 0.212, 0.988, 0.082, 192.0, 0.0, 0.0, 0.0, 0.0, 0.0, 0.0, 0.0, 0.0, 0.0, 1.7395365209238112E9, 0.0, 2025-02-14 09:35:20.923
125.0, -180022.40270643268, -83966.54086906205, -187500.02235174447, -187500.02235174447, -187500.02235174447, -187500.02235174447, -182558.31987360955, -180509.42486636937, 0.212, 0.988, 0.082, 192.0, 0.0, 0.0, 0.0, 0.0, 0.0, 0.0, 0.0, 0.0, 0.0, 1.739536520923826E9, 0.0, 2025-02-14 09:35:20.923
126.0, -180162.88342033428, -84142.5608566476, -187500.02235174447, -187500.02235174447, -187500.02235174447, -187500.02235174447, -182489.074169287, -180539.44325917284, 0.212, 0.988, 0.082, 192.0, 0.0, 0.0, 0.0, 0.0, 0.0, 0.0, 0.0, 0.0, 0.0, 1.73953652092384E9, 0.0, 2025-02-14 09:35:20.923
127.0, -180179.0884350644, -84195.46743577332, -187500.02235174447, -187500.02235174447, -187500.02235174447, -187500.02235174447, -182417.302717841, -180534.23530271475, 0.2, 0.986, 0.082, 192.0, 6.0, 64.0, 30.0, 208.0, 2.0, 144.0, 0.0, 0.0, 0.0, 1.7395365209238536E9, 0.0, 2025-02-14 09:35:20.923
128.0, -180075.82337568086, -84102.7523997727, -187500.02235174447, -187500.02235174447, -187500.02235174447, -187500.02235174447, -182483.28506747307, -180552.07199479008, 0.2, 0.986, 0.082, 192.0, 0.0, 0.0, 0.0, 0.0, 0.0, 0.0, 0.0, 0.0, 0.0, 1.73953652092387E9, 0.0, 2025-02-14 09:35:20.923
129.0, -180050.36473874626, -84113.77180978916, -187500.02235174447, -187500.02235174447, -187500.02235174447, -187500.02235174447, -182556.7328997532, -180518.7678955517, 0.2, 0.986, 0.082, 192.0, 0.0, 0.0, 0.0, 0.0, 0.0, 0.0, 0.0, 0.0, 0.0, 1.7395365209238832E9, 0.0, 2025-02-14 09:35:20.923
130.0, -180149.94176029466, -84284.58384091662, -187500.02235174447, -187500.02235174447, -187500.02235174447, -187500.02235174447, -182504.832149128, -180531.6648521024, 0.2, 0.986, 0.082, 192.0, 0.0, 0.0, 0.0, 0.0, 0.0, 0.0, 0.0, 0.0, 0.0, 1.7395365209238963E9, 0.0, 2025-02-14 09:35:20.923
131.0, -180205.48584526608, -84373.67789431548, -187500.02235174447, -187500.02235174447, -187500.02235174447, -187500.02235174447, -182421.4601423097, -180527.9097590339, 0.2, 0.986, 0.082, 192.0, 0.0, 0.0, 0.0, 0.0, 0.0, 0.0, 0.0, 0.0, 0.0, 1.7395365209239094E9, 0.0, 2025-02-14 09:35:20.923
132.0, -180077.14212860374, -84294.73153289933, -187500.02235174447, -187500.02235174447, -187500.02235174447, -187500.02235174447, -182461.11213697342, -180552.85430584603, 0.2, 0.986, 0.082, 192.0, 0.0, 0.0, 0.0, 0.0, 0.0, 0.0, 0.0, 0.0, 0.0, 1.7395365209239223E9, 0.0, 2025-02-14 09:35:20.923
133.0, -180024.01203203347, -84274.92788731193, -187500.02235174447, -187500.02235174447, -187500.02235174447, -187500.02235174447, -182551.99432992868, -180524.4228868989, 0.2, 0.986, 0.082, 192.0, 0.0, 0.0, 0.0, 0.0, 0.0, 0.0, 0.0, 0.0, 0.0, 1.7395365209239354E9, 0.0, 2025-02-14 09:35:20.923
134.0, -180129.35580365133, -84428.99846184236, -187500.02235174447, -187500.02235174447, -187500.02235174447, -187500.02235174447, -182528.0332598726, -180536.13520099345, 0.2, 0.986, 0.082, 192.0, 0.0, 0.0, 0.0, 0.0, 0.0, 0.0, 0.0, 0.0, 0.0, 1.7395365209240043E9, 0.0, 2025-02-14 09:35:20.924
135.0, -180211.31965056894, -84548.2003150225, -187500.02235174447, -187500.02235174447, -187500.02235174447, -187500.02235174447, -182432.72542151518, -180550.82029710058, 0.2, 0.986, 0.082, 192.0, 0.0, 0.0, 0.0, 0.0, 0.0, 0.0, 0.0, 0.0, 0.0, 1.739536520924018E9, 0.0, 2025-02-14 09:35:20.924
136.0, -180106.266451629, -84492.63387830662, -187500.02235174447, -187500.02235174447, -187500.02235174447, -187500.02235174447, -182442.9625204757, -180558.8669251045, 0.2, 0.986, 0.082, 192.0, 0.0, 0.0, 0.0, 0.0, 0.0, 0.0, 0.0, 0.0, 0.0, 1.7395365209240315E9, 0.0, 2025-02-14 09:35:20.924
137.0, -180049.0459858234, -84445.49404925038, -187500.02235174447, -187500.02235174447, -187500.02235174447, -187500.02235174447, -182540.10320187846, -180536.4704771603, 0.20800000000000002, 0.984, 0.08, 192.0, 6.0, 128.0, 30.0, 192.0, 2.0, 128.0, 0.0, 0.0, 0.0, 1.7395365209240448E9, 0.0, 2025-02-14 09:35:20.924
138.0, -180116.03416395595, -84573.70365544602, -187500.02235174447, -187500.02235174447, -187500.02235174447, -187500.02235174447, -182545.37821356993, -180518.94670950732, 0.20800000000000002, 0.984, 0.08, 192.0, 0.0, 0.0, 0.0, 0.0, 0.0, 0.0, 0.0, 0.0, 0.0, 1.7395365209240592E9, 0.0, 2025-02-14 09:35:20.924
139.0, -180217.39932506077, -84716.4418955376, -187500.02235174447, -187500.02235174447, -187500.02235174447, -187500.02235174447, -182449.04219496754, -180555.5141634362, 0.20800000000000002, 0.984, 0.08, 192.0, 0.0, 0.0, 0.0, 0.0, 0.0, 0.0, 0.0, 0.0, 0.0, 1.7395365209240727E9, 0.0, 2025-02-14 09:35:20.924
140.0, -180133.60263509784, -84692.5925842038, -187500.02235174447, -187500.02235174447, -187500.02235174447, -187500.02235174447, -182427.6068720349, -180562.93494259537, 0.20800000000000002, 0.984, 0.08, 192.0, 0.0, 0.0, 0.0, 0.0, 0.0, 0.0, 0.0, 0.0, 0.0, 1.7395365209240859E9, 0.0, 2025-02-14 09:35:20.924
141.0, -180016.233624963, -84629.4265543731, -187500.02235174447, -187500.02235174447, -187500.02235174447, -187500.02235174447, -182522.02064061412, -180544.04771853064, 0.20800000000000002, 0.984, 0.08, 192.0, 0.0, 0.0, 0.0, 0.0, 0.0, 0.0, 0.0, 0.0, 0.0, 1.7395365209240987E9, 0.0, 2025-02-14 09:35:20.924
142.0, -180087.71450373108, -84727.1483811317, -187500.02235174447, -187500.02235174447, -187500.02235174447, -187500.02235174447, -182568.06523419206, -180500.1041889315, 0.20800000000000002, 0.984, 0.08, 192.0, 0.0, 0.0, 0.0, 0.0, 0.0, 0.0, 0.0, 0.0, 0.0, 1.7395365209241116E9, 0.0, 2025-02-14 09:35:20.924
143.0, -180211.99020290258, -84884.14703418578, -187500.02235174447, -187500.02235174447, -187500.02235174447, -187500.02235174447, -182474.47848015768, -180551.11086977852, 0.20800000000000002, 0.984, 0.08, 192.0, 0.0, 0.0, 0.0, 0.0, 0.0, 0.0, 0.0, 0.0, 0.0, 1.7395365209241247E9, 0.0, 2025-02-14 09:35:20.924
144.0, -180156.8260975869, -84890.1820051887, -187500.02235174447, -187500.02235174447, -187500.02235174447, -187500.02235174447, -182410.3513253154, -180568.9252101094, 0.20800000000000002, 0.984, 0.08, 192.0, 0.0, 0.0, 0.0, 0.0, 0.0, 0.0, 0.0, 0.0, 0.0, 1.7395365209241378E9, 0.0, 2025-02-14 09:35:20.924
145.0, -180047.6601776672, -84816.68946941967, -187500.02235174447, -187500.02235174447, -187500.02235174447, -187500.02235174447, -182485.00615179614, -180557.4140617149, 0.20800000000000002, 0.984, 0.08, 192.0, 0.0, 0.0, 0.0, 0.0, 0.0, 0.0, 0.0, 0.0, 0.0, 1.739536520924151E9, 0.0, 2025-02-14 09:35:20.924
146.0, -180074.68343671365, -84880.16842367273, -187500.02235174447, -187500.02235174447, -187500.02235174447, -187500.02235174447, -182556.6434927754, -180493.10809291698, 0.20800000000000002, 0.984, 0.08, 192.0, 0.0, 0.0, 0.0, 0.0, 0.0, 0.0, 0.0, 0.0, 0.0, 1.739536520924164E9, 0.0, 2025-02-14 09:35:20.924
147.0, -180202.17778708672, -85041.88329480687, -187500.02235174447, -187500.02235174447, -187500.02235174447, -187500.02235174447, -182492.69515188877, -180544.29358771964, 0.20800000000000002, 0.986, 0.08, 192.0, 6.0, 128.0, 30.0, 208.0, 2.0, 128.0, 0.0, 0.0, 0.0, 1.7395365209241767E9, 0.0, 2025-02-14 09:35:20.924
148.0, -180181.8824031213, -85079.09894932497, -187500.02235174447, -187500.02235174447, -187500.02235174447, -187500.02235174447, -182412.78766546104, -180575.876602635, 0.20800000000000002, 0.986, 0.08, 192.0, 0.0, 0.0, 0.0, 0.0, 0.0, 0.0, 0.0, 0.0, 0.0, 1.7395365209241903E9, 0.0, 2025-02-14 09:35:20.924
149.0, -180043.68156715413, -85002.83479724346, -187500.02235174447, -187500.02235174447, -187500.02235174447, -187500.02235174447, -182471.48334640067, -180567.0700153196, 0.20800000000000002, 0.986, 0.08, 192.0, 0.0, 0.0, 0.0, 0.0, 0.0, 0.0, 0.0, 0.0, 0.0, 1.7395365209242105E9, 0.0, 2025-02-14 09:35:20.924
150.0, -180046.76610788895, -85037.01061451562, -187500.02235174447, -187500.02235174447, -187500.02235174447, -187500.02235174447, -182557.67167302035, -180499.2548226422, 0.20800000000000002, 0.986, 0.08, 192.0, 0.0, 0.0, 0.0, 0.0, 0.0, 0.0, 0.0, 0.0, 0.0, 1.739536520924224E9, 0.0, 2025-02-14 09:35:20.924
151.0, -180183.46937697762, -85198.63607867195, -187500.02235174447, -187500.02235174447, -187500.02235174447, -187500.02235174447, -182505.9273846063, -180537.49865740523, 0.20800000000000002, 0.986, 0.08, 192.0, 0.0, 0.0, 0.0, 0.0, 0.0, 0.0, 0.0, 0.0, 0.0, 1.7395365209242373E9, 0.0, 2025-02-14 09:35:20.924
152.0, -180194.9805253721, -85266.54067832718, -187500.02235174447, -187500.02235174447, -187500.02235174447, -187500.02235174447, -182409.63606949284, -180582.13509108248, 0.20800000000000002, 0.986, 0.08, 192.0, 0.0, 0.0, 0.0, 0.0, 0.0, 0.0, 0.0, 0.0, 0.0, 1.7395365209242501E9, 0.0, 2025-02-14 09:35:20.924
153.0, -180094.93411719016, -85196.33384899305, -187500.02235174447, -187500.02235174447, -187500.02235174447, -187500.02235174447, -182443.94599723173, -180581.91157363792, 0.20800000000000002, 0.986, 0.08, 192.0, 0.0, 0.0, 0.0, 0.0, 0.0, 0.0, 0.0, 0.0, 0.0, 1.739536520924263E9, 0.0, 2025-02-14 09:35:20.924
154.0, -180067.3520645323, -85196.60206992652, -187500.02235174447, -187500.02235174447, -187500.02235174447, -187500.02235174447, -182542.42778330183, -180515.0575059721, 0.20800000000000002, 0.986, 0.08, 192.0, 0.0, 0.0, 0.0, 0.0, 0.0, 0.0, 0.0, 0.0, 0.0, 1.739536520924276E9, 0.0, 2025-02-14 09:35:20.924
155.0, -180170.281847749, -85347.25282755529, -187500.02235174447, -187500.02235174447, -187500.02235174447, -187500.02235174447, -182527.8320941725, -180524.73581132124, 0.20800000000000002, 0.986, 0.08, 192.0, 0.0, 0.0, 0.0, 0.0, 0.0, 0.0, 0.0, 0.0, 0.0, 1.7395365209242892E9, 0.0, 2025-02-14 09:35:20.924
156.0, -180217.62284250534, -85445.10876478061, -187500.02235174447, -187500.02235174447, -187500.02235174447, -187500.02235174447, -182427.6962790127, -180586.13605334, 0.20800000000000002, 0.986, 0.08, 192.0, 0.0, 0.0, 0.0, 0.0, 0.0, 0.0, 0.0, 0.0, 0.0, 1.739536520924302E9, 0.0, 2025-02-14 09:35:20.924
157.0, -180099.22565212558, -85387.68713327493, -187500.02235174447, -187500.02235174447, -187500.02235174447, -187500.02235174447, -182439.25213089611, -180592.5286522542, 0.22, 0.99, 0.084, 192.0, 6.0, 224.0, 30.0, 240.0, 2.0, 160.0, 0.0, 0.0, 0.0, 1.7395365209243152E9, 0.0, 2025-02-14 09:35:20.924
158.0, -180053.58338994783, -85360.28389457273, -187500.02235174447, -187500.02235174447, -187500.02235174447, -187500.02235174447, -182548.55216128257, -180534.39176492594, 0.22, 0.99, 0.084, 192.0, 0.0, 0.0, 0.0, 0.0, 0.0, 0.0, 0.0, 0.0, 0.0, 1.7395365209243288E9, 0.0, 2025-02-14 09:35:20.924
159.0, -180147.93010329368, -85490.39339904707, -187500.02235174447, -187500.02235174447, -187500.02235174447, -187500.02235174447, -182560.10801316597, -180517.09151471753, 0.22, 0.99, 0.084, 192.0, 0.0, 0.0, 0.0, 0.0, 0.0, 0.0, 0.0, 0.0, 0.0, 1.7395365209243417E9, 0.0, 2025-02-14 09:35:20.924
160.0, -180219.031002406, -85608.14238883763, -187500.02235174447, -187500.02235174447, -187500.02235174447, -187500.02235174447, -182454.98775899265, -180598.3848093015, 0.22, 0.99, 0.084, 192.0, 0.0, 0.0, 0.0, 0.0, 0.0, 0.0, 0.0, 0.0, 0.0, 1.7395365209243543E9, 0.0, 2025-02-14 09:35:20.924
161.0, -180139.45879214513, -85568.42333894054, -187500.02235174447, -187500.02235174447, -187500.02235174447, -187500.02235174447, -182434.87118898288, -180604.46448379333, 0.22, 0.99, 0.084, 192.0, 0.0, 0.0, 0.0, 0.0, 0.0, 0.0, 0.0, 0.0, 0.0, 1.7395365209243677E9, 0.0, 2025-02-14 09:35:20.924
162.0, -180095.29174510142, -85514.01919293634, -187500.02235174447, -187500.02235174447, -187500.02235174447, -187500.02235174447, -182531.52013200763, -180556.29647449215, 0.22, 0.99, 0.084, 192.0, 0.0, 0.0, 0.0, 0.0, 0.0, 0.0, 0.0, 0.0, 0.0, 1.7395365209243805E9, 0.0, 2025-02-14 09:35:20.924
163.0, -180131.27805367447, -85620.72642096596, -187500.02235174447, -187500.02235174447, -187500.02235174447, -187500.02235174447, -182564.7795277571, -180509.49192160272, 0.22, 0.99, 0.084, 192.0, 0.0, 0.0, 0.0, 0.0, 0.0, 0.0, 0.0, 0.0, 0.0, 1.7395365209243937E9, 0.0, 2025-02-14 09:35:20.924
164.0, -180230.05041242248, -85761.18478312311, -187500.02235174447, -187500.02235174447, -187500.02235174447, -187500.02235174447, -182466.76712832061, -180589.31000105263, 0.22, 0.99, 0.084, 192.0, 0.0, 0.0, 0.0, 0.0, 0.0, 0.0, 0.0, 0.0, 0.0, 1.7395365209244132E9, 0.0, 2025-02-14 09:35:20.924
165.0, -180156.9602080536, -85747.08083237182, -187500.02235174447, -187500.02235174447, -187500.02235174447, -187500.02235174447, -182415.24635735113, -180608.7783704732, 0.22, 0.99, 0.084, 192.0, 0.0, 0.0, 0.0, 0.0, 0.0, 0.0, 0.0, 0.0, 0.0, 1.7395365209244263E9, 0.0, 2025-02-14 09:35:20.924
166.0, -180107.42874234068, -85677.25398269344, -187500.02235174447, -187500.02235174447, -187500.02235174447, -187500.02235174447, -182500.45120721476, -180572.4120822444, 0.22, 0.99, 0.084, 192.0, 0.0, 0.0, 0.0, 0.0, 0.0, 0.0, 0.0, 0.0, 0.0, 1.7395365209244392E9, 0.0, 2025-02-14 09:35:20.924
167.0, -180130.07105947388, -85755.97682666504, -187500.02235174447, -187500.02235174447, -187500.02235174447, -187500.02235174447, -182554.7882979856, -180505.53566283415, 0.21, 0.986, 0.08600000000000001, 192.0, 6.0, 144.0, 30.0, 208.0, 2.0, 176.0, 0.0, 0.0, 0.0, 1.7395365209244523E9, 0.0, 2025-02-14 09:35:20.924
168.0, -180232.7996769905, -85908.23690989458, -187500.02235174447, -187500.02235174447, -187500.02235174447, -187500.02235174447, -182472.51152664563, -180586.13605334, 0.21, 0.986, 0.08600000000000001, 192.0, 0.0, 0.0, 0.0, 0.0, 0.0, 0.0, 0.0, 0.0, 0.0, 1.7395365209244735E9, 0.0, 2025-02-14 09:35:20.924
169.0, -180185.8386618899, -85920.9774042341, -187500.02235174447, -187500.02235174447, -187500.02235174447, -187500.02235174447, -182401.92471765575, -180619.06017292265, 0.21, 0.986, 0.08600000000000001, 192.0, 0.0, 0.0, 0.0, 0.0, 0.0, 0.0, 0.0, 0.0, 0.0, 1.739536520924487E9, 0.0, 2025-02-14 09:35:20.924
170.0, -180098.8680242143, -85842.67924340717, -187500.02235174447, -187500.02235174447, -187500.02235174447, -187500.02235174447, -182467.23651495416, -180594.0709226216, 0.21, 0.986, 0.08600000000000001, 192.0, 0.0, 0.0, 0.0, 0.0, 0.0, 0.0, 0.0, 0.0, 0.0, 1.7395365209245002E9, 0.0, 2025-02-14 09:35:20.924
171.0, -180101.1702538932, -85892.18835737566, -187500.02235174447, -187500.02235174447, -187500.02235174447, -187500.02235174447, -182545.60173101447, -180515.8621687725, 0.21, 0.986, 0.08600000000000001, 192.0, 0.0, 0.0, 0.0, 0.0, 0.0, 0.0, 0.0, 0.0, 0.0, 1.739536520924513E9, 0.0, 2025-02-14 09:35:20.924
172.0, -180220.5285692845, -86050.61752207488, -187500.02235174447, -187500.02235174447, -187500.02235174447, -187500.02235174447, -182488.18009950878, -180571.74152991077, 0.21, 0.986, 0.08600000000000001, 192.0, 0.0, 0.0, 0.0, 0.0, 0.0, 0.0, 0.0, 0.0, 0.0, 1.7395365209245262E9, 0.0, 2025-02-14 09:35:20.924
173.0, -180207.05046737797, -86096.63976390836, -187500.02235174447, -187500.02235174447, -187500.02235174447, -187500.02235174447, -182397.83434842044, -180619.10487641155, 0.21, 0.986, 0.08600000000000001, 192.0, 0.0, 0.0, 0.0, 0.0, 0.0, 0.0, 0.0, 0.0, 0.0, 1.7395365209245393E9, 0.0, 2025-02-14 09:35:20.924
174.0, -180147.2148474711, -86020.53207403804, -187500.02235174447, -187500.02235174447, -187500.02235174447, -187500.02235174447, -182438.7603925181, -180611.90761469695, 0.21, 0.986, 0.08600000000000001, 192.0, 0.0, 0.0, 0.0, 0.0, 0.0, 0.0, 0.0, 0.0, 0.0, 1.7395365209245524E9, 0.0, 2025-02-14 09:35:20.924
175.0, -180127.27709141697, -86038.72639402466, -187500.02235174447, -187500.02235174447, -187500.02235174447, -187500.02235174447, -182539.36559431144, -180530.83783755754, 0.21, 0.986, 0.08600000000000001, 192.0, 0.0, 0.0, 0.0, 0.0, 0.0, 0.0, 0.0, 0.0, 0.0, 1.7395365209245653E9, 0.0, 2025-02-14 09:35:20.924
176.0, -180214.5383017705, -86192.90872727738, -187500.02235174447, -187500.02235174447, -187500.02235174447, -187500.02235174447, -182504.56392819452, -180562.57731468408, 0.21, 0.986, 0.08600000000000001, 192.0, 0.0, 0.0, 0.0, 0.0, 0.0, 0.0, 0.0, 0.0, 0.0, 1.7395365209245784E9, 0.0, 2025-02-14 09:35:20.924
177.0, -180232.35264210138, -86269.12817586996, -187500.02235174447, -187500.02235174447, -187500.02235174447, -187500.02235174447, -182399.95776414368, -180625.8327514926, 0.20800000000000002, 0.98, 0.08600000000000001, 192.0, 6.0, 128.0, 30.0, 160.0, 2.0, 176.0, 0.0, 0.0, 0.0, 1.7395365209245913E9, 0.0, 2025-02-14 09:35:20.924
178.0, -180133.17795195317, -86202.20705297079, -187500.02235174447, -187500.02235174447, -187500.02235174447, -187500.02235174447, -182423.29298535504, -180619.70837351185, 0.20800000000000002, 0.98, 0.08600000000000001, 192.0, 0.0, 0.0, 0.0, 0.0, 0.0, 0.0, 0.0, 0.0, 0.0, 1.739536520924605E9, 0.0, 2025-02-14 09:35:20.924
179.0, -180104.47831207258, -86193.37811391093, -187500.02235174447, -187500.02235174447, -187500.02235174447, -187500.02235174447, -182526.44628601626, -180549.14391626645, 0.20800000000000002, 0.98, 0.08600000000000001, 192.0, 0.0, 0.0, 0.0, 0.0, 0.0, 0.0, 0.0, 0.0, 0.0, 1.739536520924625E9, 0.0, 2025-02-14 09:35:20.924
180.0, -180200.79197893047, -86337.21158948084, -187500.02235174447, -187500.02235174447, -187500.02235174447, -187500.02235174447, -182517.61734695642, -180554.03894830216, 0.20800000000000002, 0.98, 0.08600000000000001, 192.0, 0.0, 0.0, 0.0, 0.0, 0.0, 0.0, 0.0, 0.0, 0.0, 1.7395365209246387E9, 0.0, 2025-02-14 09:35:20.924
181.0, -180255.1961249347, -86440.92368375346, -187500.02235174447, -187500.02235174447, -187500.02235174447, -187500.02235174447, -182413.48056953916, -180630.86189399505, 0.20800000000000002, 0.98, 0.08600000000000001, 192.0, 0.0, 0.0, 0.0, 0.0, 0.0, 0.0, 0.0, 0.0, 0.0, 1.7395365209246516E9, 0.0, 2025-02-14 09:35:20.924
182.0, -180142.63273985777, -86390.49814826228, -187500.02235174447, -187500.02235174447, -187500.02235174447, -187500.02235174447, -182410.48543578215, -180636.6286440645, 0.20800000000000002, 0.98, 0.08600000000000001, 192.0, 0.0, 0.0, 0.0, 0.0, 0.0, 0.0, 0.0, 0.0, 0.0, 1.7395365209246647E9, 0.0, 2025-02-14 09:35:20.924
183.0, -180092.72129448908, -86358.24458101328, -187500.02235174447, -187500.02235174447, -187500.02235174447, -187500.02235174447, -182508.76605615212, -180577.64239044697, 0.20800000000000002, 0.98, 0.08600000000000001, 192.0, 0.0, 0.0, 0.0, 0.0, 0.0, 0.0, 0.0, 0.0, 0.0, 1.739536520924678E9, 0.0, 2025-02-14 09:35:20.924
184.0, -180182.8882316218, -86484.04019880775, -187500.02235174447, -187500.02235174447, -187500.02235174447, -187500.02235174447, -182523.7864284261, -180548.60747439953, 0.20800000000000002, 0.98, 0.08600000000000001, 192.0, 0.0, 0.0, 0.0, 0.0, 0.0, 0.0, 0.0, 0.0, 0.0, 1.7395365209246914E9, 0.0, 2025-02-14 09:35:20.924
185.0, -180265.18735470623, -86612.56272942576, -187500.02235174447, -187500.02235174447, -187500.02235174447, -187500.02235174447, -182421.23662486515, -180638.95322548787, 0.20800000000000002, 0.98, 0.08600000000000001, 192.0, 0.0, 0.0, 0.0, 0.0, 0.0, 0.0, 0.0, 0.0, 0.0, 1.7395365209247046E9, 0.0, 2025-02-14 09:35:20.924
186.0, -180175.19923152914, -86583.17018546704, -187500.02235174447, -187500.02235174447, -187500.02235174447, -187500.02235174447, -182393.34164778492, -180650.1961529489, 0.20800000000000002, 0.98, 0.08600000000000001, 192.0, 0.0, 0.0, 0.0, 0.0, 0.0, 0.0, 0.0, 0.0, 0.0, 1.7395365209247174E9, 0.0, 2025-02-14 09:35:20.924
187.0, -180121.68915530315, -86529.72716447439, -187500.02235174447, -187500.02235174447, -187500.02235174447, -187500.02235174447, -182498.50660544712, -180604.37507681552, 0.20400000000000001, 0.982, 0.088, 192.0, 6.0, 96.0, 30.0, 176.0, 2.0, 192.0, 0.0, 0.0, 0.0, 1.7395365209247305E9, 0.0, 2025-02-14 09:35:20.924
188.0, -180179.5354699535, -86633.28279653583, -187500.02235174447, -187500.02235174447, -187500.02235174447, -187500.02235174447, -182546.96518742625, -180549.99328255575, 0.20400000000000001, 0.982, 0.088, 192.0, 0.0, 0.0, 0.0, 0.0, 0.0, 0.0, 0.0, 0.0, 0.0, 1.7395365209247444E9, 0.0, 2025-02-14 09:35:20.924
189.0, -180280.23007872465, -86781.78778669689, -187500.02235174447, -187500.02235174447, -187500.02235174447, -187500.02235174447, -182457.9158375163, -180620.22246363433, 0.20400000000000001, 0.982, 0.088, 192.0, 0.0, 0.0, 0.0, 0.0, 0.0, 0.0, 0.0, 0.0, 0.0, 1.7395365209247577E9, 0.0, 2025-02-14 09:35:20.924
190.0, -180210.31382206845, -86781.69837971908, -187500.02235174447, -187500.02235174447, -187500.02235174447, -187500.02235174447, -182402.39410428933, -180647.26807442523, 0.20400000000000001, 0.982, 0.088, 192.0, 0.0, 0.0, 0.0, 0.0, 0.0, 0.0, 0.0, 0.0, 0.0, 1.7395365209247704E9, 0.0, 2025-02-14 09:35:20.924
191.0, -180090.3073060879, -86715.69367834255, -187500.02235174447, -187500.02235174447, -187500.02235174447, -187500.02235174447, -182486.570773908, -180615.59565253207, 0.20400000000000001, 0.982, 0.088, 192.0, 0.0, 0.0, 0.0, 0.0, 0.0, 0.0, 0.0, 0.0, 0.0, 1.7395365209247835E9, 0.0, 2025-02-14 09:35:20.924
192.0, -180142.69979509115, -86789.72265597852, -187500.02235174447, -187500.02235174447, -187500.02235174447, -187500.02235174447, -182546.85342870397, -180544.78532609766, 0.20400000000000001, 0.982, 0.088, 192.0, 0.0, 0.0, 0.0, 0.0, 0.0, 0.0, 0.0, 0.0, 0.0, 1.7395365209247963E9, 0.0, 2025-02-14 09:35:20.924
193.0, -180267.66839834076, -86946.02840495449, -187500.02235174447, -187500.02235174447, -187500.02235174447, -187500.02235174447, -182466.74477657615, -180616.84735022156, 0.20400000000000001, 0.982, 0.088, 192.0, 0.0, 0.0, 0.0, 0.0, 0.0, 0.0, 0.0, 0.0, 0.0, 1.739536520924816E9, 0.0, 2025-02-14 09:35:20.924
194.0, -180230.65390952278, -86970.68237908868, -187500.02235174447, -187500.02235174447, -187500.02235174447, -187500.02235174447, -182387.64195294882, -180655.38175766252, 0.20400000000000001, 0.982, 0.088, 192.0, 0.0, 0.0, 0.0, 0.0, 0.0, 0.0, 0.0, 0.0, 0.0, 1.739536520924829E9, 0.0, 2025-02-14 09:35:20.924
195.0, -180140.46462064562, -86896.3628287748, -187500.02235174447, -187500.02235174447, -187500.02235174447, -187500.02235174447, -182460.95567476223, -180634.79580101918, 0.20400000000000001, 0.982, 0.088, 192.0, 0.0, 0.0, 0.0, 0.0, 0.0, 0.0, 0.0, 0.0, 0.0, 1.739536520924842E9, 0.0, 2025-02-14 09:35:20.924
196.0, -180153.74155685207, -86939.38993685126, -187500.02235174447, -187500.02235174447, -187500.02235174447, -187500.02235174447, -182545.89230369238, -180557.10113729254, 0.20400000000000001, 0.982, 0.088, 192.0, 0.0, 0.0, 0.0, 0.0, 0.0, 0.0, 0.0, 0.0, 0.0, 1.739536520924855E9, 0.0, 2025-02-14 09:35:20.924
197.0, -180267.24371519612, -87097.01443875009, -187500.02235174447, -187500.02235174447, -187500.02235174447, -187500.02235174447, -182493.09748328896, -180607.81724546163, 0.21, 0.986, 0.088, 192.0, 6.0, 144.0, 30.0, 208.0, 2.0, 192.0, 0.0, 0.0, 0.0, 1.739536520924868E9, 0.0, 2025-02-14 09:35:20.924
198.0, -180263.37686340534, -87154.41371851132, -187500.02235174447, -187500.02235174447, -187500.02235174447, -187500.02235174447, -182401.79060718903, -180659.3380164311, 0.21, 0.986, 0.088, 192.0, 0.0, 0.0, 0.0, 0.0, 0.0, 0.0, 0.0, 0.0, 0.0, 1.7395365209248817E9, 0.0, 2025-02-14 09:35:20.924
199.0, -180128.6181960843, -87085.16801418878, -187500.02235174447, -187500.02235174447, -187500.02235174447, -187500.02235174447, -182450.3162444015, -180648.0950889701, 0.21, 0.986, 0.088, 192.0, 0.0, 0.0, 0.0, 0.0, 0.0, 0.0, 0.0, 0.0, 0.0, 1.739536520924895E9, 0.0, 2025-02-14 09:35:20.924
200.0, -180113.39665811023, -87099.92016552927, -187500.02235174447, -187500.02235174447, -187500.02235174447, -187500.02235174447, -182547.14400138188, -180570.40042524345, 0.21, 0.986, 0.088, 192.0, 0.0, 0.0, 0.0, 0.0, 0.0, 0.0, 0.0, 0.0, 0.0, 1.739536520924908E9, 0.0, 2025-02-14 09:35:20.924
201.0, -180245.58487481892, -87255.51065868267, -187500.02235174447, -187500.02235174447, -187500.02235174447, -187500.02235174447, -182520.8807016469, -180596.0825796226, 0.21, 0.986, 0.088, 192.0, 0.0, 0.0, 0.0, 0.0, 0.0, 0.0, 0.0, 0.0, 0.0, 1.739536520924921E9, 0.0, 2025-02-14 09:35:20.924
202.0, -180277.03377926754, -87342.70481380282, -187500.02235174447, -187500.02235174447, -187500.02235174447, -187500.02235174447, -182422.37656383237, -180665.1047665006, 0.21, 0.986, 0.088, 192.0, 0.0, 0.0, 0.0, 0.0, 0.0, 0.0, 0.0, 0.0, 0.0, 1.739536520924934E9, 0.0, 2025-02-14 09:35:20.924
203.0, -180158.05544353195, -87283.18211831833, -187500.02235174447, -187500.02235174447, -187500.02235174447, -187500.02235174447, -182442.49313384213, -180665.93178104542, 0.21, 0.986, 0.088, 192.0, 0.0, 0.0, 0.0, 0.0, 0.0, 0.0, 0.0, 0.0, 0.0, 1.739536520924947E9, 0.0, 2025-02-14 09:35:20.924
204.0, -180133.17795195317, -87271.31334201257, -187500.02235174447, -187500.02235174447, -187500.02235174447, -187500.02235174447, -182537.73391696622, -180597.26722207872, 0.21, 0.986, 0.088, 192.0, 0.0, 0.0, 0.0, 0.0, 0.0, 0.0, 0.0, 0.0, 0.0, 1.73953652092496E9, 0.0, 2025-02-14 09:35:20.924
205.0, -180238.3429096154, -87412.71047743685, -187500.02235174447, -187500.02235174447, -187500.02235174447, -187500.02235174447, -182533.35297505296, -180589.3323527971, 0.21, 0.986, 0.088, 192.0, 0.0, 0.0, 0.0, 0.0, 0.0, 0.0, 0.0, 0.0, 0.0, 1.7395365209249728E9, 0.0, 2025-02-14 09:35:20.924
206.0, -180299.72079988968, -87526.27969101426, -187500.02235174447, -187500.02235174447, -187500.02235174447, -187500.02235174447, -182429.32795635797, -180667.87638281303, 0.21, 0.986, 0.088, 192.0, 0.0, 0.0, 0.0, 0.0, 0.0, 0.0, 0.0, 0.0, 0.0, 1.739536520924986E9, 0.0, 2025-02-14 09:35:20.924
207.0, -180189.7278654251, -87482.31380967067, -187500.02235174447, -187500.02235174447, -187500.02235174447, -187500.02235174447, -182419.80611322, -180672.5478974042, 0.212, 0.986, 0.09, 192.0, 6.0, 160.0, 30.0, 208.0, 2.0, 208.0, 0.0, 0.0, 0.0, 1.7395365209249988E9, 0.0, 2025-02-14 09:35:20.924
208.0, -180131.68038507467, -87441.45482080636, -187500.02235174447, -187500.02235174447, -187500.02235174447, -187500.02235174447, -182522.2441580587, -180610.72297224082, 0.212, 0.986, 0.09, 192.0, 0.0, 0.0, 0.0, 0.0, 0.0, 0.0, 0.0, 0.0, 0.0, 1.7395365209250193E9, 0.0, 2025-02-14 09:35:20.925
209.0, -180217.35462157187, -87559.78495595277, -187500.02235174447, -187500.02235174447, -187500.02235174447, -187500.02235174447, -182548.61921651594, -180575.1166433235, 0.212, 0.986, 0.09, 192.0, 0.0, 0.0, 0.0, 0.0, 0.0, 0.0, 0.0, 0.0, 0.0, 1.739536520925032E9, 0.0, 2025-02-14 09:35:20.925
210.0, -180303.67705865827, -87692.3978558061, -187500.02235174447, -187500.02235174447, -187500.02235174447, -187500.02235174447, -182448.34929088943, -180667.02701652373, 0.212, 0.986, 0.09, 192.0, 0.0, 0.0, 0.0, 0.0, 0.0, 0.0, 0.0, 0.0, 0.0, 1.7395365209250453E9, 0.0, 2025-02-14 09:35:20.925
211.0, -180219.12040938385, -87670.91782938455, -187500.02235174447, -187500.02235174447, -187500.02235174447, -187500.02235174447, -182405.97038340216, -180684.26021149877, 0.212, 0.986, 0.09, 192.0, 0.0, 0.0, 0.0, 0.0, 0.0, 0.0, 0.0, 0.0, 0.0, 1.739536520925058E9, 0.0, 2025-02-14 09:35:20.925
212.0, -180160.6258941443, -87613.16092171204, -187500.02235174447, -187500.02235174447, -187500.02235174447, -187500.02235174447, -182502.68638166029, -180638.79676327668, 0.212, 0.986, 0.09, 192.0, 0.0, 0.0, 0.0, 0.0, 0.0, 0.0, 0.0, 0.0, 0.0, 1.7395365209250708E9, 0.0, 2025-02-14 09:35:20.925
213.0, -180210.24676683507, -87707.70880075799, -187500.02235174447, -187500.02235174447, -187500.02235174447, -187500.02235174447, -182553.3801380849, -180577.93296312488, 0.212, 0.986, 0.09, 192.0, 0.0, 0.0, 0.0, 0.0, 0.0, 0.0, 0.0, 0.0, 0.0, 1.739536520925084E9, 0.0, 2025-02-14 09:35:20.925
214.0, -180313.0200878406, -87855.67734905212, -187500.02235174447, -187500.02235174447, -187500.02235174447, -187500.02235174447, -182467.32592193197, -180661.97552227683, 0.212, 0.986, 0.09, 192.0, 0.0, 0.0, 0.0, 0.0, 0.0, 0.0, 0.0, 0.0, 0.0, 1.7395365209250968E9, 0.0, 2025-02-14 09:35:20.925
215.0, -180249.0940986984, -87860.12534619872, -187500.02235174447, -187500.02235174447, -187500.02235174447, -187500.02235174447, -182403.53404325654, -180693.31266800317, 0.212, 0.986, 0.09, 192.0, 0.0, 0.0, 0.0, 0.0, 0.0, 0.0, 0.0, 0.0, 0.0, 1.7395365209251096E9, 0.0, 2025-02-14 09:35:20.925
216.0, -180146.45488815964, -87789.35972325322, -187500.02235174447, -187500.02235174447, -187500.02235174447, -187500.02235174447, -182480.33463720497, -180660.41090016495, 0.212, 0.986, 0.09, 192.0, 0.0, 0.0, 0.0, 0.0, 0.0, 0.0, 0.0, 0.0, 0.0, 1.7395365209251225E9, 0.0, 2025-02-14 09:35:20.925
217.0, -180188.92320262472, -87852.48104959501, -187500.02235174447, -187500.02235174447, -187500.02235174447, -187500.02235174447, -182557.60461778697, -180580.83868990408, 0.216, 0.988, 0.092, 192.0, 6.0, 192.0, 30.0, 224.0, 2.0, 224.0, 0.0, 0.0, 0.0, 1.739536520925141E9, 0.0, 2025-02-14 09:35:20.925
218.0, -180304.12409354738, -88007.93743228167, -187500.02235174447, -187500.02235174447, -187500.02235174447, -187500.02235174447, -182488.18009950878, -180646.9327982584, 0.216, 0.988, 0.092, 192.0, 0.0, 0.0, 0.0, 0.0, 0.0, 0.0, 0.0, 0.0, 0.0, 1.739536520925155E9, 0.0, 2025-02-14 09:35:20.925
219.0, -180273.99394202163, -88041.88973210928, -187500.02235174447, -187500.02235174447, -187500.02235174447, -187500.02235174447, -182403.95872640118, -180693.67029591446, 0.216, 0.988, 0.092, 192.0, 0.0, 0.0, 0.0, 0.0, 0.0, 0.0, 0.0, 0.0, 0.0, 1.739536520925168E9, 0.0, 2025-02-14 09:35:20.925
220.0, -180157.519001665, -87969.06774867389, -187500.02235174447, -187500.02235174447, -187500.02235174447, -187500.02235174447, -182464.08491898596, -180677.44292943992, 0.216, 0.988, 0.092, 192.0, 0.0, 0.0, 0.0, 0.0, 0.0, 0.0, 0.0, 0.0, 0.0, 1.7395365209251812E9, 0.0, 2025-02-14 09:35:20.925
221.0, -180177.34499899688, -88003.69060083517, -187500.02235174447, -187500.02235174447, -187500.02235174447, -187500.02235174447, -182564.35484461248, -180589.04178011918, 0.216, 0.988, 0.092, 192.0, 0.0, 0.0, 0.0, 0.0, 0.0, 0.0, 0.0, 0.0, 0.0, 1.739536520925194E9, 0.0, 2025-02-14 09:35:20.925
222.0, -180293.5070149311, -88161.71743413419, -187500.02235174447, -187500.02235174447, -187500.02235174447, -187500.02235174447, -182514.01871609912, -180628.7831817607, 0.216, 0.988, 0.092, 192.0, 0.0, 0.0, 0.0, 0.0, 0.0, 0.0, 0.0, 0.0, 0.0, 1.739536520925207E9, 0.0, 2025-02-14 09:35:20.925
223.0, -180296.23392775466, -88226.8280657325, -187500.02235174447, -187500.02235174447, -187500.02235174447, -187500.02235174447, -182409.88193868185, -180688.55174643418, 0.216, 0.988, 0.092, 192.0, 0.0, 0.0, 0.0, 0.0, 0.0, 0.0, 0.0, 0.0, 0.0, 1.7395365209252264E9, 0.0, 2025-02-14 09:35:20.925
224.0, -180197.99801087356, -88157.64941664331, -187500.02235174447, -187500.02235174447, -187500.02235174447, -187500.02235174447, -182445.84589551043, -180681.75681611977, 0.216, 0.988, 0.092, 192.0, 0.0, 0.0, 0.0, 0.0, 0.0, 0.0, 0.0, 0.0, 0.0, 1.739536520925239E9, 0.0, 2025-02-14 09:35:20.925
225.0, -180177.94849609715, -88162.07506204546, -187500.02235174447, -187500.02235174447, -187500.02235174447, -187500.02235174447, -182543.43361180232, -180596.4402075339, 0.216, 0.988, 0.092, 192.0, 0.0, 0.0, 0.0, 0.0, 0.0, 0.0, 0.0, 0.0, 0.0, 1.7395365209252555E9, 0.0, 2025-02-14 09:35:20.925
226.0, -180279.58187813545, -88312.07761908503, -187500.02235174447, -187500.02235174447, -187500.02235174447, -187500.02235174447, -182524.99342262666, -180613.91927169793, 0.216, 0.988, 0.092, 192.0, 0.0, 0.0, 0.0, 0.0, 0.0, 0.0, 0.0, 0.0, 0.0, 1.7395365209252684E9, 0.0, 2025-02-14 09:35:20.925
227.0, -180315.9705181087, -88406.78196034217, -187500.02235174447, -187500.02235174447, -187500.02235174447, -187500.02235174447, -182418.37560157487, -180697.2465750273, 0.212, 0.982, 0.092, 192.0, 6.0, 160.0, 30.0, 176.0, 2.0, 224.0, 0.0, 0.0, 0.0, 1.73953652092529E9, 0.0, 2025-02-14 09:35:20.925
228.0, -180199.71909519663, -88352.10959340449, -187500.02235174447, -187500.02235174447, -187500.02235174447, -187500.02235174447, -182435.318223872, -180701.96279310738, 0.212, 0.982, 0.092, 192.0, 0.0, 0.0, 0.0, 0.0, 0.0, 0.0, 0.0, 0.0, 0.0, 1.739536520925304E9, 0.0, 2025-02-14 09:35:20.925
229.0, -180162.1681645117, -88328.97553789325, -187500.02235174447, -187500.02235174447, -187500.02235174447, -187500.02235174447, -182532.0342221301, -180628.26909163824, 0.212, 0.982, 0.092, 192.0, 0.0, 0.0, 0.0, 0.0, 0.0, 0.0, 0.0, 0.0, 0.0, 1.7395365209253168E9, 0.0, 2025-02-14 09:35:20.925
230.0, -180258.61594183635, -88462.63896973598, -187500.02235174447, -187500.02235174447, -187500.02235174447, -187500.02235174447, -182522.9817656257, -180610.2312338628, 0.212, 0.982, 0.092, 192.0, 0.0, 0.0, 0.0, 0.0, 0.0, 0.0, 0.0, 0.0, 0.0, 1.7395365209253297E9, 0.0, 2025-02-14 09:35:20.925
231.0, -180324.57593972396, -88580.164442082, -187500.02235174447, -187500.02235174447, -187500.02235174447, -187500.02235174447, -182429.28325286906, -180702.56629020767, 0.212, 0.982, 0.092, 192.0, 0.0, 0.0, 0.0, 0.0, 0.0, 0.0, 0.0, 0.0, 0.0, 1.7395365209253423E9, 0.0, 2025-02-14 09:35:20.925
232.0, -180233.31376711297, -88540.55715090719, -187500.02235174447, -187500.02235174447, -187500.02235174447, -187500.02235174447, -182414.41934280627, -180713.0492583572, 0.212, 0.982, 0.092, 192.0, 0.0, 0.0, 0.0, 0.0, 0.0, 0.0, 0.0, 0.0, 0.0, 1.7395365209253552E9, 0.0, 2025-02-14 09:35:20.925
233.0, -180181.97181009912, -88493.52908057322, -187500.02235174447, -187500.02235174447, -187500.02235174447, -187500.02235174447, -182512.40939049833, -180651.22433319382, 0.212, 0.982, 0.092, 192.0, 0.0, 0.0, 0.0, 0.0, 0.0, 0.0, 0.0, 0.0, 0.0, 1.7395365209253683E9, 0.0, 2025-02-14 09:35:20.925
234.0, -180240.42162184973, -88604.72900923836, -187500.02235174447, -187500.02235174447, -187500.02235174447, -187500.02235174447, -182544.79706821407, -180600.10589362454, 0.212, 0.982, 0.092, 192.0, 0.0, 0.0, 0.0, 0.0, 0.0, 0.0, 0.0, 0.0, 0.0, 1.7395365209253812E9, 0.0, 2025-02-14 09:35:20.925
235.0, -180332.57786423896, -88742.66162427206, -187500.02235174447, -187500.02235174447, -187500.02235174447, -187500.02235174447, -182441.0179187081, -180698.20770003888, 0.212, 0.982, 0.092, 192.0, 0.0, 0.0, 0.0, 0.0, 0.0, 0.0, 0.0, 0.0, 0.0, 1.7395365209253943E9, 0.0, 2025-02-14 09:35:20.925
236.0, -180255.57610459044, -88730.72579273293, -187500.02235174447, -187500.02235174447, -187500.02235174447, -187500.02235174447, -182393.051075107, -180724.33688930713, 0.212, 0.982, 0.092, 192.0, 0.0, 0.0, 0.0, 0.0, 0.0, 0.0, 0.0, 0.0, 0.0, 1.7395365209254072E9, 0.0, 2025-02-14 09:35:20.925
237.0, -180168.4713564481, -88667.8279838357, -187500.02235174447, -187500.02235174447, -187500.02235174447, -187500.02235174447, -182494.14801527836, -180676.88413582853, 0.218, 0.982, 0.084, 192.0, 6.0, 208.0, 30.0, 176.0, 2.0, 160.0, 0.0, 0.0, 0.0, 1.7395365209254203E9, 0.0, 2025-02-14 09:35:20.925
238.0, -180218.24869135008, -88748.47307783045, -187500.02235174447, -187500.02235174447, -187500.02235174447, -187500.02235174447, -182553.51424855166, -180602.34106807006, 0.218, 0.982, 0.084, 192.0, 0.0, 0.0, 0.0, 0.0, 0.0, 0.0, 0.0, 0.0, 0.0, 1.739536520925494E9, 0.0, 2025-02-14 09:35:20.925
239.0, -180328.59925372593, -88896.44162612458, -187500.02235174447, -187500.02235174447, -187500.02235174447, -187500.02235174447, -182472.17625047878, -180684.03669405423, 0.218, 0.982, 0.084, 192.0, 0.0, 0.0, 0.0, 0.0, 0.0, 0.0, 0.0, 0.0, 0.0, 1.7395365209255073E9, 0.0, 2025-02-14 09:35:20.925
240.0, -180278.39723567932, -88908.57862336382, -187500.02235174447, -187500.02235174447, -187500.02235174447, -187500.02235174447, -182398.32608679845, -180726.68382247494, 0.218, 0.982, 0.084, 192.0, 0.0, 0.0, 0.0, 0.0, 0.0, 0.0, 0.0, 0.0, 0.0, 1.7395365214030745E9, 0.0, 2025-02-14 09:35:21.403
241.0, -180219.5897960174, -88834.63905270566, -187500.02235174447, -187500.02235174447, -187500.02235174447, -187500.02235174447, -182464.0178637526, -180696.3525052491, 0.218, 0.982, 0.084, 192.0, 0.0, 0.0, 0.0, 0.0, 0.0, 0.0, 0.0, 0.0, 0.0, 1.7395365214031212E9, 0.0, 2025-02-14 09:35:21.403
242.0, -180225.26713910906, -88887.2774108979, -187500.02235174447, -187500.02235174447, -187500.02235174447, -187500.02235174447, -182538.87385593343, -180605.89499543846, 0.218, 0.982, 0.084, 192.0, 0.0, 0.0, 0.0, 0.0, 0.0, 0.0, 0.0, 0.0, 0.0, 1.7395365214031453E9, 0.0, 2025-02-14 09:35:21.403
243.0, -180331.43792527175, -89041.90677903972, -187500.02235174447, -187500.02235174447, -187500.02235174447, -187500.02235174447, -182475.93134354727, -180676.1018247726, 0.218, 0.982, 0.084, 192.0, 0.0, 0.0, 0.0, 0.0, 0.0, 0.0, 0.0, 0.0, 0.0, 1.739536521403177E9, 0.0, 2025-02-14 09:35:21.403
244.0, -180311.38841049533, -89084.53155571599, -187500.02235174447, -187500.02235174447, -187500.02235174447, -187500.02235174447, -182385.94322037022, -180737.50206679132, 0.218, 0.982, 0.084, 192.0, 0.0, 0.0, 0.0, 0.0, 0.0, 0.0, 0.0, 0.0, 0.0, 1.7395365214032042E9, 0.0, 2025-02-14 09:35:21.403
245.0, -180237.2476741371, -89010.72609552457, -187500.02235174447, -187500.02235174447, -187500.02235174447, -187500.02235174447, -182435.42998259427, -180717.3631450371, 0.218, 0.982, 0.084, 192.0, 0.0, 0.0, 0.0, 0.0, 0.0, 0.0, 0.0, 0.0, 0.0, 1.7395365214032173E9, 0.0, 2025-02-14 09:35:21.403
246.0, -180234.3419473579, -89032.85432253532, -187500.02235174447, -187500.02235174447, -187500.02235174447, -187500.02235174447, -182513.8846056324, -180621.58592004608, 0.218, 0.982, 0.084, 192.0, 0.0, 0.0, 0.0, 0.0, 0.0, 0.0, 0.0, 0.0, 0.0, 1.73953652140323E9, 0.0, 2025-02-14 09:35:21.403
247.0, -180330.05211711553, -89187.84131858843, -187500.02235174447, -187500.02235174447, -187500.02235174447, -187500.02235174447, -182478.85942207093, -180663.4507374109, 0.222, 0.974, 0.08600000000000001, 192.0, 6.0, 240.0, 30.0, 112.0, 2.0, 176.0, 0.0, 0.0, 0.0, 1.7395365214032423E9, 0.0, 2025-02-14 09:35:21.403
248.0, -180340.62449224287, -89260.39508109035, -187500.02235174447, -187500.02235174447, -187500.02235174447, -187500.02235174447, -182391.48645299513, -180739.82664821466, 0.222, 0.974, 0.08600000000000001, 192.0, 0.0, 0.0, 0.0, 0.0, 0.0, 0.0, 0.0, 0.0, 0.0, 1.739536521403256E9, 0.0, 2025-02-14 09:35:21.403
249.0, -180210.02324939054, -89194.88211809185, -187500.02235174447, -187500.02235174447, -187500.02235174447, -187500.02235174447, -182413.9052526838, -180735.57981676815, 0.222, 0.974, 0.08600000000000001, 192.0, 0.0, 0.0, 0.0, 0.0, 0.0, 0.0, 0.0, 0.0, 0.0, 1.7395365214032688E9, 0.0, 2025-02-14 09:35:21.403
250.0, -180178.2390687751, -89189.76356861158, -187500.02235174447, -187500.02235174447, -187500.02235174447, -187500.02235174447, -182518.332602779, -180645.4799348688, 0.222, 0.974, 0.08600000000000001, 192.0, 0.0, 0.0, 0.0, 0.0, 0.0, 0.0, 0.0, 0.0, 0.0, 1.739536521403281E9, 0.0, 2025-02-14 09:35:21.403
251.0, -180303.0512098135, -89331.92066334734, -187500.02235174447, -187500.02235174447, -187500.02235174447, -187500.02235174447, -182504.1168933054, -180650.35261516008, 0.222, 0.974, 0.08600000000000001, 192.0, 0.0, 0.0, 0.0, 0.0, 0.0, 0.0, 0.0, 0.0, 0.0, 1.7395365214032931E9, 0.0, 2025-02-14 09:35:21.403
252.0, -180350.12398363638, -89432.39175467394, -187500.02235174447, -187500.02235174447, -187500.02235174447, -187500.02235174447, -182401.58944148893, -180743.24646511633, 0.222, 0.974, 0.08600000000000001, 192.0, 0.0, 0.0, 0.0, 0.0, 0.0, 0.0, 0.0, 0.0, 0.0, 1.7395365214033055E9, 0.0, 2025-02-14 09:35:21.403
253.0, -180256.045491224, -89382.10032964949, -187500.02235174447, -187500.02235174447, -187500.02235174447, -187500.02235174447, -182399.75659844358, -180745.28047386176, 0.222, 0.974, 0.08600000000000001, 192.0, 0.0, 0.0, 0.0, 0.0, 0.0, 0.0, 0.0, 0.0, 0.0, 1.7395365214033527E9, 0.0, 2025-02-14 09:35:21.403
254.0, -180217.8910634388, -89350.67377694533, -187500.02235174447, -187500.02235174447, -187500.02235174447, -187500.02235174447, -182513.0352393431, -180668.5469351467, 0.222, 0.974, 0.08600000000000001, 192.0, 0.0, 0.0, 0.0, 0.0, 0.0, 0.0, 0.0, 0.0, 0.0, 1.739536521403365E9, 0.0, 2025-02-14 09:35:21.403
255.0, -180291.56241316348, -89478.81632790761, -187500.02235174447, -187500.02235174447, -187500.02235174447, -187500.02235174447, -182530.96133839624, -180637.8356382651, 0.222, 0.974, 0.08600000000000001, 192.0, 0.0, 0.0, 0.0, 0.0, 0.0, 0.0, 0.0, 0.0, 0.0, 1.7395365214033775E9, 0.0, 2025-02-14 09:35:21.403
0.0, -180361.5233733086, -89601.08037007814, -187500.02235174447, -187500.02235174447, -187500.02235174447, -187500.02235174447, -182413.56997651697, -180730.2153980989, 0.222, 0.974, 0.08600000000000001, 192.0, 0.0, 0.0, 0.0, 0.0, 0.0, 0.0, 0.0, 0.0, 0.0, 1.73953652140339E9, 0.0, 2025-02-14 09:35:21.403
1.0, -180276.78791007854, -89564.82584057163, -187500.02235174447, -187500.02235174447, -187500.02235174447, -187500.02235174447, -182365.55842942698, -180750.86840997558, 0.222, 0.962, 0.092, 192.0, 6.0, 240.0, 30.0, 16.0, 2.0, 224.0, 0.0, 0.0, 0.0, 1.7395365214034023E9, 0.0, 2025-02-14 09:35:21.403
2.0, -180236.5994735479, -89511.78515097918, -187500.02235174447, -187500.02235174447, -187500.02235174447, -187500.02235174447, -182472.93620979026, -180692.30683950268, 0.222, 0.962, 0.092, 192.0, 0.0, 0.0, 0.0, 0.0, 0.0, 0.0, 0.0, 0.0, 0.0, 1.739536521403416E9, 0.0, 2025-02-14 09:35:21.403
3.0, -180280.87827931385, -89618.76059994228, -187500.02235174447, -187500.02235174447, -187500.02235174447, -187500.02235174447, -182536.81749544354, -180631.0854114396, 0.222, 0.962, 0.092, 192.0, 0.0, 0.0, 0.0, 0.0, 0.0, 0.0, 0.0, 0.0, 0.0, 1.7395365214034283E9, 0.0, 2025-02-14 09:35:21.403
4.0, -180379.94121073978, -89765.3880435691, -187500.02235174447, -187500.02235174447, -187500.02235174447, -187500.02235174447, -182426.53398830106, -180730.08128763214, 0.222, 0.962, 0.092, 192.0, 0.0, 0.0, 0.0, 0.0, 0.0, 0.0, 0.0, 0.0, 0.0, 1.7395365214034405E9, 0.0, 2025-02-14 09:35:21.403
5.0, -180305.97928833717, -89760.94004642249, -187500.02235174447, -187500.02235174447, -187500.02235174447, -187500.02235174447, -182364.91022883778, -180761.0608054472, 0.222, 0.962, 0.092, 192.0, 0.0, 0.0, 0.0, 0.0, 0.0, 0.0, 0.0, 0.0, 0.0, 1.7395365214034526E9, 0.0, 2025-02-14 09:35:21.403
6.0, -180212.34783081387, -89693.10250200063, -187500.02235174447, -187500.02235174447, -187500.02235174447, -187500.02235174447, -182452.30554965802, -180711.1493600785, 0.222, 0.962, 0.092, 192.0, 0.0, 0.0, 0.0, 0.0, 0.0, 0.0, 0.0, 0.0, 0.0, 1.7395365214034648E9, 0.0, 2025-02-14 09:35:21.403
7.0, -180262.21457269366, -89767.62321801463, -187500.02235174447, -187500.02235174447, -187500.02235174447, -187500.02235174447, -182523.65231795935, -180629.386678861, 0.222, 0.962, 0.092, 192.0, 0.0, 0.0, 0.0, 0.0, 0.0, 0.0, 0.0, 0.0, 0.0, 1.7395365214034774E9, 0.0, 2025-02-14 09:35:21.403
8.0, -180370.95580946872, -89921.0232402114, -187500.02235174447, -187500.02235174447, -187500.02235174447, -187500.02235174447, -182446.7176135442, -180719.7547816938, 0.222, 0.962, 0.092, 192.0, 0.0, 0.0, 0.0, 0.0, 0.0, 0.0, 0.0, 0.0, 0.0, 1.7395365214034894E9, 0.0, 2025-02-14 09:35:21.403
9.0, -180326.85581765842, -89943.732612578, -187500.02235174447, -187500.02235174447, -187500.02235174447, -187500.02235174447, -182366.76542362757, -180768.74980553985, 0.222, 0.962, 0.092, 192.0, 0.0, 0.0, 0.0, 0.0, 0.0, 0.0, 0.0, 0.0, 0.0, 1.7395365214035015E9, 0.0, 2025-02-14 09:35:21.403
10.0, -180240.1981044052, -89869.99420761994, -187500.02235174447, -187500.02235174447, -187500.02235174447, -187500.02235174447, -182434.9158924718, -180735.89274119053, 0.222, 0.962, 0.092, 192.0, 0.0, 0.0, 0.0, 0.0, 0.0, 0.0, 0.0, 0.0, 0.0, 1.739536521403514E9, 0.0, 2025-02-14 09:35:21.403
11.0, -180255.46434586815, -89911.5684523068, -187500.02235174447, -187500.02235174447, -187500.02235174447, -187500.02235174447, -182522.51237899213, -180639.86964701055, 0.212, 0.98, 0.092, 192.0, 6.0, 160.0, 30.0, 160.0, 2.0, 224.0, 0.0, 0.0, 0.0, 1.7395365214035316E9, 0.0, 2025-02-14 09:35:21.403
12.0, -180364.38439659888, -90066.68955882663, -187500.02235174447, -187500.02235174447, -187500.02235174447, -187500.02235174447, -182470.34340743345, -180705.8519966426, 0.212, 0.98, 0.092, 192.0, 0.0, 0.0, 0.0, 0.0, 0.0, 0.0, 0.0, 0.0, 0.0, 1.7395365214035528E9, 0.0, 2025-02-14 09:35:21.403
13.0, -180351.84506795945, -90119.88671063026, -187500.02235174447, -187500.02235174447, -187500.02235174447, -187500.02235174447, -182383.41747324675, -180774.13657595357, 0.212, 0.98, 0.092, 192.0, 0.0, 0.0, 0.0, 0.0, 0.0, 0.0, 0.0, 0.0, 0.0, 1.7395365214035652E9, 0.0, 2025-02-14 09:35:21.403
14.0, -180251.48573535512, -90049.61282606279, -187500.02235174447, -187500.02235174447, -187500.02235174447, -187500.02235174447, -182421.84012196545, -180755.02583444427, 0.212, 0.98, 0.092, 192.0, 0.0, 0.0, 0.0, 0.0, 0.0, 0.0, 0.0, 0.0, 0.0, 1.7395365214035776E9, 0.0, 2025-02-14 09:35:21.403
15.0, -180248.17767717573, -90060.83340177935, -187500.02235174447, -187500.02235174447, -187500.02235174447, -187500.02235174447, -182509.6377741859, -180658.51100188625, 0.212, 0.98, 0.092, 192.0, 0.0, 0.0, 0.0, 0.0, 0.0, 0.0, 0.0, 0.0, 0.0, 1.73953652140359E9, 0.0, 2025-02-14 09:35:21.403
16.0, -180345.89950393434, -90207.48319715062, -187500.02235174447, -187500.02235174447, -187500.02235174447, -187500.02235174447, -182477.83124182597, -180685.48955744383, 0.212, 0.98, 0.092, 192.0, 0.0, 0.0, 0.0, 0.0, 0.0, 0.0, 0.0, 0.0, 0.0, 1.739536521403602E9, 0.0, 2025-02-14 09:35:21.403
17.0, -180365.83725998848, -90289.64820976833, -187500.02235174447, -187500.02235174447, -187500.02235174447, -187500.02235174447, -182374.3426649979, -180765.57585782718, 0.212, 0.98, 0.092, 192.0, 0.0, 0.0, 0.0, 0.0, 0.0, 0.0, 0.0, 0.0, 0.0, 1.7395365214036143E9, 0.0, 2025-02-14 09:35:21.403
18.0, -180279.04543626853, -90227.4433049492, -187500.02235174447, -187500.02235174447, -187500.02235174447, -187500.02235174447, -182397.40966527577, -180771.27555266328, 0.212, 0.98, 0.092, 192.0, 0.0, 0.0, 0.0, 0.0, 0.0, 0.0, 0.0, 0.0, 0.0, 1.7395365214036264E9, 0.0, 2025-02-14 09:35:21.403
19.0, -180261.63342733783, -90208.46667390665, -187500.02235174447, -187500.02235174447, -187500.02235174447, -187500.02235174447, -182510.6883061753, -180680.75098761928, 0.212, 0.98, 0.092, 192.0, 0.0, 0.0, 0.0, 0.0, 0.0, 0.0, 0.0, 0.0, 0.0, 1.7395365214036384E9, 0.0, 2025-02-14 09:35:21.403
20.0, -180335.48359101816, -90342.89006506087, -187500.02235174447, -187500.02235174447, -187500.02235174447, -187500.02235174447, -182505.6368119284, -180676.57121140615, 0.212, 0.98, 0.092, 192.0, 0.0, 0.0, 0.0, 0.0, 0.0, 0.0, 0.0, 0.0, 0.0, 1.7395365214036508E9, 0.0, 2025-02-14 09:35:21.403
21.0, -180388.3901701439, -90449.06085122358, -187500.02235174447, -187500.02235174447, -187500.02235174447, -187500.02235174447, -182395.62152571935, -180780.2609539343, 0.20600000000000002, 0.984, 0.084, 192.0, 6.0, 112.0, 30.0, 192.0, 2.0, 160.0, 0.0, 0.0, 0.0, 1.739536521403663E9, 0.0, 2025-02-14 09:35:21.403
22.0, -180290.26601198508, -90403.61975474593, -187500.02235174447, -187500.02235174447, -187500.02235174447, -187500.02235174447, -182387.64195294882, -180781.84792779066, 0.20600000000000002, 0.984, 0.084, 192.0, 0.0, 0.0, 0.0, 0.0, 0.0, 0.0, 0.0, 0.0, 0.0, 1.7395365214036758E9, 0.0, 2025-02-14 09:35:21.403
23.0, -180250.4575551102, -90364.77242288261, -187500.02235174447, -187500.02235174447, -187500.02235174447, -187500.02235174447, -182499.71359964772, -180703.6391739415, 0.20600000000000002, 0.984, 0.084, 192.0, 0.0, 0.0, 0.0, 0.0, 0.0, 0.0, 0.0, 0.0, 0.0, 1.739536521403688E9, 0.0, 2025-02-14 09:35:21.403
24.0, -180315.50113147512, -90480.57681090556, -187500.02235174447, -187500.02235174447, -187500.02235174447, -187500.02235174447, -182515.9856696112, -180661.0367490097, 0.20600000000000002, 0.984, 0.084, 192.0, 0.0, 0.0, 0.0, 0.0, 0.0, 0.0, 0.0, 0.0, 0.0, 1.7395365214037E9, 0.0, 2025-02-14 09:35:21.403
25.0, -180394.20162370225, -90610.39574270198, -187500.02235174447, -187500.02235174447, -187500.02235174447, -187500.02235174447, -182411.22304334916, -180760.83728800266, 0.20600000000000002, 0.984, 0.084, 192.0, 0.0, 0.0, 0.0, 0.0, 0.0, 0.0, 0.0, 0.0, 0.0, 1.739536521403712E9, 0.0, 2025-02-14 09:35:21.403
26.0, -180318.8091896545, -90588.22281220232, -187500.02235174447, -187500.02235174447, -187500.02235174447, -187500.02235174447, -182374.96851384264, -180788.70991333842, 0.20600000000000002, 0.984, 0.084, 192.0, 0.0, 0.0, 0.0, 0.0, 0.0, 0.0, 0.0, 0.0, 0.0, 1.739536521403731E9, 0.0, 2025-02-14 09:35:21.403
27.0, -180278.57604963495, -90527.94015740635, -187500.02235174447, -187500.02235174447, -187500.02235174447, -187500.02235174447, -182477.13833774786, -180732.83055220015, 0.20600000000000002, 0.984, 0.084, 192.0, 0.0, 0.0, 0.0, 0.0, 0.0, 0.0, 0.0, 0.0, 0.0, 1.7395365214037433E9, 0.0, 2025-02-14 09:35:21.403
28.0, -180309.1085325609, -90619.55995792866, -187500.02235174447, -187500.02235174447, -187500.02235174447, -187500.02235174447, -182532.12362910793, -180660.36619667604, 0.20600000000000002, 0.984, 0.084, 192.0, 0.0, 0.0, 0.0, 0.0, 0.0, 0.0, 0.0, 0.0, 0.0, 1.7395365214037557E9, 0.0, 2025-02-14 09:35:21.403
29.0, -180406.33862094147, -90765.20392479944, -187500.02235174447, -187500.02235174447, -187500.02235174447, -187500.02235174447, -182442.9625204757, -180763.5642008262, 0.20600000000000002, 0.984, 0.084, 192.0, 0.0, 0.0, 0.0, 0.0, 0.0, 0.0, 0.0, 0.0, 0.0, 1.7395365214037678E9, 0.0, 2025-02-14 09:35:21.403
30.0, -180339.90923642032, -90769.13783182358, -187500.02235174447, -187500.02235174447, -187500.02235174447, -187500.02235174447, -182383.68569418023, -180800.04224777725, 0.20600000000000002, 0.984, 0.084, 192.0, 0.0, 0.0, 0.0, 0.0, 0.0, 0.0, 0.0, 0.0, 0.0, 1.73953652140378E9, 0.0, 2025-02-14 09:35:21.403
31.0, -180243.05912769548, -90698.57337457818, -187500.02235174447, -187500.02235174447, -187500.02235174447, -187500.02235174447, -182470.20929696673, -180752.43303208746, 0.202, 0.988, 0.07200000000000001, 192.0, 6.0, 80.0, 30.0, 224.0, 2.0, 64.0, 0.0, 0.0, 0.0, 1.7395365214037921E9, 0.0, 2025-02-14 09:35:21.403
32.0, -180283.91811655977, -90761.44883173094, -187500.02235174447, -187500.02235174447, -187500.02235174447, -187500.02235174447, -182548.55216128257, -180663.67425485543, 0.202, 0.988, 0.07200000000000001, 192.0, 0.0, 0.0, 0.0, 0.0, 0.0, 0.0, 0.0, 0.0, 0.0, 1.7395365214038055E9, 0.0, 2025-02-14 09:35:21.403
33.0, -180395.96741151423, -90916.8605109287, -187500.02235174447, -187500.02235174447, -187500.02235174447, -187500.02235174447, -182481.9663145502, -180742.79943022723, 0.202, 0.988, 0.07200000000000001, 192.0, 0.0, 0.0, 0.0, 0.0, 0.0, 0.0, 0.0, 0.0, 0.0, 1.7395365214038177E9, 0.0, 2025-02-14 09:35:21.403
34.0, -180362.68566402027, -90948.77880201087, -187500.02235174447, -187500.02235174447, -187500.02235174447, -187500.02235174447, -182404.49516826813, -180799.8187303327, 0.202, 0.988, 0.07200000000000001, 192.0, 0.0, 0.0, 0.0, 0.0, 0.0, 0.0, 0.0, 0.0, 0.0, 1.7395365214038298E9, 0.0, 2025-02-14 09:35:21.403
35.0, -180272.96576177666, -90873.27460924085, -187500.02235174447, -187500.02235174447, -187500.02235174447, -187500.02235174447, -182501.6805531598, -180776.416453888, 0.202, 0.988, 0.07200000000000001, 192.0, 0.0, 0.0, 0.0, 0.0, 0.0, 0.0, 0.0, 0.0, 0.0, 1.739536521403849E9, 0.0, 2025-02-14 09:35:21.403
36.0, -180283.06875027047, -90905.79639742333, -187500.02235174447, -187500.02235174447, -187500.02235174447, -187500.02235174447, -182619.13897027244, -180678.00172305127, 0.202, 0.988, 0.07200000000000001, 192.0, 0.0, 0.0, 0.0, 0.0, 0.0, 0.0, 0.0, 0.0, 0.0, 1.7395365214038613E9, 0.0, 2025-02-14 09:35:21.403
37.0, -180390.5806411005, -91060.13519288722, -187500.02235174447, -187500.02235174447, -187500.02235174447, -187500.02235174447, -182567.6405510474, -180732.02588939975, 0.202, 0.988, 0.07200000000000001, 192.0, 0.0, 0.0, 0.0, 0.0, 0.0, 0.0, 0.0, 0.0, 0.0, 1.7395365214038734E9, 0.0, 2025-02-14 09:35:21.403
38.0, -180388.99366724415, -91122.45185642861, -187500.02235174447, -187500.02235174447, -187500.02235174447, -187500.02235174447, -182458.16170670532, -180804.937279813, 0.202, 0.988, 0.07200000000000001, 192.0, 0.0, 0.0, 0.0, 0.0, 0.0, 0.0, 0.0, 0.0, 0.0, 1.7395365214038858E9, 0.0, 2025-02-14 09:35:21.403
39.0, -180298.87143360038, -91052.93793117261, -187500.02235174447, -187500.02235174447, -187500.02235174447, -187500.02235174447, -182480.04406452706, -180792.7779308293, 0.202, 0.988, 0.07200000000000001, 192.0, 0.0, 0.0, 0.0, 0.0, 0.0, 0.0, 0.0, 0.0, 0.0, 1.739536521403898E9, 0.0, 2025-02-14 09:35:21.403
40.0, -180273.07752049895, -91055.35191957378, -187500.02235174447, -187500.02235174447, -187500.02235174447, -187500.02235174447, -182567.75230976968, -180694.2961447592, 0.202, 0.988, 0.07200000000000001, 192.0, 0.0, 0.0, 0.0, 0.0, 0.0, 0.0, 0.0, 0.0, 0.0, 1.7395365214039104E9, 0.0, 2025-02-14 09:35:21.403
41.0, -180377.99660897217, -91202.13582541178, -187500.02235174447, -187500.02235174447, -187500.02235174447, -187500.02235174447, -182534.44821053126, -180717.6984212039, 0.198, 0.99, 0.07, 192.0, 6.0, 48.0, 30.0, 240.0, 2.0, 48.0, 0.0, 0.0, 0.0, 1.7395365214039292E9, 0.0, 2025-02-14 09:35:21.403
42.0, -180409.78078958762, -91291.81102416647, -187500.02235174447, -187500.02235174447, -187500.02235174447, -187500.02235174447, -182433.59713954892, -180809.56409091523, 0.198, 0.99, 0.07, 192.0, 0.0, 0.0, 0.0, 0.0, 0.0, 0.0, 0.0, 0.0, 0.0, 1.739536521403942E9, 0.0, 2025-02-14 09:35:21.403
43.0, -180309.57791919447, -91233.87530253832, -187500.02235174447, -187500.02235174447, -187500.02235174447, -187500.02235174447, -182445.19769492123, -180807.86535833662, 0.198, 0.99, 0.07, 192.0, 0.0, 0.0, 0.0, 0.0, 0.0, 0.0, 0.0, 0.0, 0.0, 1.7395365214039545E9, 0.0, 2025-02-14 09:35:21.403
44.0, -180284.18633749324, -91212.01529646103, -187500.02235174447, -187500.02235174447, -187500.02235174447, -187500.02235174447, -182557.1799346423, -180722.7499154508, 0.198, 0.99, 0.07, 192.0, 0.0, 0.0, 0.0, 0.0, 0.0, 0.0, 0.0, 0.0, 0.0, 1.739536521403967E9, 0.0, 2025-02-14 09:35:21.403
45.0, -180367.49128907817, -91344.24821665863, -187500.02235174447, -187500.02235174447, -187500.02235174447, -187500.02235174447, -182559.4821643212, -180706.7907699097, 0.198, 0.99, 0.07, 192.0, 0.0, 0.0, 0.0, 0.0, 0.0, 0.0, 0.0, 0.0, 0.0, 1.7395365214039824E9, 0.0, 2025-02-14 09:35:21.403
46.0, -180427.90805434086, -91459.2926453701, -187500.02235174447, -187500.02235174447, -187500.02235174447, -187500.02235174447, -182449.1092502009, -180802.0762565227, 0.198, 0.99, 0.07, 192.0, 0.0, 0.0, 0.0, 0.0, 0.0, 0.0, 0.0, 0.0, 0.0, 1.7395365214039948E9, 0.0, 2025-02-14 09:35:21.403
47.0, -180337.58465499696, -91418.14308382788, -187500.02235174447, -187500.02235174447, -187500.02235174447, -187500.02235174447, -182426.8022092345, -180818.61654741963, 0.198, 0.99, 0.07, 192.0, 0.0, 0.0, 0.0, 0.0, 0.0, 0.0, 0.0, 0.0, 0.0, 1.7395365214040072E9, 0.0, 2025-02-14 09:35:21.404
48.0, -180315.4117244973, -91368.92454253728, -187500.02235174447, -187500.02235174447, -187500.02235174447, -187500.02235174447, -182537.46569603274, -180746.80039248473, 0.198, 0.99, 0.07, 192.0, 0.0, 0.0, 0.0, 0.0, 0.0, 0.0, 0.0, 0.0, 0.0, 1.739536521404019E9, 0.0, 2025-02-14 09:35:21.404
49.0, -180359.6681785188, -91475.94469498929, -187500.02235174447, -187500.02235174447, -187500.02235174447, -187500.02235174447, -182574.25666740618, -180696.06193257117, 0.198, 0.99, 0.07, 192.0, 0.0, 0.0, 0.0, 0.0, 0.0, 0.0, 0.0, 0.0, 0.0, 1.7395365214040315E9, 0.0, 2025-02-14 09:35:21.404
50.0, -180441.31910101403, -91609.71988555431, -187500.02235174447, -187500.02235174447, -187500.02235174447, -187500.02235174447, -182463.23555269666, -180799.90813731053, 0.198, 0.99, 0.07, 192.0, 0.0, 0.0, 0.0, 0.0, 0.0, 0.0, 0.0, 0.0, 0.0, 1.7395365214040437E9, 0.0, 2025-02-14 09:35:21.404
51.0, -180361.03163493058, -91593.5148708242, -187500.02235174447, -187500.02235174447, -187500.02235174447, -187500.02235174447, -182411.8488921939, -180827.22196903493, 0.202, 0.988, 0.074, 192.0, 6.0, 80.0, 30.0, 224.0, 2.0, 80.0, 0.0, 0.0, 0.0, 1.739536521404056E9, 0.0, 2025-02-14 09:35:21.404
52.0, -180278.39723567932, -91533.12045730597, -187500.02235174447, -187500.02235174447, -187500.02235174447, -187500.02235174447, -182509.74953290817, -180774.13657595357, 0.202, 0.988, 0.074, 192.0, 0.0, 0.0, 0.0, 0.0, 0.0, 0.0, 0.0, 0.0, 0.0, 1.7395365214040687E9, 0.0, 2025-02-14 09:35:21.404
53.0, -180331.8626084164, -91618.23590019178, -187500.02235174447, -187500.02235174447, -187500.02235174447, -187500.02235174447, -182580.76102504268, -180699.1017698171, 0.202, 0.988, 0.074, 192.0, 0.0, 0.0, 0.0, 0.0, 0.0, 0.0, 0.0, 0.0, 0.0, 1.7395365214040806E9, 0.0, 2025-02-14 09:35:21.404
54.0, -180440.62619693592, -91767.09851826412, -187500.02235174447, -187500.02235174447, -187500.02235174447, -187500.02235174447, -182489.5212041761, -180797.427093676, 0.202, 0.988, 0.074, 192.0, 0.0, 0.0, 0.0, 0.0, 0.0, 0.0, 0.0, 0.0, 0.0, 1.7395365214040928E9, 0.0, 2025-02-14 09:35:21.404
55.0, -180384.90329800884, -91777.89441083603, -187500.02235174447, -187500.02235174447, -187500.02235174447, -187500.02235174447, -182420.4990172981, -180839.6718906965, 0.202, 0.988, 0.074, 192.0, 0.0, 0.0, 0.0, 0.0, 0.0, 0.0, 0.0, 0.0, 0.0, 1.739536521404105E9, 0.0, 2025-02-14 09:35:21.404
56.0, -180306.58278543747, -91704.80420646718, -187500.02235174447, -187500.02235174447, -187500.02235174447, -187500.02235174447, -182496.04791355706, -180797.1365209981, 0.202, 0.988, 0.074, 192.0, 0.0, 0.0, 0.0, 0.0, 0.0, 0.0, 0.0, 0.0, 0.0, 1.7395365214041235E9, 0.0, 2025-02-14 09:35:21.404
57.0, -180332.84608517244, -91759.09659374913, -187500.02235174447, -187500.02235174447, -187500.02235174447, -187500.02235174447, -182579.1516994419, -180705.33790652012, 0.202, 0.988, 0.074, 192.0, 0.0, 0.0, 0.0, 0.0, 0.0, 0.0, 0.0, 0.0, 0.0, 1.739536521404136E9, 0.0, 2025-02-14 09:35:21.404
58.0, -180439.79918239109, -91912.92129909055, -187500.02235174447, -187500.02235174447, -187500.02235174447, -187500.02235174447, -182505.0333148281, -180776.95289575492, 0.202, 0.988, 0.074, 192.0, 0.0, 0.0, 0.0, 0.0, 0.0, 0.0, 0.0, 0.0, 0.0, 1.739536521404148E9, 0.0, 2025-02-14 09:35:21.404
59.0, -180413.87115882293, -91953.19914259901, -187500.02235174447, -187500.02235174447, -187500.02235174447, -187500.02235174447, -182409.81488344847, -180837.10144008417, 0.202, 0.988, 0.074, 192.0, 0.0, 0.0, 0.0, 0.0, 0.0, 0.0, 0.0, 0.0, 0.0, 1.7395365214041605E9, 0.0, 2025-02-14 09:35:21.404
60.0, -180305.7557708926, -91879.01370275185, -187500.02235174447, -187500.02235174447, -187500.02235174447, -187500.02235174447, -182474.45612841324, -180816.47077995192, 0.202, 0.988, 0.074, 192.0, 0.0, 0.0, 0.0, 0.0, 0.0, 0.0, 0.0, 0.0, 0.0, 1.7395365214041727E9, 0.0, 2025-02-14 09:35:21.404
61.0, -180308.4603319717, -91903.86884258615, -187500.02235174447, -187500.02235174447, -187500.02235174447, -187500.02235174447, -182580.51515585367, -180719.33009854917, 0.20600000000000002, 0.988, 0.074, 192.0, 6.0, 112.0, 30.0, 224.0, 2.0, 80.0, 0.0, 0.0, 0.0, 1.7395365214041848E9, 0.0, 2025-02-14 09:35:21.404
62.0, -180426.1869700178, -92056.57596070481, -187500.02235174447, -187500.02235174447, -187500.02235174447, -187500.02235174447, -182537.2868820771, -180768.8168607732, 0.20600000000000002, 0.988, 0.074, 192.0, 0.0, 0.0, 0.0, 0.0, 0.0, 0.0, 0.0, 0.0, 0.0, 1.7395365214041977E9, 0.0, 2025-02-14 09:35:21.404
63.0, -180431.6854991538, -92125.93342374962, -187500.02235174447, -187500.02235174447, -187500.02235174447, -187500.02235174447, -182434.7594302606, -180846.3774140331, 0.20600000000000002, 0.988, 0.074, 192.0, 0.0, 0.0, 0.0, 0.0, 0.0, 0.0, 0.0, 0.0, 0.0, 1.7395365214042099E9, 0.0, 2025-02-14 09:35:21.404
64.0, -180336.98115789666, -92057.91706537212, -187500.02235174447, -187500.02235174447, -187500.02235174447, -187500.02235174447, -182471.52804988957, -180836.31912902824, 0.20600000000000002, 0.988, 0.074, 192.0, 0.0, 0.0, 0.0, 0.0, 0.0, 0.0, 0.0, 0.0, 0.0, 1.739536521404222E9, 0.0, 2025-02-14 09:35:21.404
65.0, -180311.4554657287, -92054.85487638175, -187500.02235174447, -187500.02235174447, -187500.02235174447, -187500.02235174447, -182580.71632155374, -180740.92188369296, 0.20600000000000002, 0.988, 0.074, 192.0, 0.0, 0.0, 0.0, 0.0, 0.0, 0.0, 0.0, 0.0, 0.0, 1.739536521404234E9, 0.0, 2025-02-14 09:35:21.404
66.0, -180411.85950182195, -92200.36473278579, -187500.02235174447, -187500.02235174447, -187500.02235174447, -187500.02235174447, -182567.8417167475, -180753.46121233242, 0.20600000000000002, 0.988, 0.074, 192.0, 0.0, 0.0, 0.0, 0.0, 0.0, 0.0, 0.0, 0.0, 0.0, 1.7395365214042463E9, 0.0, 2025-02-14 09:35:21.404
67.0, -180451.66795869684, -92297.01367581054, -187500.02235174447, -187500.02235174447, -187500.02235174447, -187500.02235174447, -182457.2676369271, -180845.6398064661, 0.20600000000000002, 0.988, 0.074, 192.0, 0.0, 0.0, 0.0, 0.0, 0.0, 0.0, 0.0, 0.0, 0.0, 1.7395365214042585E9, 0.0, 2025-02-14 09:35:21.404
68.0, -180344.31253007802, -92242.65423329524, -187500.02235174447, -187500.02235174447, -187500.02235174447, -187500.02235174447, -182459.21223869472, -180849.9760448904, 0.20600000000000002, 0.988, 0.074, 192.0, 0.0, 0.0, 0.0, 0.0, 0.0, 0.0, 0.0, 0.0, 0.0, 1.7395365214042706E9, 0.0, 2025-02-14 09:35:21.404
69.0, -180297.57503242197, -92212.3676195583, -187500.02235174447, -187500.02235174447, -187500.02235174447, -187500.02235174447, -182569.51809758166, -180767.7663287838, 0.20600000000000002, 0.988, 0.074, 192.0, 0.0, 0.0, 0.0, 0.0, 0.0, 0.0, 0.0, 0.0, 0.0, 1.7395365214042828E9, 0.0, 2025-02-14 09:35:21.404
70.0, -180392.41348414583, -92338.20794084168, -187500.02235174447, -187500.02235174447, -187500.02235174447, -187500.02235174447, -182579.37521688643, -180744.49816280583, 0.20600000000000002, 0.988, 0.074, 192.0, 0.0, 0.0, 0.0, 0.0, 0.0, 0.0, 0.0, 0.0, 0.0, 1.7395365214042952E9, 0.0, 2025-02-14 09:35:21.404
71.0, -180461.5474297461, -92458.59443647796, -187500.02235174447, -187500.02235174447, -187500.02235174447, -187500.02235174447, -182472.91385804582, -180845.930379144, 0.20800000000000002, 0.99, 0.076, 192.0, 6.0, 128.0, 30.0, 240.0, 2.0, 96.0, 0.0, 0.0, 0.0, 1.739536521404314E9, 0.0, 2025-02-14 09:35:21.404
72.0, -180375.7167310377, -92421.9152238268, -187500.02235174447, -187500.02235174447, -187500.02235174447, -187500.02235174447, -182446.49409609963, -180857.8438589387, 0.20800000000000002, 0.99, 0.076, 192.0, 0.0, 0.0, 0.0, 0.0, 0.0, 0.0, 0.0, 0.0, 0.0, 1.7395365214043272E9, 0.0, 2025-02-14 09:35:21.404
73.0, -180318.3174512765, -92367.44402258922, -187500.02235174447, -187500.02235174447, -187500.02235174447, -187500.02235174447, -182554.29655960758, -180788.84402380517, 0.20800000000000002, 0.99, 0.076, 192.0, 0.0, 0.0, 0.0, 0.0, 0.0, 0.0, 0.0, 0.0, 0.0, 1.7395365214043393E9, 0.0, 2025-02-14 09:35:21.404
74.0, -180373.7721292701, -92470.57497150601, -187500.02235174447, -187500.02235174447, -187500.02235174447, -187500.02235174447, -182598.351847929, -180732.2717585888, 0.20800000000000002, 0.99, 0.076, 192.0, 0.0, 0.0, 0.0, 0.0, 0.0, 0.0, 0.0, 0.0, 0.0, 1.7395365214043517E9, 0.0, 2025-02-14 09:35:21.404
75.0, -180466.21894433725, -92610.85451970751, -187500.02235174447, -187500.02235174447, -187500.02235174447, -187500.02235174447, -182490.83995709897, -180838.66606219605, 0.20800000000000002, 0.99, 0.076, 192.0, 0.0, 0.0, 0.0, 0.0, 0.0, 0.0, 0.0, 0.0, 0.0, 1.739536521404364E9, 0.0, 2025-02-14 09:35:21.404
76.0, -180397.19675745926, -92601.37738005846, -187500.02235174447, -187500.02235174447, -187500.02235174447, -187500.02235174447, -182441.8672849974, -180869.6008765222, 0.20800000000000002, 0.99, 0.076, 192.0, 0.0, 0.0, 0.0, 0.0, 0.0, 0.0, 0.0, 0.0, 0.0, 1.7395365214043765E9, 0.0, 2025-02-14 09:35:21.404
77.0, -180352.00153017064, -92532.57871062502, -187500.02235174447, -187500.02235174447, -187500.02235174447, -187500.02235174447, -182533.39767854186, -180817.70012589695, 0.20800000000000002, 0.99, 0.076, 192.0, 0.0, 0.0, 0.0, 0.0, 0.0, 0.0, 0.0, 0.0, 0.0, 1.739536521404389E9, 0.0, 2025-02-14 09:35:21.404
78.0, -180375.09088219298, -92607.21118536129, -187500.02235174447, -187500.02235174447, -187500.02235174447, -187500.02235174447, -182592.54039437062, -180735.13278187905, 0.20800000000000002, 0.99, 0.076, 192.0, 0.0, 0.0, 0.0, 0.0, 0.0, 0.0, 0.0, 0.0, 0.0, 1.7395365214044013E9, 0.0, 2025-02-14 09:35:21.404
79.0, -180474.44438629682, -92756.87846623403, -187500.02235174447, -187500.02235174447, -187500.02235174447, -187500.02235174447, -182505.8826811174, -180825.81380913424, 0.20800000000000002, 0.99, 0.076, 192.0, 0.0, 0.0, 0.0, 0.0, 0.0, 0.0, 0.0, 0.0, 0.0, 1.7395365214044137E9, 0.0, 2025-02-14 09:35:21.404
80.0, -180423.37065021644, -92770.93771349642, -187500.02235174447, -187500.02235174447, -187500.02235174447, -187500.02235174447, -182439.34153787393, -180868.9973794219, 0.20800000000000002, 0.99, 0.076, 192.0, 0.0, 0.0, 0.0, 0.0, 0.0, 0.0, 0.0, 0.0, 0.0, 1.7395365214044256E9, 0.0, 2025-02-14 09:35:21.404
81.0, -180363.0209401871, -92694.78532013719, -187500.02235174447, -187500.02235174447, -187500.02235174447, -187500.02235174447, -182515.96331786673, -180830.37356500313, 0.20600000000000002, 0.994, 0.07200000000000001, 192.0, 6.0, 112.0, 31.0, 16.0, 2.0, 64.0, 0.0, 0.0, 0.0, 1.7395365214044375E9, 0.0, 2025-02-14 09:35:21.404
82.0, -180369.43589084578, -92740.82991371512, -187500.02235174447, -187500.02235174447, -187500.02235174447, -187500.02235174447, -182602.91160379787, -180735.37865106805, 0.20600000000000002, 0.994, 0.07200000000000001, 192.0, 0.0, 0.0, 0.0, 0.0, 0.0, 0.0, 0.0, 0.0, 0.0, 1.7395365214044504E9, 0.0, 2025-02-14 09:35:21.404
83.0, -180473.39385430742, -92896.68862780198, -187500.02235174447, -187500.02235174447, -187500.02235174447, -187500.02235174447, -182547.74749848217, -180808.04417229226, 0.20600000000000002, 0.994, 0.07200000000000001, 192.0, 0.0, 0.0, 0.0, 0.0, 0.0, 0.0, 0.0, 0.0, 0.0, 1.7395365214044623E9, 0.0, 2025-02-14 09:35:21.404
84.0, -180453.03141510862, -92944.29784349177, -187500.02235174447, -187500.02235174447, -187500.02235174447, -187500.02235174447, -182455.23362818165, -180873.4453765685, 0.20600000000000002, 0.994, 0.07200000000000001, 192.0, 0.0, 0.0, 0.0, 0.0, 0.0, 0.0, 0.0, 0.0, 0.0, 1.7395365214044805E9, 0.0, 2025-02-14 09:35:21.404
85.0, -180334.43305902876, -92869.66536875551, -187500.02235174447, -187500.02235174447, -187500.02235174447, -187500.02235174447, -182509.5260154636, -180852.45708852497, 0.20600000000000002, 0.994, 0.07200000000000001, 192.0, 0.0, 0.0, 0.0, 0.0, 0.0, 0.0, 0.0, 0.0, 0.0, 1.7395365214044952E9, 0.0, 2025-02-14 09:35:21.404
86.0, -180342.30087307704, -92886.63034279709, -187500.02235174447, -187500.02235174447, -187500.02235174447, -187500.02235174447, -182615.89796732643, -180751.89659022054, 0.20600000000000002, 0.994, 0.07200000000000001, 192.0, 0.0, 0.0, 0.0, 0.0, 0.0, 0.0, 0.0, 0.0, 0.0, 1.7395365214045143E9, 0.0, 2025-02-14 09:35:21.404
87.0, -180455.33364478752, -93037.32580391476, -187500.02235174447, -187500.02235174447, -187500.02235174447, -187500.02235174447, -182580.76102504268, -180790.29688719474, 0.20600000000000002, 0.994, 0.07200000000000001, 192.0, 0.0, 0.0, 0.0, 0.0, 0.0, 0.0, 0.0, 0.0, 0.0, 1.7395365214045265E9, 0.0, 2025-02-14 09:35:21.404
88.0, -180466.08483387053, -93109.2313658275, -187500.02235174447, -187500.02235174447, -187500.02235174447, -187500.02235174447, -182468.33175043247, -180869.33265558872, 0.20600000000000002, 0.994, 0.07200000000000001, 192.0, 0.0, 0.0, 0.0, 0.0, 0.0, 0.0, 0.0, 0.0, 0.0, 1.7395365214045389E9, 0.0, 2025-02-14 09:35:21.404
89.0, -180393.17344345732, -93039.3598126602, -187500.02235174447, -187500.02235174447, -187500.02235174447, -187500.02235174447, -182493.1198350334, -180868.86326895515, 0.20600000000000002, 0.994, 0.07200000000000001, 192.0, 0.0, 0.0, 0.0, 0.0, 0.0, 0.0, 0.0, 0.0, 0.0, 1.7395365214045508E9, 0.0, 2025-02-14 09:35:21.404
90.0, -180384.54567009755, -93022.70776304099, -187500.02235174447, -187500.02235174447, -187500.02235174447, -187500.02235174447, -182595.84845255, -180771.27555266328, 0.20600000000000002, 0.994, 0.07200000000000001, 192.0, 0.0, 0.0, 0.0, 0.0, 0.0, 0.0, 0.0, 0.0, 0.0, 1.7395365214045632E9, 0.0, 2025-02-14 09:35:21.404
91.0, -180446.05767083858, -93161.22152343053, -187500.02235174447, -187500.02235174447, -187500.02235174447, -187500.02235174447, -182575.91069649588, -180775.0082939873, 0.21, 0.982, 0.07200000000000001, 192.0, 6.0, 144.0, 30.0, 176.0, 2.0, 64.0, 0.0, 0.0, 0.0, 1.739536521404576E9, 0.0, 2025-02-14 09:35:21.404
92.0, -180490.4035318379, -93263.34664384683, -187500.02235174447, -187500.02235174447, -187500.02235174447, -187500.02235174447, -182468.84584055495, -180881.62611503914, 0.21, 0.982, 0.07200000000000001, 192.0, 0.0, 0.0, 0.0, 0.0, 0.0, 0.0, 0.0, 0.0, 0.0, 1.7395365214045887E9, 0.0, 2025-02-14 09:35:21.404
93.0, -180386.04323697608, -93210.64123042121, -187500.02235174447, -187500.02235174447, -187500.02235174447, -187500.02235174447, -182468.44350915475, -180885.87294648564, 0.21, 0.982, 0.07200000000000001, 192.0, 0.0, 0.0, 0.0, 0.0, 0.0, 0.0, 0.0, 0.0, 0.0, 1.739536521404601E9, 0.0, 2025-02-14 09:35:21.404
94.0, -180356.1142511504, -93173.44792764759, -187500.02235174447, -187500.02235174447, -187500.02235174447, -187500.02235174447, -182580.090472709, -180803.30560246774, 0.21, 0.982, 0.07200000000000001, 192.0, 0.0, 0.0, 0.0, 0.0, 0.0, 0.0, 0.0, 0.0, 0.0, 1.7395365214046135E9, 0.0, 2025-02-14 09:35:21.404
95.0, -180430.09852529748, -93295.19787969564, -187500.02235174447, -187500.02235174447, -187500.02235174447, -187500.02235174447, -182597.81540606206, -180768.19101192846, 0.21, 0.982, 0.07200000000000001, 192.0, 0.0, 0.0, 0.0, 0.0, 0.0, 0.0, 0.0, 0.0, 0.0, 1.739536521404626E9, 0.0, 2025-02-14 09:35:21.404
96.0, -180500.5959273095, -93420.16648294526, -187500.02235174447, -187500.02235174447, -187500.02235174447, -187500.02235174447, -182481.09459651646, -180872.77482423483, 0.21, 0.982, 0.07200000000000001, 192.0, 0.0, 0.0, 0.0, 0.0, 0.0, 0.0, 0.0, 0.0, 0.0, 1.7395365214046383E9, 0.0, 2025-02-14 09:35:21.404
97.0, -180406.5844901305, -93392.38326458732, -187500.02235174447, -187500.02235174447, -187500.02235174447, -187500.02235174447, -182447.03053796658, -180890.92444073255, 0.21, 0.982, 0.07200000000000001, 192.0, 0.0, 0.0, 0.0, 0.0, 0.0, 0.0, 0.0, 0.0, 0.0, 1.7395365214046504E9, 0.0, 2025-02-14 09:35:21.404
98.0, -180357.812983729, -93337.46502846063, -187500.02235174447, -187500.02235174447, -187500.02235174447, -187500.02235174447, -182551.99432992868, -180828.04898357976, 0.21, 0.982, 0.07200000000000001, 192.0, 0.0, 0.0, 0.0, 0.0, 0.0, 0.0, 0.0, 0.0, 0.0, 1.7395365214046624E9, 0.0, 2025-02-14 09:35:21.404
99.0, -180415.21226349025, -93437.98082327614, -187500.02235174447, -187500.02235174447, -187500.02235174447, -187500.02235174447, -182593.12153972645, -180762.3125031367, 0.21, 0.982, 0.07200000000000001, 192.0, 0.0, 0.0, 0.0, 0.0, 0.0, 0.0, 0.0, 0.0, 0.0, 1.7395365214046745E9, 0.0, 2025-02-14 09:35:21.404
100.0, -180510.34128789202, -93582.4848511797, -187500.02235174447, -187500.02235174447, -187500.02235174447, -187500.02235174447, -182496.1820240238, -180869.13148988862, 0.21, 0.982, 0.07200000000000001, 192.0, 0.0, 0.0, 0.0, 0.0, 0.0, 0.0, 0.0, 0.0, 0.0, 1.7395365214046867E9, 0.0, 2025-02-14 09:35:21.404
101.0, -180437.67576666782, -93577.34394995499, -187500.02235174447, -187500.02235174447, -187500.02235174447, -187500.02235174447, -182440.2132559077, -180900.98272573744, 0.20400000000000001, 0.994, 0.076, 192.0, 6.0, 96.0, 31.0, 16.0, 2.0, 96.0, 0.0, 0.0, 0.0, 1.7395365214047055E9, 0.0, 2025-02-14 09:35:21.404
102.0, -180345.7653934676, -93505.97482990919, -187500.02235174447, -187500.02235174447, -187500.02235174447, -187500.02235174447, -182533.84471343097, -180852.65825422507, 0.20400000000000001, 0.994, 0.076, 192.0, 0.0, 0.0, 0.0, 0.0, 0.0, 0.0, 0.0, 0.0, 0.0, 1.7395365214047184E9, 0.0, 2025-02-14 09:35:21.404
103.0, -180387.49610036565, -93575.2875894651, -187500.02235174447, -187500.02235174447, -187500.02235174447, -187500.02235174447, -182604.99031603223, -180764.12299443758, 0.20400000000000001, 0.994, 0.076, 192.0, 0.0, 0.0, 0.0, 0.0, 0.0, 0.0, 0.0, 0.0, 0.0, 1.7395365214047303E9, 0.0, 2025-02-14 09:35:21.404
104.0, -180498.07018018607, -93726.36303023851, -187500.02235174447, -187500.02235174447, -187500.02235174447, -187500.02235174447, -182524.25581505965, -180848.21025707846, 0.20400000000000001, 0.994, 0.076, 192.0, 0.0, 0.0, 0.0, 0.0, 0.0, 0.0, 0.0, 0.0, 0.0, 1.7395365218833039E9, 0.0, 2025-02-14 09:35:21.883
105.0, -180457.3900052774, -93748.1783328269, -187500.02235174447, -187500.02235174447, -187500.02235174447, -187500.02235174447, -182451.79145953554, -180897.83112976924, 0.20400000000000001, 0.994, 0.076, 192.0, 0.0, 0.0, 0.0, 0.0, 0.0, 0.0, 0.0, 0.0, 0.0, 1.7395365218833501E9, 0.0, 2025-02-14 09:35:21.883
106.0, -180394.46984463572, -93668.69552954382, -187500.02235174447, -187500.02235174447, -187500.02235174447, -187500.02235174447, -182533.66589947534, -180868.7962137218, 0.20400000000000001, 0.994, 0.076, 192.0, 0.0, 0.0, 0.0, 0.0, 0.0, 0.0, 0.0, 0.0, 0.0, 1.739536521883365E9, 0.0, 2025-02-14 09:35:21.883
107.0, -180377.1695944273, -93705.93353580637, -187500.02235174447, -187500.02235174447, -187500.02235174447, -187500.02235174447, -182629.82310412207, -180768.10160495064, 0.20400000000000001, 0.994, 0.076, 192.0, 0.0, 0.0, 0.0, 0.0, 0.0, 0.0, 0.0, 0.0, 0.0, 1.739536521883379E9, 0.0, 2025-02-14 09:35:21.883
108.0, -180490.42588358236, -93860.98758709284, -187500.02235174447, -187500.02235174447, -187500.02235174447, -187500.02235174447, -182583.06325472158, -180835.89444588358, 0.20400000000000001, 0.994, 0.076, 192.0, 0.0, 0.0, 0.0, 0.0, 0.0, 0.0, 0.0, 0.0, 0.0, 1.739536521883392E9, 0.0, 2025-02-14 09:35:21.883
109.0, -180477.59598226502, -93911.25666037282, -187500.02235174447, -187500.02235174447, -187500.02235174447, -187500.02235174447, -182490.6164396544, -180904.06726647227, 0.20400000000000001, 0.994, 0.076, 192.0, 0.0, 0.0, 0.0, 0.0, 0.0, 0.0, 0.0, 0.0, 0.0, 1.7395365218834057E9, 0.0, 2025-02-14 09:35:21.883
110.0, -180415.16756000134, -93833.96432804636, -187500.02235174447, -187500.02235174447, -187500.02235174447, -187500.02235174447, -182546.76402172615, -180884.53184181833, 0.20400000000000001, 0.994, 0.076, 192.0, 0.0, 0.0, 0.0, 0.0, 0.0, 0.0, 0.0, 0.0, 0.0, 1.7395365218834183E9, 0.0, 2025-02-14 09:35:21.883
111.0, -180412.06066752205, -93841.42981069443, -187500.02235174447, -187500.02235174447, -187500.02235174447, -187500.02235174447, -182645.49167698523, -180782.1161487241, 0.216, 0.984, 0.074, 192.0, 6.0, 192.0, 30.0, 192.0, 2.0, 80.0, 0.0, 0.0, 0.0, 1.7395365218834317E9, 0.0, 2025-02-14 09:35:21.883
112.0, -180487.78837773664, -93989.64422817758, -187500.02235174447, -187500.02235174447, -187500.02235174447, -187500.02235174447, -182608.07485676705, -180813.74386712836, 0.216, 0.984, 0.074, 192.0, 0.0, 0.0, 0.0, 0.0, 0.0, 0.0, 0.0, 0.0, 0.0, 1.7395365218834455E9, 0.0, 2025-02-14 09:35:21.883
113.0, -180504.03809595562, -94068.59058959373, -187500.02235174447, -187500.02235174447, -187500.02235174447, -187500.02235174447, -182498.5736606805, -180901.65327807108, 0.216, 0.984, 0.074, 192.0, 0.0, 0.0, 0.0, 0.0, 0.0, 0.0, 0.0, 0.0, 0.0, 1.7395365218834586E9, 0.0, 2025-02-14 09:35:21.883
114.0, -180414.87698732343, -94002.09414983919, -187500.02235174447, -187500.02235174447, -187500.02235174447, -187500.02235174447, -182523.89818714836, -180896.95941173547, 0.216, 0.984, 0.074, 192.0, 0.0, 0.0, 0.0, 0.0, 0.0, 0.0, 0.0, 0.0, 0.0, 1.7395365218834715E9, 0.0, 2025-02-14 09:35:21.883
115.0, -180398.7837313156, -93981.17291702902, -187500.02235174447, -187500.02235174447, -187500.02235174447, -187500.02235174447, -182637.24388328122, -180805.429018191, 0.216, 0.984, 0.074, 192.0, 0.0, 0.0, 0.0, 0.0, 0.0, 0.0, 0.0, 0.0, 0.0, 1.739536521883484E9, 0.0, 2025-02-14 09:35:21.883
116.0, -180474.84671769702, -94116.75859889491, -187500.02235174447, -187500.02235174447, -187500.02235174447, -187500.02235174447, -182638.09324957052, -180801.85273907814, 0.216, 0.984, 0.074, 192.0, 0.0, 0.0, 0.0, 0.0, 0.0, 0.0, 0.0, 0.0, 0.0, 1.7395365218835351E9, 0.0, 2025-02-14 09:35:21.883
117.0, -180524.1546659654, -94221.1412455012, -187500.02235174447, -187500.02235174447, -187500.02235174447, -187500.02235174447, -182528.07796336152, -180902.3014786603, 0.216, 0.984, 0.074, 192.0, 0.0, 0.0, 0.0, 0.0, 0.0, 0.0, 0.0, 0.0, 0.0, 1.739536521883549E9, 0.0, 2025-02-14 09:35:21.883
118.0, -180437.1393248009, -94169.39695708716, -187500.02235174447, -187500.02235174447, -187500.02235174447, -187500.02235174447, -182521.10421909144, -180912.38211540965, 0.216, 0.984, 0.074, 192.0, 0.0, 0.0, 0.0, 0.0, 0.0, 0.0, 0.0, 0.0, 0.0, 1.7395365218835618E9, 0.0, 2025-02-14 09:35:21.883
119.0, -180402.09178949497, -94123.6652879316, -187500.02235174447, -187500.02235174447, -187500.02235174447, -187500.02235174447, -182625.7997901201, -180833.45810573795, 0.216, 0.984, 0.074, 192.0, 0.0, 0.0, 0.0, 0.0, 0.0, 0.0, 0.0, 0.0, 0.0, 1.7395365218835745E9, 0.0, 2025-02-14 09:35:21.883
120.0, -180455.78067967662, -94237.36861197575, -187500.02235174447, -187500.02235174447, -187500.02235174447, -187500.02235174447, -182654.25356081172, -180787.14529122657, 0.216, 0.984, 0.074, 192.0, 0.0, 0.0, 0.0, 0.0, 0.0, 0.0, 0.0, 0.0, 0.0, 1.7395365218835871E9, 0.0, 2025-02-14 09:35:21.883
121.0, -180531.93307303585, -94365.53351468248, -187500.02235174447, -187500.02235174447, -187500.02235174447, -187500.02235174447, -182554.20715262977, -180900.28982165933, 0.21, 0.968, 0.08, 192.0, 6.0, 144.0, 30.0, 64.0, 2.0, 128.0, 0.0, 0.0, 0.0, 1.7395365218836E9, 0.0, 2025-02-14 09:35:21.883
122.0, -180455.601865721, -94337.90675853573, -187500.02235174447, -187500.02235174447, -187500.02235174447, -187500.02235174447, -182513.50462597664, -180919.5570253798, 0.21, 0.968, 0.08, 192.0, 0.0, 0.0, 0.0, 0.0, 0.0, 0.0, 0.0, 0.0, 0.0, 1.7395365218836136E9, 0.0, 2025-02-14 09:35:21.883
123.0, -180439.10627831297, -94274.18193509364, -187500.02235174447, -187500.02235174447, -187500.02235174447, -187500.02235174447, -182618.42371444986, -180858.2461903389, 0.21, 0.968, 0.08, 192.0, 0.0, 0.0, 0.0, 0.0, 0.0, 0.0, 0.0, 0.0, 0.0, 1.7395365218836265E9, 0.0, 2025-02-14 09:35:21.883
124.0, -180455.73597618772, -94365.6229216603, -187500.02235174447, -187500.02235174447, -187500.02235174447, -187500.02235174447, -182672.9172674319, -180784.19486095847, 0.21, 0.968, 0.08, 192.0, 0.0, 0.0, 0.0, 0.0, 0.0, 0.0, 0.0, 0.0, 0.0, 1.739536521883639E9, 0.0, 2025-02-14 09:35:21.883
125.0, -180549.65800638893, -94510.77515015306, -187500.02235174447, -187500.02235174447, -187500.02235174447, -187500.02235174447, -182586.46071987879, -180886.9458302195, 0.21, 0.968, 0.08, 192.0, 0.0, 0.0, 0.0, 0.0, 0.0, 0.0, 0.0, 0.0, 0.0, 1.7395365218836515E9, 0.0, 2025-02-14 09:35:21.883
126.0, -180483.80976722357, -94509.47874897465, -187500.02235174447, -187500.02235174447, -187500.02235174447, -187500.02235174447, -182524.14405633736, -180925.68140336053, 0.21, 0.968, 0.08, 192.0, 0.0, 0.0, 0.0, 0.0, 0.0, 0.0, 0.0, 0.0, 0.0, 1.739536521883664E9, 0.0, 2025-02-14 09:35:21.883
127.0, -180409.26669946514, -94433.77339050453, -187500.02235174447, -187500.02235174447, -187500.02235174447, -187500.02235174447, -182608.41013293387, -180884.68830402952, 0.21, 0.968, 0.08, 192.0, 0.0, 0.0, 0.0, 0.0, 0.0, 0.0, 0.0, 0.0, 0.0, 1.7395365218836765E9, 0.0, 2025-02-14 09:35:21.883
128.0, -180429.56208343056, -94496.04535055702, -187500.02235174447, -187500.02235174447, -187500.02235174447, -187500.02235174447, -182681.94737219185, -180787.65938134902, 0.21, 0.968, 0.08, 192.0, 0.0, 0.0, 0.0, 0.0, 0.0, 0.0, 0.0, 0.0, 0.0, 1.7395365218836892E9, 0.0, 2025-02-14 09:35:21.883
129.0, -180540.62790162896, -94650.00416636518, -187500.02235174447, -187500.02235174447, -187500.02235174447, -187500.02235174447, -182613.61808939197, -180880.1508999051, 0.21, 0.968, 0.08, 192.0, 0.0, 0.0, 0.0, 0.0, 0.0, 0.0, 0.0, 0.0, 0.0, 1.739536521883702E9, 0.0, 2025-02-14 09:35:21.883
130.0, -180504.7980552671, -94676.71450098927, -187500.02235174447, -187500.02235174447, -187500.02235174447, -187500.02235174447, -182537.55510301056, -180936.23142674344, 0.21, 0.968, 0.08, 192.0, 0.0, 0.0, 0.0, 0.0, 0.0, 0.0, 0.0, 0.0, 0.0, 1.7395365218837218E9, 0.0, 2025-02-14 09:35:21.883
131.0, -180460.5416012456, -94596.96347677273, -187500.02235174447, -187500.02235174447, -187500.02235174447, -187500.02235174447, -182612.41109519138, -180907.82235954076, 0.21, 0.982, 0.084, 192.0, 6.0, 144.0, 30.0, 176.0, 2.0, 160.0, 0.0, 0.0, 0.0, 1.7395365218837345E9, 0.0, 2025-02-14 09:35:21.883
132.0, -180448.56106621757, -94630.49109345568, -187500.02235174447, -187500.02235174447, -187500.02235174447, -187500.02235174447, -182710.95993649482, -180806.0772187802, 0.21, 0.982, 0.084, 192.0, 0.0, 0.0, 0.0, 0.0, 0.0, 0.0, 0.0, 0.0, 0.0, 1.7395365218837476E9, 0.0, 2025-02-14 09:35:21.883
133.0, -180544.96414005331, -94784.49461275275, -187500.02235174447, -187500.02235174447, -187500.02235174447, -187500.02235174447, -182665.02710163916, -180864.7505479754, 0.21, 0.982, 0.084, 192.0, 0.0, 0.0, 0.0, 0.0, 0.0, 0.0, 0.0, 0.0, 0.0, 1.7395365218837602E9, 0.0, 2025-02-14 09:35:21.883
134.0, -180535.10702074852, -94838.5858343346, -187500.02235174447, -187500.02235174447, -187500.02235174447, -187500.02235174447, -182567.61819930296, -180936.3655372102, 0.21, 0.982, 0.084, 192.0, 0.0, 0.0, 0.0, 0.0, 0.0, 0.0, 0.0, 0.0, 0.0, 1.7395365218837848E9, 0.0, 2025-02-14 09:35:21.883
135.0, -180429.56208343056, -94761.09233630805, -187500.02235174447, -187500.02235174447, -187500.02235174447, -187500.02235174447, -182618.1554935164, -180925.63669987163, 0.21, 0.982, 0.084, 192.0, 0.0, 0.0, 0.0, 0.0, 0.0, 0.0, 0.0, 0.0, 0.0, 1.7395365218837976E9, 0.0, 2025-02-14 09:35:21.883
136.0, -180423.05772579406, -94762.03110957517, -187500.02235174447, -187500.02235174447, -187500.02235174447, -187500.02235174447, -182724.75096282375, -180820.49409395386, 0.21, 0.982, 0.084, 192.0, 0.0, 0.0, 0.0, 0.0, 0.0, 0.0, 0.0, 0.0, 0.0, 1.73953652188381E9, 0.0, 2025-02-14 09:35:21.883
137.0, -180520.2207589413, -94907.58566946813, -187500.02235174447, -187500.02235174447, -187500.02235174447, -187500.02235174447, -182695.44782584286, -180844.6339779656, 0.21, 0.982, 0.084, 192.0, 0.0, 0.0, 0.0, 0.0, 0.0, 0.0, 0.0, 0.0, 0.0, 1.739536521883823E9, 0.0, 2025-02-14 09:35:21.883
138.0, -180544.22653248627, -94990.57769663069, -187500.02235174447, -187500.02235174447, -187500.02235174447, -187500.02235174447, -182584.35965589999, -180938.64541514462, 0.21, 0.982, 0.084, 192.0, 0.0, 0.0, 0.0, 0.0, 0.0, 0.0, 0.0, 0.0, 0.0, 1.7395365218838356E9, 0.0, 2025-02-14 09:35:21.883
