%OpenBCI Raw EXG Data
%Number of channels = 8
%Sample Rate = 250 Hz
%Board = OpenBCI_GUI$BoardCytonSerial
Sample Index, EXG Channel 0, EXG Channel 1, EXG Channel 2, EXG Channel 3, EXG Channel 4, EXG Channel 5, EXG Channel 6, EXG Channel 7, Accel Channel 0, Accel Channel 1, Accel Channel 2, Not Used, Digital Channel 0 (D11), Digital Channel 1 (D12), Digital Channel 2 (D13), Digital Channel 3 (D17), Not Used, Digital Channel 4 (D18), Analog Channel 0, Analog Channel 1, Analog Channel 2, Timestamp, Marker Channel, Timestamp (Formatted)
0.0, -167024.43862252697, -167081.39086739908, -163984.02023124936, -167243.8209943558, -163616.24462798174, -164554.57086021555, -160771.82868383275, -156858.28409889748, -0.028, 0.446, 0.212, 192.0, 255.0, 32.0, 13.0, 240.0, 6.0, 160.0, 0.0, 0.0, 0.0, 1.7307466710170095E9, 0.0, 2024-11-04 15:57:51.017
1.0, -167025.89148591657, -167082.79902729977, -163166.48282605206, -167244.49154668947, -162934.85169826171, -165152.65883835065, -161630.98503720583, -156855.57953781838, -0.028, 0.446, 0.212, 192.0, 0.0, 0.0, 0.0, 0.0, 0.0, 0.0, 0.0, 0.0, 0.0, 1.7307466710198023E9, 0.0, 2024-11-04 15:57:51.019
2.0, -167022.33755854817, -167079.22274818693, -163853.77661630829, -167242.43518619958, -163536.56065899858, -164743.46545260734, -161452.86398564148, -157168.1016287925, -0.028, 0.446, 0.212, 192.0, 0.0, 0.0, 0.0, 0.0, 0.0, 0.0, 0.0, 0.0, 0.0, 1.730746671023774E9, 0.0, 2024-11-04 15:57:51.023
3.0, -167023.74571844886, -167080.76501855435, -164655.84661434253, -167244.49154668947, -164208.34233860284, -164169.4950067395, -160954.93417441062, -157177.73523065273, -0.028, 0.446, 0.212, 192.0, 0.0, 0.0, 0.0, 0.0, 0.0, 0.0, 0.0, 0.0, 0.0, 1.7307466710277174E9, 0.0, 2024-11-04 15:57:51.027
4.0, -167027.8137359397, -167084.7883325563, -164184.64948948022, -167247.6207909132, -163792.13050510056, -164460.69353350325, -161227.46899455416, -156944.0030388836, -0.028, 0.446, 0.212, 192.0, 0.0, 0.0, 0.0, 0.0, 0.0, 0.0, 0.0, 0.0, 0.0, 1.7307466710308244E9, 0.0, 2024-11-04 15:57:51.030
5.0, -167028.59604699566, -167085.41418140105, -163259.5778417084, -167247.3302182353, -163016.01088237893, -165087.16822709658, -161781.65814657905, -156871.44927638167, -0.028, 0.446, 0.212, 192.0, 0.0, 0.0, 0.0, 0.0, 0.0, 0.0, 0.0, 0.0, 0.0, 1.7307466710348337E9, 0.0, 2024-11-04 15:57:51.034
6.0, -167028.84191618467, -167085.81651280125, -163683.0316404142, -167248.85013685827, -163395.0070613631, -164860.7674075088, -161548.99883854378, -157146.4874919042, -0.028, 0.446, 0.212, 192.0, 0.0, 0.0, 0.0, 0.0, 0.0, 0.0, 0.0, 0.0, 0.0, 1.7307466710387928E9, 0.0, 2024-11-04 15:57:51.038
7.0, -167031.50177377486, -167088.65518434707, -164639.7533583347, -167252.49347120448, -164203.7602309895, -164182.03433537894, -160721.67136927502, -157210.03350139066, -0.05, 0.682, 0.324, 192.0, 254.0, 112.0, 21.0, 80.0, 10.0, 32.0, 0.0, 0.0, 0.0, 1.7307466710429251E9, 0.0, 2024-11-04 15:57:51.042
8.0, -167033.33461682018, -167090.2421582034, -164357.11554969737, -167253.29813400487, -163944.47999530792, -164356.1320729413, -160577.7037832384, -156950.552100009, -0.05, 0.682, 0.324, 192.0, 0.0, 0.0, 0.0, 0.0, 0.0, 0.0, 0.0, 0.0, 0.0, 1.7307466710480416E9, 0.0, 2024-11-04 15:57:51.048
9.0, -167032.93228541999, -167089.66101284756, -163362.28410748055, -167251.5770496818, -163102.28861597643, -165030.5959618802, -161387.46278136526, -156820.59905774583, -0.05, 0.682, 0.324, 192.0, 0.0, 0.0, 0.0, 0.0, 0.0, 0.0, 0.0, 0.0, 0.0, 1.730746671052074E9, 0.0, 2024-11-04 15:57:51.052
10.0, -167032.06056738622, -167088.8339983027, -163483.87759731742, -167251.68880840408, -163225.08910001387, -165022.72814783195, -161691.5135611908, -157073.75491544665, -0.05, 0.682, 0.324, 192.0, 0.0, 0.0, 0.0, 0.0, 0.0, 0.0, 0.0, 0.0, 0.0, 1.730746671055896E9, 0.0, 2024-11-04 15:57:51.055
11.0, -167032.5746575087, -167089.437495403, -164535.10249079496, -167253.54400319388, -164118.64478810367, -164289.05448783096, -161087.85999868633, -157242.6670482954, -0.05, 0.682, 0.324, 192.0, 0.0, 0.0, 0.0, 0.0, 0.0, 0.0, 0.0, 0.0, 0.0, 1.730746671058786E9, 0.0, 2024-11-04 15:57:51.058
12.0, -167036.79913721076, -167093.61727161615, -164503.586531113, -167257.1202823067, -164071.68377300308, -164277.20806326965, -161101.58396978187, -157039.48969119665, -0.05, 0.682, 0.324, 192.0, 0.0, 0.0, 0.0, 0.0, 0.0, 0.0, 0.0, 0.0, 0.0, 1.7307466710629811E9, 0.0, 2024-11-04 15:57:51.062
13.0, -167038.65433200056, -167095.56187338376, -163538.81818518857, -167257.76848289592, -163252.35822824936, -164919.06075704822, -161659.7517323198, -156871.13635195929, -0.05, 0.682, 0.324, 192.0, 0.0, 0.0, 0.0, 0.0, 0.0, 0.0, 0.0, 0.0, 0.0, 1.7307466710669167E9, 0.0, 2024-11-04 15:57:51.066
14.0, -167038.8778494451, -167095.80774257277, -163363.33463946995, -167258.4837387185, -163123.61218018678, -165109.74348899646, -161784.18389370252, -157059.38274376187, -0.05, 0.682, 0.324, 192.0, 0.0, 0.0, 0.0, 0.0, 0.0, 0.0, 0.0, 0.0, 0.0, 1.7307466710708747E9, 0.0, 2024-11-04 15:57:51.070
15.0, -167041.56005877972, -167098.4452484185, -164427.054158098, -167262.55175620934, -164033.79756615133, -164390.64316638032, -161158.02212453153, -157284.7777348492, -0.05, 0.682, 0.324, 192.0, 0.0, 0.0, 0.0, 0.0, 0.0, 0.0, 0.0, 0.0, 0.0, 1.7307466710758903E9, 0.0, 2024-11-04 15:57:51.075
16.0, -167041.9847419244, -167098.82522807425, -164631.77378556418, -167262.484700976, -164189.03043139345, -164216.2995596289, -161015.79797456242, -157111.10468043145, -0.05, 0.682, 0.324, 192.0, 0.0, 0.0, 0.0, 0.0, 0.0, 0.0, 0.0, 0.0, 0.0, 1.730746671079825E9, 0.0, 2024-11-04 15:57:51.079
17.0, -167046.1198146486, -167102.80383858728, -163740.27445796426, -167265.16691031063, -163428.10999490143, -164786.82783685063, -161521.55089635265, -156894.9856632931, -0.05, 0.802, 0.376, 192.0, 254.0, 112.0, 25.0, 16.0, 11.0, 192.0, 0.0, 0.0, 0.0, 1.7307466710838332E9, 0.0, 2024-11-04 15:57:51.083
18.0, -167048.5785065387, -167105.30723396628, -163282.4883797751, -167267.5808987118, -163057.2274991545, -165158.06796050884, -161816.77273711836, -156998.27307442107, -0.05, 0.802, 0.376, 192.0, 0.0, 0.0, 0.0, 0.0, 0.0, 0.0, 0.0, 0.0, 0.0, 1.730746671086959E9, 0.0, 2024-11-04 15:57:51.086
19.0, -167048.86907921662, -167105.86602757766, -164277.23041501408, -167269.6372592017, -163913.67929144853, -164509.8897230494, -161176.99875557408, -157262.49304562726, -0.05, 0.802, 0.376, 192.0, 0.0, 0.0, 0.0, 0.0, 0.0, 0.0, 0.0, 0.0, 0.0, 1.7307466710909135E9, 0.0, 2024-11-04 15:57:51.090
20.0, -167049.76314899483, -167106.6930421225, -164717.69389125038, -167270.59838421326, -164269.58611841037, -164181.63200397874, -160540.48812872032, -157133.6352388424, -0.05, 0.802, 0.376, 192.0, 0.0, 0.0, 0.0, 0.0, 0.0, 0.0, 0.0, 0.0, 0.0, 1.7307466710948565E9, 0.0, 2024-11-04 15:57:51.094
21.0, -167051.30541936224, -167108.1459055121, -163931.96301841296, -167270.6877911911, -163590.02603173567, -164685.0156408567, -160949.1897760856, -156883.2286457096, -0.05, 0.802, 0.376, 192.0, 0.0, 0.0, 0.0, 0.0, 0.0, 0.0, 0.0, 0.0, 0.0, 1.7307466710987868E9, 0.0, 2024-11-04 15:57:51.098
22.0, -167054.05468393024, -167110.939873569, -163231.57110590592, -167272.99002087, -163008.16542007512, -165221.21163859506, -161783.40158264656, -156932.42483525572, -0.05, 0.802, 0.376, 192.0, 0.0, 0.0, 0.0, 0.0, 0.0, 0.0, 0.0, 0.0, 0.0, 1.730746671102808E9, 0.0, 2024-11-04 15:57:51.102
23.0, -167054.7252362639, -167111.72218462493, -164065.91702293363, -167275.29225054887, -163732.2501817048, -164705.10985912202, -161439.83291862404, -157248.29968789814, -0.05, 0.802, 0.376, 192.0, 0.0, 0.0, 0.0, 0.0, 0.0, 0.0, 0.0, 0.0, 0.0, 1.7307466711079495E9, 0.0, 2024-11-04 15:57:51.107
24.0, -167055.6863612755, -167112.61625440317, -164738.39160661597, -167276.67805870512, -164290.50735122056, -164209.57168454787, -161018.32372168585, -157215.107347382, -0.05, 0.802, 0.376, 192.0, 0.0, 0.0, 0.0, 0.0, 0.0, 0.0, 0.0, 0.0, 0.0, 1.730746671110927E9, 0.0, 2024-11-04 15:57:51.110
25.0, -167057.5415560653, -167114.4043939596, -164130.11123300926, -167277.2815558054, -163760.77100762975, -164576.6543837374, -161348.74955996868, -156965.19249262722, -0.05, 0.802, 0.376, 192.0, 0.0, 0.0, 0.0, 0.0, 0.0, 0.0, 0.0, 0.0, 0.0, 1.730746671114962E9, 0.0, 2024-11-04 15:57:51.114
26.0, -167059.8437857442, -167116.77367887183, -163271.62543196982, -167278.71206745054, -163042.81062398085, -165177.06694329585, -161870.12635113316, -156925.07111132995, -0.05, 0.802, 0.376, 192.0, 0.0, 0.0, 0.0, 0.0, 0.0, 0.0, 0.0, 0.0, 0.0, 1.7307466711189473E9, 0.0, 2024-11-04 15:57:51.118
27.0, -167061.56487006723, -167118.56181842828, -163879.01173579833, -167281.8860151632, -163577.82197926307, -164829.8102414382, -161535.20781221485, -157218.0577776501, -0.058, 0.86, 0.404, 192.0, 254.0, 48.0, 26.0, 224.0, 12.0, 160.0, 0.0, 0.0, 0.0, 1.7307466711229184E9, 0.0, 2024-11-04 15:57:51.122
28.0, -167062.5930503122, -167119.5899986732, -164746.25942066425, -167283.60709948625, -164306.9805868841, -164213.013853194, -161012.4005094052, -157244.90222274093, -0.058, 0.86, 0.404, 192.0, 0.0, 0.0, 0.0, 0.0, 0.0, 0.0, 0.0, 0.0, 0.0, 1.7307466711272182E9, 0.0, 2024-11-04 15:57:51.127
29.0, -167063.39771311256, -167120.37230972914, -164335.25554362006, -167283.29417506387, -163940.5907917727, -164449.78588220905, -161246.02094245207, -156993.78037378556, -0.058, 0.86, 0.404, 192.0, 0.0, 0.0, 0.0, 0.0, 0.0, 0.0, 0.0, 0.0, 0.0, 1.7307466711310153E9, 0.0, 2024-11-04 15:57:51.131
30.0, -167065.81170151374, -167122.58513243022, -163374.62227041987, -167284.52352100893, -163132.19525005762, -165093.94080566656, -161828.82032737974, -156896.79615459396, -0.058, 0.86, 0.404, 192.0, 0.0, 0.0, 0.0, 0.0, 0.0, 0.0, 0.0, 0.0, 0.0, 1.7307466711360188E9, 0.0, 2024-11-04 15:57:51.136
31.0, -167066.57166082523, -167123.456850464, -163702.43295460142, -167286.44577103207, -163430.74750074715, -164949.25796380735, -161639.03166520974, -157163.43011420133, -0.058, 0.86, 0.404, 192.0, 0.0, 0.0, 0.0, 0.0, 0.0, 0.0, 0.0, 0.0, 0.0, 1.7307466711389773E9, 0.0, 2024-11-04 15:57:51.138
33.0, -167067.15280618105, -167124.194458031, -164493.39413564137, -167287.45159953256, -164079.88686321818, -164353.91925024026, -160613.44422262243, -157015.9533042852, -0.058, 0.86, 0.404, 192.0, 0.0, 0.0, 0.0, 0.0, 0.0, 0.0, 0.0, 0.0, 0.0, 1.730746671147028E9, 0.0, 2024-11-04 15:57:51.147
34.0, -167068.65037305956, -167125.5579144428, -163489.15260900886, -167287.42924778812, -163227.65955062624, -165040.9001160741, -161427.13712777343, -156863.55911058892, -0.058, 0.86, 0.404, 192.0, 0.0, 0.0, 0.0, 0.0, 0.0, 0.0, 0.0, 0.0, 0.0, 1.730746671150869E9, 0.0, 2024-11-04 15:57:51.150
35.0, -167069.70090504896, -167126.5413911988, -163508.62097842945, -167289.26209083345, -163262.90825163227, -165127.40136711614, -161783.20041694646, -157105.56144780654, -0.058, 0.86, 0.404, 192.0, 0.0, 0.0, 0.0, 0.0, 0.0, 0.0, 0.0, 0.0, 0.0, 1.730746671155054E9, 0.0, 2024-11-04 15:57:51.155
36.0, -167069.3879806266, -167126.38492898762, -164580.56593901705, -167290.49143677848, -164176.49110275402, -164379.78021857503, -161162.96186005615, -157303.95553159184, -0.058, 0.86, 0.404, 192.0, 0.0, 0.0, 0.0, 0.0, 0.0, 0.0, 0.0, 0.0, 0.0, 1.7307466711590152E9, 0.0, 2024-11-04 15:57:51.159
37.0, -167072.5395765948, -167129.49182146692, -164624.3083029161, -167293.0842391353, -164193.81370470687, -164313.90962766524, -161121.9687607251, -157106.61197979594, -0.06, 0.874, 0.418, 192.0, 254.0, 32.0, 27.0, 80.0, 13.0, 16.0, 0.0, 0.0, 0.0, 1.730746671164081E9, 0.0, 2024-11-04 15:57:51.164
38.0, -167078.41808538654, -167135.3032750253, -163673.6886112319, -167297.46518104855, -163385.2169972917, -164934.4387572335, -161679.42126744048, -156915.28104725853, -0.06, 0.874, 0.418, 192.0, 0.0, 0.0, 0.0, 0.0, 0.0, 0.0, 0.0, 0.0, 0.0, 1.7307466711670835E9, 0.0, 2024-11-04 15:57:51.167
39.0, -167080.25092843187, -167137.15846981507, -163397.4210497643, -167299.5885967718, -163169.6120702758, -165200.8939028852, -161876.4071913251, -157079.566369005, -0.06, 0.874, 0.418, 192.0, 0.0, 0.0, 0.0, 0.0, 0.0, 0.0, 0.0, 0.0, 0.0, 1.7307466711710963E9, 0.0, 2024-11-04 15:57:51.171
40.0, -167077.30049816376, -167134.2974465248, -164448.53418451955, -167298.26984384895, -164072.64489801467, -164495.98693799818, -161238.91308771528, -157326.30727604716, -0.06, 0.874, 0.418, 192.0, 0.0, 0.0, 0.0, 0.0, 0.0, 0.0, 0.0, 0.0, 0.0, 1.7307466711750047E9, 0.0, 2024-11-04 15:57:51.175
41.0, -167080.11681796514, -167137.15846981507, -164738.07868219362, -167300.77323922794, -164300.90091239227, -164257.00208628204, -161049.16912903418, -157162.4466374453, -0.06, 0.874, 0.418, 192.0, 0.0, 0.0, 0.0, 0.0, 0.0, 0.0, 0.0, 0.0, 0.0, 1.730746671179037E9, 0.0, 2024-11-04 15:57:51.179
42.0, -167084.22953894493, -167141.11472858366, -163877.5365206643, -167303.4330968181, -163563.82978723405, -164803.27872076974, -161558.25246074825, -156929.3402945209, -0.06, 0.874, 0.418, 192.0, 0.0, 0.0, 0.0, 0.0, 0.0, 0.0, 0.0, 0.0, 0.0, 1.730746671183012E9, 0.0, 2024-11-04 15:57:51.183
43.0, -167084.34129766718, -167141.13708032813, -163336.26667693458, -167303.41074507366, -163120.5052877075, -165228.07362414285, -161909.64423533014, -157010.92416178278, -0.06, 0.874, 0.418, 192.0, 0.0, 0.0, 0.0, 0.0, 0.0, 0.0, 0.0, 0.0, 0.0, 1.7307466711870565E9, 0.0, 2024-11-04 15:57:51.187
44.0, -167084.02837324483, -167140.98061811694, -164289.74739190907, -167304.75184974098, -163943.85414646319, -164609.6008550645, -161356.66207750584, -157287.7281651173, -0.06, 0.874, 0.418, 192.0, 0.0, 0.0, 0.0, 0.0, 0.0, 0.0, 0.0, 0.0, 0.0, 1.730746671192099E9, 0.0, 2024-11-04 15:57:51.192
45.0, -167086.57647211273, -167143.57342047375, -164818.61201746608, -167307.4787625645, -164377.6120993629, -164212.0527281824, -161031.53360265895, -157184.59721620052, -0.06, 0.874, 0.418, 192.0, 0.0, 0.0, 0.0, 0.0, 0.0, 0.0, 0.0, 0.0, 0.0, 1.7307466711950617E9, 0.0, 2024-11-04 15:57:51.195
46.0, -167090.4880273924, -167147.59673447572, -164096.71772679302, -167310.20567538808, -163753.5066906818, -164663.4685592018, -161454.89799438693, -156938.3927510253, -0.06, 0.874, 0.418, 192.0, 0.0, 0.0, 0.0, 0.0, 0.0, 0.0, 0.0, 0.0, 0.0, 1.7307466711989388E9, 0.0, 2024-11-04 15:57:51.198
47.0, -167090.59978611468, -167147.59673447572, -163339.03829324702, -167309.5798265433, -163123.52277320897, -165209.11934484474, -161924.95518028204, -156952.36259130988, -0.058, 0.888, 0.426, 192.0, 254.0, 48.0, 27.0, 192.0, 13.0, 80.0, 0.0, 0.0, 0.0, 1.7307466712030118E9, 0.0, 2024-11-04 15:57:51.203
48.0, -167092.94671928248, -167149.80955717678, -164106.4407356311, -167313.491381823, -163793.06927836768, -164739.12921418302, -161466.31973580358, -157252.43476062236, -0.058, 0.888, 0.426, 192.0, 0.0, 0.0, 0.0, 0.0, 0.0, 0.0, 0.0, 0.0, 0.0, 1.7307466712070217E9, 0.0, 2024-11-04 15:57:51.207
49.0, -167095.8300943172, -167152.64822872262, -164845.903497446, -167316.7994400024, -164410.2009427787, -164207.0012339355, -160728.7792240118, -157220.73998698473, -0.058, 0.888, 0.426, 192.0, 0.0, 0.0, 0.0, 0.0, 0.0, 0.0, 0.0, 0.0, 0.0, 1.7307466712110333E9, 0.0, 2024-11-04 15:57:51.211
50.0, -167095.24894896138, -167152.04473162233, -164286.2828715185, -167314.9442452126, -163918.06023336176, -164560.62818296292, -160810.27368429585, -156950.46269303118, -0.058, 0.888, 0.426, 192.0, 0.0, 0.0, 0.0, 0.0, 0.0, 0.0, 0.0, 0.0, 0.0, 1.7307466712149208E9, 0.0, 2024-11-04 15:57:51.214
51.0, -167095.80774257277, -167152.58117348925, -163369.36961047287, -167314.56426555687, -163146.96975314256, -165214.01437688046, -161687.1102675331, -156892.41521268073, -0.058, 0.888, 0.426, 192.0, 0.0, 0.0, 0.0, 0.0, 0.0, 0.0, 0.0, 0.0, 0.0, 1.7307466712190588E9, 0.0, 2024-11-04 15:57:51.219
52.0, -167096.81357107326, -167153.69876071202, -163886.81249461323, -167317.02295744693, -163604.3087964426, -164940.92076312553, -161650.63222058205, -157201.58454198655, -0.058, 0.888, 0.426, 192.0, 0.0, 0.0, 0.0, 0.0, 0.0, 0.0, 0.0, 0.0, 0.0, 1.730746671221968E9, 0.0, 2024-11-04 15:57:51.221
53.0, -167097.61823387365, -167154.59283049023, -164809.06782258366, -167318.87815223672, -164381.52365464254, -164278.7726853815, -161093.6267487558, -157272.8195515656, -0.058, 0.888, 0.426, 192.0, 0.0, 0.0, 0.0, 0.0, 0.0, 0.0, 0.0, 0.0, 0.0, 1.7307466712260995E9, 0.0, 2024-11-04 15:57:51.226
54.0, -167102.11093450917, -167158.97377240346, -164467.19789113975, -167322.1862104161, -164073.44956081506, -164474.46220808773, -161271.88191078688, -157035.17580451677, -0.058, 0.888, 0.426, 192.0, 0.0, 0.0, 0.0, 0.0, 0.0, 0.0, 0.0, 0.0, 0.0, 1.7307466712311063E9, 0.0, 2024-11-04 15:57:51.231
55.0, -167104.6366816326, -167161.41011254909, -163490.58312065402, -167323.46025985008, -163249.2289840256, -165130.9329427401, -161846.16528107706, -156924.042931085, -0.058, 0.888, 0.426, 192.0, 0.0, 0.0, 0.0, 0.0, 0.0, 0.0, 0.0, 0.0, 0.0, 1.7307466712350116E9, 0.0, 2024-11-04 15:57:51.235
56.0, -167104.81549558826, -167161.58892650474, -163714.81582102965, -167324.62255056173, -163460.4753208727, -165055.3616947367, -161750.16453864152, -157183.81490514457, -0.058, 0.888, 0.426, 192.0, 0.0, 0.0, 0.0, 0.0, 0.0, 0.0, 0.0, 0.0, 0.0, 1.7307466712392027E9, 0.0, 2024-11-04 15:57:51.239
57.0, -167106.60363514468, -167163.68999048354, -164748.60635383206, -167327.7964982744, -164340.06116867796, -164326.1360318823, -161135.4915661206, -157317.54539222067, -0.058, 0.906, 0.434, 192.0, 254.0, 48.0, 28.0, 80.0, 13.0, 144.0, 0.0, 0.0, 0.0, 1.7307466712431026E9, 0.0, 2024-11-04 15:57:51.243
58.0, -167107.31889096726, -167164.1593771171, -164634.0089600097, -167327.52827734093, -164224.6144085663, -164365.27393642353, -161176.86464510736, -157087.65770049783, -0.058, 0.906, 0.434, 192.0, 0.0, 0.0, 0.0, 0.0, 0.0, 0.0, 0.0, 0.0, 0.0, 1.7307466712460473E9, 0.0, 2024-11-04 15:57:51.246
59.0, -167108.5482369123, -167165.2993160843, -163651.11334933204, -167327.3047598964, -163391.49783748365, -165017.16256346257, -161732.95369541095, -156912.80000362397, -0.058, 0.906, 0.434, 192.0, 0.0, 0.0, 0.0, 0.0, 0.0, 0.0, 0.0, 0.0, 0.0, 1.730746671250121E9, 0.0, 2024-11-04 15:57:51.250
60.0, -167111.47631543592, -167168.31680158578, -163574.04453445013, -167330.9927977315, -163345.02856076104, -165155.07282675183, -161810.8942283266, -157116.11147118945, -0.058, 0.906, 0.434, 192.0, 0.0, 0.0, 0.0, 0.0, 0.0, 0.0, 0.0, 0.0, 0.0, 1.7307466712551613E9, 0.0, 2024-11-04 15:57:51.255
61.0, -167111.85629509168, -167168.74148473045, -164646.52593690468, -167332.8926960102, -164262.05358052894, -164425.22131505268, -161039.64728589624, -157317.18776430938, -0.058, 0.906, 0.434, 192.0, 0.0, 0.0, 0.0, 0.0, 0.0, 0.0, 0.0, 0.0, 0.0, 1.7307466712593043E9, 0.0, 2024-11-04 15:57:51.259
62.0, -167113.06328929227, -167169.8590719532, -164763.9843540173, -167333.56324834385, -164341.290514623, -164309.528685752, -160598.5579608152, -157111.84228799847, -0.058, 0.906, 0.434, 192.0, 0.0, 0.0, 0.0, 0.0, 0.0, 0.0, 0.0, 0.0, 0.0, 1.730746671263214E9, 0.0, 2024-11-04 15:57:51.263
63.0, -167115.00789105988, -167171.714266743, -163818.7737844913, -167333.8538210218, -163532.55969674108, -164932.7847281438, -161231.04527366703, -156896.6396923828, -0.058, 0.906, 0.434, 192.0, 0.0, 0.0, 0.0, 0.0, 0.0, 0.0, 0.0, 0.0, 0.0, 1.7307466712670412E9, 0.0, 2024-11-04 15:57:51.267
64.0, -167114.58320791522, -167171.3566388317, -163436.67071302782, -167333.6526553217, -163225.20085873615, -165270.3184211634, -161874.52964479086, -157043.11067379842, -0.058, 0.906, 0.434, 192.0, 0.0, 0.0, 0.0, 0.0, 0.0, 0.0, 0.0, 0.0, 0.0, 1.7307466712711358E9, 0.0, 2024-11-04 15:57:51.271
65.0, -167115.07494629323, -167172.02719116537, -164464.58273703846, -167335.93253325613, -164111.24636068897, -164587.6067385205, -161328.61063821445, -157317.97007536533, -0.058, 0.906, 0.434, 192.0, 0.0, 0.0, 0.0, 0.0, 0.0, 0.0, 0.0, 0.0, 0.0, 1.730746671274011E9, 0.0, 2024-11-04 15:57:51.274
66.0, -167115.96901607144, -167172.92126094358, -164835.97932290786, -167336.6924925676, -164409.1057073004, -164290.8202756429, -161091.9727196661, -157189.67106219186, -0.058, 0.906, 0.434, 192.0, 0.0, 0.0, 0.0, 0.0, 0.0, 0.0, 0.0, 0.0, 0.0, 1.730746671279096E9, 0.0, 2024-11-04 15:57:51.279
67.0, -167117.93596958352, -167174.77645573337, -164019.93948458906, -167337.22893443453, -163706.5903790701, -164810.27481678425, -161566.1873300299, -156970.55691129647, -0.062, 0.898, 0.434, 192.0, 254.0, 16.0, 28.0, 16.0, 13.0, 144.0, 0.0, 0.0, 0.0, 1.7307466712831993E9, 0.0, 2024-11-04 15:57:51.283
68.0, -167121.51224869638, -167178.37508659068, -163398.6727474538, -167340.4028821472, -163194.2213409211, -165287.03752601595, -161953.0736748068, -157041.32253424198, -0.062, 0.898, 0.434, 192.0, 0.0, 0.0, 0.0, 0.0, 0.0, 0.0, 0.0, 0.0, 0.0, 1.7307466712861586E9, 0.0, 2024-11-04 15:57:51.286
69.0, -167122.8980568526, -167179.9173569581, -164298.24105480209, -167343.50977462647, -163974.31957415576, -164708.1720481124, -161407.13231648592, -157329.14594759297, -0.062, 0.898, 0.434, 192.0, 0.0, 0.0, 0.0, 0.0, 0.0, 0.0, 0.0, 0.0, 0.0, 1.7307466712902637E9, 0.0, 2024-11-04 15:57:51.290
70.0, -167125.1555830426, -167182.1525314036, -164899.48062890538, -167346.01317000546, -164471.13179816387, -164259.43842642766, -160737.5858113272, -157242.8682139955, -0.062, 0.898, 0.434, 192.0, 0.0, 0.0, 0.0, 0.0, 0.0, 0.0, 0.0, 0.0, 0.0, 1.7307466712941787E9, 0.0, 2024-11-04 15:57:51.294
71.0, -167126.4966877099, -167183.2701186264, -164216.79129800695, -167345.92376302765, -163875.74838110787, -164691.58705372657, -160940.5396509814, -156978.4023736003, -0.062, 0.898, 0.434, 192.0, 0.0, 0.0, 0.0, 0.0, 0.0, 0.0, 0.0, 0.0, 0.0, 1.7307466712991488E9, 0.0, 2024-11-04 15:57:51.299
72.0, -167127.48016446593, -167184.2535953824, -163389.8661601384, -167346.1025769833, -163182.33021287087, -165293.76540109699, -161811.87770508262, -156973.73085900914, -0.062, 0.898, 0.434, 192.0, 0.0, 0.0, 0.0, 0.0, 0.0, 0.0, 0.0, 0.0, 0.0, 1.7307466713042345E9, 0.0, 2024-11-04 15:57:51.304
73.0, -167128.01660633285, -167184.92414771608, -164078.25518587296, -167348.33775142883, -163784.84383640814, -164885.89076827656, -161603.96177815937, -157288.59988315104, -0.062, 0.898, 0.434, 192.0, 0.0, 0.0, 0.0, 0.0, 0.0, 0.0, 0.0, 0.0, 0.0, 1.730746671308277E9, 0.0, 2024-11-04 15:57:51.308
74.0, -167128.9553796, -167185.8182174943, -164888.48357063337, -167350.05883575187, -164464.56038529403, -164294.30714777793, -161099.92994069218, -157294.45604019833, -0.062, 0.898, 0.434, 192.0, 0.0, 0.0, 0.0, 0.0, 0.0, 0.0, 0.0, 0.0, 0.0, 1.7307466713121643E9, 0.0, 2024-11-04 15:57:51.312
75.0, -167131.12349881214, -167187.85222623972, -164408.7033759002, -167351.01996076346, -164041.48656624396, -164584.34338383, -161371.07895267953, -157048.85507212344, -0.062, 0.898, 0.434, 192.0, 0.0, 0.0, 0.0, 0.0, 0.0, 0.0, 0.0, 0.0, 0.0, 1.7307466713152866E9, 0.0, 2024-11-04 15:57:51.315
76.0, -167136.1526413146, -167192.97077572, -163474.26634720163, -167354.90916429868, -163256.11332131785, -165229.88411544374, -161934.90170656465, -156977.62006254436, -0.062, 0.898, 0.434, 192.0, 0.0, 0.0, 0.0, 0.0, 0.0, 0.0, 0.0, 0.0, 0.0, 1.7307466713181953E9, 0.0, 2024-11-04 15:57:51.318
77.0, -167137.09141458172, -167194.0213077094, -163899.75415465285, -167357.21139397757, -163636.80823288063, -165014.34624366122, -161707.45035498744, -157260.05670548163, -0.066, 0.898, 0.434, 192.0, 253.0, 240.0, 28.0, 16.0, 13.0, 144.0, 0.0, 0.0, 0.0, 1.7307466713221548E9, 0.0, 2024-11-04 15:57:51.322
78.0, -167136.91260062606, -167193.84249375373, -164866.15417792252, -167358.01605677797, -164454.99383866714, -164330.20404937316, -161117.54311532297, -157340.34417156508, -0.066, 0.898, 0.434, 192.0, 0.0, 0.0, 0.0, 0.0, 0.0, 0.0, 0.0, 0.0, 0.0, 1.7307466713271368E9, 0.0, 2024-11-04 15:57:51.327
79.0, -167137.04671109281, -167193.99895596493, -164599.98960494873, -167357.25609746648, -164211.29276887095, -164473.23286214267, -161262.1589019488, -157097.64893026935, -0.066, 0.898, 0.434, 192.0, 0.0, 0.0, 0.0, 0.0, 0.0, 0.0, 0.0, 0.0, 0.0, 1.7307466713313482E9, 0.0, 2024-11-04 15:57:51.331
80.0, -167139.5054029829, -167196.4129443661, -163610.45552616782, -167358.44073992263, -163373.43762796375, -165132.2740474074, -161854.86010967018, -156961.7503239811, -0.066, 0.898, 0.434, 192.0, 0.0, 0.0, 0.0, 0.0, 0.0, 0.0, 0.0, 0.0, 0.0, 1.730746671335364E9, 0.0, 2024-11-04 15:57:51.335
81.0, -167142.52288848435, -167199.49748510093, -163733.72539683885, -167362.32994345785, -163497.78038236863, -165126.6861112936, -161811.65418763808, -157202.4562600203, -0.066, 0.898, 0.434, 192.0, 0.0, 0.0, 0.0, 0.0, 0.0, 0.0, 0.0, 0.0, 0.0, 1.7307466713391595E9, 0.0, 2024-11-04 15:57:51.339
82.0, -167143.46166175147, -167200.59272057924, -164791.83462760862, -167364.6545248812, -164400.45558219618, -164392.09602976992, -161180.93266259824, -157357.4879595623, -0.066, 0.898, 0.434, 192.0, 0.0, 0.0, 0.0, 0.0, 0.0, 0.0, 0.0, 0.0, 0.0, 1.7307466713421135E9, 0.0, 2024-11-04 15:57:51.342
83.0, -167144.40043501862, -167201.4197351241, -164759.0893219816, -167364.78863534794, -164353.11458743986, -164382.7530005876, -161188.21933129066, -157136.96564876626, -0.066, 0.898, 0.434, 192.0, 0.0, 0.0, 0.0, 0.0, 0.0, 0.0, 0.0, 0.0, 0.0, 1.7307466713460324E9, 0.0, 2024-11-04 15:57:51.346
84.0, -167146.65796120858, -167203.5655025918, -163790.8564556666, -167365.63800163724, -163529.6539699619, -165021.23058095344, -161755.90893696653, -156952.6084604989, -0.066, 0.898, 0.434, 192.0, 0.0, 0.0, 0.0, 0.0, 0.0, 0.0, 0.0, 0.0, 0.0, 1.730746671350253E9, 0.0, 2024-11-04 15:57:51.350
85.0, -167148.75902518738, -167205.73362180396, -163608.75679358921, -167368.16374876068, -163394.64943345182, -165221.72572871755, -161890.89112173213, -157130.05895972956, -0.066, 0.898, 0.434, 192.0, 0.0, 0.0, 0.0, 0.0, 0.0, 0.0, 0.0, 0.0, 0.0, 1.7307466713541167E9, 0.0, 2024-11-04 15:57:51.354
86.0, -167147.50732749788, -167204.6160345812, -164677.50545471974, -167368.54372841644, -164311.7415084531, -164497.1268769654, -161138.7325690666, -157344.2333751003, -0.066, 0.898, 0.434, 192.0, 0.0, 0.0, 0.0, 0.0, 0.0, 0.0, 0.0, 0.0, 0.0, 1.7307466713590164E9, 0.0, 2024-11-04 15:57:51.359
87.0, -167148.6025629762, -167205.75597354842, -164879.90050076254, -167369.37074296127, -164463.06281841552, -164322.96208416965, -160635.99713277785, -157153.1930152408, -0.07, 0.896, 0.442, 192.0, 253.0, 208.0, 28.0, 0.0, 13.0, 208.0, 0.0, 0.0, 0.0, 1.730746671363038E9, 0.0, 2024-11-04 15:57:51.363
88.0, -167150.07777811025, -167207.1641334491, -163964.82008276225, -167369.32603947236, -163678.2930705897, -164918.9266465815, -161231.87228821186, -156927.57450670894, -0.07, 0.896, 0.442, 192.0, 0.0, 0.0, 0.0, 0.0, 0.0, 0.0, 0.0, 0.0, 0.0, 1.73074667136735E9, 0.0, 2024-11-04 15:57:51.367
89.0, -167151.5529932443, -167208.59464509424, -163492.05833578805, -167370.77890286196, -163292.47960954663, -165313.70315715115, -161937.96389555503, -157050.68791516876, -0.07, 0.896, 0.442, 192.0, 0.0, 0.0, 0.0, 0.0, 0.0, 0.0, 0.0, 0.0, 0.0, 1.7307466713703444E9, 0.0, 2024-11-04 15:57:51.370
90.0, -167151.57534498876, -167208.79581079434, -164484.8781210039, -167372.499987185, -164149.57960242982, -164669.30236450463, -161418.0623195246, -157340.54533726518, -0.07, 0.896, 0.442, 192.0, 0.0, 0.0, 0.0, 0.0, 0.0, 0.0, 0.0, 0.0, 0.0, 1.730746671374257E9, 0.0, 2024-11-04 15:57:51.374
91.0, -167154.99516189043, -167212.03681374036, -164942.10540558165, -167375.87510059777, -164521.95966505524, -164325.15255512626, -161116.8278595004, -157234.15103365792, -0.07, 0.896, 0.442, 192.0, 0.0, 0.0, 0.0, 0.0, 0.0, 0.0, 0.0, 0.0, 0.0, 1.7307466713782392E9, 0.0, 2024-11-04 15:57:51.378
92.0, -167157.56561250277, -167214.49550563045, -164172.6018992188, -167377.12679828727, -163858.38107566608, -164808.01729059426, -161568.66837366443, -157004.6656733353, -0.07, 0.896, 0.442, 192.0, 0.0, 0.0, 0.0, 0.0, 0.0, 0.0, 0.0, 0.0, 0.0, 1.7307466713842027E9, 0.0, 2024-11-04 15:57:51.384
93.0, -167160.33722881525, -167217.22241845398, -163476.4344664138, -167379.3619727328, -163281.97428965263, -165323.9179043672, -162009.60123653428, -157046.64224942235, -0.07, 0.896, 0.442, 192.0, 0.0, 0.0, 0.0, 0.0, 0.0, 0.0, 0.0, 0.0, 0.0, 1.7307466713872333E9, 0.0, 2024-11-04 15:57:51.387
94.0, -167161.56657476028, -167218.63057835467, -164313.10496486485, -167382.24534776752, -164009.88119958417, -164804.12808705904, -161525.21658244333, -157346.4909012903, -0.07, 0.896, 0.442, 192.0, 0.0, 0.0, 0.0, 0.0, 0.0, 0.0, 0.0, 0.0, 0.0, 1.7307466713913453E9, 0.0, 2024-11-04 15:57:51.391
95.0, -167162.93003117206, -167219.99403476645, -164993.46971433994, -167384.03348732396, -164575.42503779233, -164306.55590373944, -161097.78417322447, -157299.26166525623, -0.07, 0.896, 0.442, 192.0, 0.0, 0.0, 0.0, 0.0, 0.0, 0.0, 0.0, 0.0, 0.0, 1.730746671395294E9, 0.0, 2024-11-04 15:57:51.395
96.0, -167165.99222016244, -167223.01152026793, -164385.99400353362, -167385.82162688038, -164045.28636280136, -164683.04868734465, -161442.40336923642, -157048.63155467887, -0.07, 0.896, 0.442, 192.0, 0.0, 0.0, 0.0, 0.0, 0.0, 0.0, 0.0, 0.0, 0.0, 1.7307466713983877E9, 0.0, 2024-11-04 15:57:51.398
97.0, -167165.81340620678, -167222.72094759, -163520.02036810166, -167384.68168791317, -163320.41929011577, -165282.09779049133, -161975.76069542894, -157012.7570048281, -0.068, 0.896, 0.442, 192.0, 253.0, 224.0, 28.0, 0.0, 13.0, 208.0, 0.0, 0.0, 0.0, 1.7307466714023504E9, 0.0, 2024-11-04 15:57:51.402
98.0, -167166.5063102849, -167223.5703138793, -164126.04321551838, -167386.98391759206, -163854.64833434206, -164936.69628342346, -161648.1064734586, -157308.5376392052, -0.068, 0.896, 0.442, 192.0, 0.0, 0.0, 0.0, 0.0, 0.0, 0.0, 0.0, 0.0, 0.0, 1.730746671406256E9, 0.0, 2024-11-04 15:57:51.406
99.0, -167166.66277249609, -167223.68207260157, -164997.8059527643, -167387.8556356258, -164589.0596019101, -164317.41885154473, -161119.5771240684, -157335.85147092957, -0.068, 0.896, 0.442, 192.0, 0.0, 0.0, 0.0, 0.0, 0.0, 0.0, 0.0, 0.0, 0.0, 1.7307466714104154E9, 0.0, 2024-11-04 15:57:51.410
100.0, -167170.73078998696, -167227.63833137017, -164589.21606412125, -167390.8060658939, -164224.23442891057, -164564.47268300925, -161347.4308070458, -157087.36712781992, -0.068, 0.896, 0.442, 192.0, 0.0, 0.0, 0.0, 0.0, 0.0, 0.0, 0.0, 0.0, 0.0, 1.7307466714152226E9, 0.0, 2024-11-04 15:57:51.415
101.0, -167172.38481907666, -167229.24765697095, -163626.30291298663, -167391.3648595053, -163414.1848581058, -165224.07266188535, -161916.64033134465, -156987.27601614906, -0.068, 0.896, 0.442, 192.0, 0.0, 0.0, 0.0, 0.0, 0.0, 0.0, 0.0, 0.0, 0.0, 1.7307466714192507E9, 0.0, 2024-11-04 15:57:51.419
102.0, -167172.11659814318, -167228.97943603748, -163948.92799245453, -167392.19187405013, -163709.58551282712, -165078.5628054813, -161736.2170501014, -157251.87596701097, -0.068, 0.896, 0.442, 192.0, 0.0, 0.0, 0.0, 0.0, 0.0, 0.0, 0.0, 0.0, 0.0, 1.7307466714221697E9, 0.0, 2024-11-04 15:57:51.422
103.0, -167174.1059033997, -167231.1699069941, -164954.84589992117, -167395.38817350724, -164562.05869460807, -164364.80454979, -160897.78076383838, -157354.31401184967, -0.068, 0.896, 0.442, 192.0, 0.0, 0.0, 0.0, 0.0, 0.0, 0.0, 0.0, 0.0, 0.0, 1.7307466714263337E9, 0.0, 2024-11-04 15:57:51.426
104.0, -167174.77645573337, -167231.75105234995, -164749.41101663245, -167395.09760082932, -164366.61504109087, -164469.85774872993, -160710.0261104138, -157100.35349134845, -0.068, 0.896, 0.442, 192.0, 0.0, 0.0, 0.0, 0.0, 0.0, 0.0, 0.0, 0.0, 0.0, 1.7307466714304488E9, 0.0, 2024-11-04 15:57:51.430
105.0, -167176.54224354532, -167233.44978492855, -163741.77202484276, -167395.38817350724, -163510.3420627525, -165149.99898076046, -161511.15733518093, -156935.15174807928, -0.068, 0.896, 0.442, 192.0, 0.0, 0.0, 0.0, 0.0, 0.0, 0.0, 0.0, 0.0, 0.0, 1.7307466714342003E9, 0.0, 2024-11-04 15:57:51.434
106.0, -167175.73758074496, -167232.75688085044, -163754.7136848824, -167395.43287699614, -163540.47221427827, -165226.48665028653, -161884.99026119593, -157171.0073555717, -0.068, 0.896, 0.442, 192.0, 0.0, 0.0, 0.0, 0.0, 0.0, 0.0, 0.0, 0.0, 0.0, 1.730746671438131E9, 0.0, 2024-11-04 15:57:51.438
107.0, -167177.1680923901, -167234.18739249557, -164826.77040419227, -167398.38330726424, -164455.6196875119, -164490.331946651, -161262.5165298601, -157373.06712544765, -0.068, 0.9, 0.44, 192.0, 253.0, 224.0, 28.0, 32.0, 13.0, 192.0, 0.0, 0.0, 0.0, 1.7307466714433975E9, 0.0, 2024-11-04 15:57:51.443
108.0, -167178.8668249687, -167235.88612507418, -164879.20759668443, -167399.50089448702, -164481.07832444648, -164424.28254178556, -161218.3047793275, -157185.04425108962, -0.068, 0.9, 0.44, 192.0, 0.0, 0.0, 0.0, 0.0, 0.0, 0.0, 0.0, 0.0, 0.0, 1.730746671447243E9, 0.0, 2024-11-04 15:57:51.447
109.0, -167182.59956629272, -167239.39534895367, -163926.17391659904, -167401.7137171881, -163669.7770559522, -165044.87872658717, -161776.71841105443, -156998.76481279908, -0.068, 0.9, 0.44, 192.0, 0.0, 0.0, 0.0, 0.0, 0.0, 0.0, 0.0, 0.0, 0.0, 1.730746671450426E9, 0.0, 2024-11-04 15:57:51.450
110.0, -167184.49946457142, -167241.3623024657, -163645.5254132182, -167403.90418814472, -163450.55114633456, -165302.57198841238, -161969.99394535949, -157160.7032013778, -0.068, 0.9, 0.44, 192.0, 0.0, 0.0, 0.0, 0.0, 0.0, 0.0, 0.0, 0.0, 0.0, 1.7307466714544177E9, 0.0, 2024-11-04 15:57:51.454
111.0, -167185.59470004973, -167242.63635189968, -164699.20899858582, -167406.69815620163, -164355.9979624746, -164595.49690431322, -161344.7933012001, -157404.29251245174, -0.068, 0.9, 0.44, 192.0, 0.0, 0.0, 0.0, 0.0, 0.0, 0.0, 0.0, 0.0, 0.0, 1.7307466714583008E9, 0.0, 2024-11-04 15:57:51.458
112.0, -167184.70063027152, -167241.65287514366, -164993.76028701788, -167405.49116200104, -164588.0537734096, -164359.32837239842, -161152.85887156235, -157245.12574018547, -0.068, 0.9, 0.44, 192.0, 0.0, 0.0, 0.0, 0.0, 0.0, 0.0, 0.0, 0.0, 0.0, 1.7307466714623203E9, 0.0, 2024-11-04 15:57:51.462
113.0, -167187.24872913942, -167244.0221600559, -164135.96739005655, -167406.65345271272, -163851.31792441822, -164912.9810825564, -161651.25806942678, -157019.6636938648, -0.068, 0.9, 0.44, 192.0, 0.0, 0.0, 0.0, 0.0, 0.0, 0.0, 0.0, 0.0, 0.0, 1.7307466714664075E9, 0.0, 2024-11-04 15:57:51.466
114.0, -167188.07574368428, -167244.9162298341, -163585.3098136556, -167407.30165330193, -163400.3267765435, -165339.36295978582, -162002.85100970877, -157104.86854372843, -0.068, 0.9, 0.44, 192.0, 0.0, 0.0, 0.0, 0.0, 0.0, 0.0, 0.0, 0.0, 0.0, 1.7307466714713798E9, 0.0, 2024-11-04 15:57:51.471
115.0, -167190.08740068524, -167247.0843490463, -164534.65545590586, -167411.03439462595, -164223.2062486656, -164716.1292691385, -161427.33829347353, -157387.97573899935, -0.068, 0.9, 0.44, 192.0, 0.0, 0.0, 0.0, 0.0, 0.0, 0.0, 0.0, 0.0, 0.0, 1.7307466714753013E9, 0.0, 2024-11-04 15:57:51.475
116.0, -167192.05435419732, -167249.09600604727, -165066.20229079752, -167413.15781034922, -164658.48412018825, -164318.31292132294, -160764.92199479605, -157279.2121504798, -0.068, 0.9, 0.44, 192.0, 0.0, 0.0, 0.0, 0.0, 0.0, 0.0, 0.0, 0.0, 0.0, 1.7307466714783928E9, 0.0, 2024-11-04 15:57:51.478
117.0, -167192.3672786197, -167249.29717174737, -164331.50045055157, -167411.99551963754, -164020.29711250032, -164802.6975754139, -161026.95149504562, -157019.7083973537, -0.07, 0.908, 0.438, 192.0, 253.0, 208.0, 28.0, 96.0, 13.0, 176.0, 0.0, 0.0, 0.0, 1.7307466714824572E9, 0.0, 2024-11-04 15:57:51.482
118.0, -167194.7589152764, -167251.55469793733, -163557.07956040854, -167413.73895570505, -163373.77290413057, -165380.9372044727, -161879.37997333767, -157037.63449640686, -0.07, 0.908, 0.438, 192.0, 0.0, 0.0, 0.0, 0.0, 0.0, 0.0, 0.0, 0.0, 0.0, 1.73074667148634E9, 0.0, 2024-11-04 15:57:51.486
119.0, -167195.2730053989, -167252.1805467821, -164318.42468004522, -167415.88472317276, -164038.6255429537, -164916.6244169026, -161623.58660979112, -157356.07979966162, -0.07, 0.908, 0.438, 192.0, 0.0, 0.0, 0.0, 0.0, 0.0, 0.0, 0.0, 0.0, 0.0, 1.7307466714903376E9, 0.0, 2024-11-04 15:57:51.490
120.0, -167197.4187728666, -167254.39336948318, -165068.7727414099, -167418.65633948523, -164665.86019585852, -164364.62573583433, -161155.87635706383, -157348.25668910227, -0.07, 0.908, 0.438, 192.0, 0.0, 0.0, 0.0, 0.0, 0.0, 0.0, 0.0, 0.0, 0.0, 1.7307466714943492E9, 0.0, 2024-11-04 15:57:51.494
121.0, -167199.5645403343, -167256.5391369509, -164523.1890110003, -167419.52805751897, -164188.11400987077, -164690.60357697055, -161458.51897698868, -157104.26504662813, -0.07, 0.908, 0.438, 192.0, 0.0, 0.0, 0.0, 0.0, 0.0, 0.0, 0.0, 0.0, 0.0, 1.730746671498335E9, 0.0, 2024-11-04 15:57:51.498
122.0, -167201.68795605755, -167258.5731456963, -163615.48466867028, -167420.62329299728, -163427.48414605667, -165319.2240380316, -162007.8354487223, -157044.13885404335, -0.07, 0.908, 0.438, 192.0, 0.0, 0.0, 0.0, 0.0, 0.0, 0.0, 0.0, 0.0, 0.0, 1.730746671503531E9, 0.0, 2024-11-04 15:57:51.503
123.0, -167200.4139066236, -167257.36615149572, -164130.15593649817, -167420.82445869737, -163883.81736085622, -165040.78835735185, -161727.9692563974, -157328.00600862576, -0.07, 0.908, 0.438, 192.0, 0.0, 0.0, 0.0, 0.0, 0.0, 0.0, 0.0, 0.0, 0.0, 1.730746671506422E9, 0.0, 2024-11-04 15:57:51.506
124.0, -167201.5761973353, -167258.5731456963, -165057.64157267113, -167422.92552267617, -164665.6143266695, -164376.11453248438, -161172.23783400512, -157382.23134067433, -0.07, 0.908, 0.438, 192.0, 0.0, 0.0, 0.0, 0.0, 0.0, 0.0, 0.0, 0.0, 0.0, 1.7307466715104897E9, 0.0, 2024-11-04 15:57:51.510
125.0, -167204.25840666992, -167261.2777067754, -164720.71137675183, -167424.64660699925, -164361.31767765497, -164571.4464272793, -161364.59694678747, -157132.40589289737, -0.07, 0.908, 0.438, 192.0, 0.0, 0.0, 0.0, 0.0, 0.0, 0.0, 0.0, 0.0, 0.0, 1.7307466715142748E9, 0.0, 2024-11-04 15:57:51.514
126.0, -167208.23701718295, -167265.1445585662, -163738.888649808, -167427.32881633387, -163533.9902083862, -165233.43804281214, -161950.8832038502, -157019.48487990914, -0.07, 0.908, 0.438, 192.0, 0.0, 0.0, 0.0, 0.0, 0.0, 0.0, 0.0, 0.0, 0.0, 1.7307466715183485E9, 0.0, 2024-11-04 15:57:51.518
127.0, -167211.43331664006, -167268.3855615122, -163959.92505072654, -167431.59799952485, -163743.38135044352, -165159.09614075377, -161837.58221120623, -157275.63587136698, -0.068, 0.896, 0.436, 192.0, 253.0, 224.0, 28.0, 0.0, 13.0, 160.0, 0.0, 0.0, 0.0, 1.7307466715225525E9, 0.0, 2024-11-04 15:57:51.522
128.0, -167211.81329629582, -167268.8772998902, -164994.43083935152, -167433.07321465889, -164623.48128837126, -164439.1688035928, -161064.18950130817, -157408.56169564268, -0.068, 0.896, 0.436, 192.0, 0.0, 0.0, 0.0, 0.0, 0.0, 0.0, 0.0, 0.0, 0.0, 1.7307466715264673E9, 0.0, 2024-11-04 15:57:51.526
129.0, -167214.42845039707, -167271.35834352474, -164873.37379138157, -167434.83900247086, -164499.40675489983, -164493.6176530859, -160766.79954133029, -157177.77993414164, -0.068, 0.896, 0.436, 192.0, 0.0, 0.0, 0.0, 0.0, 0.0, 0.0, 0.0, 0.0, 0.0, 1.7307466715304592E9, 0.0, 2024-11-04 15:57:51.530
130.0, -167214.56256086382, -167271.44775050256, -163872.6861921175, -167433.60965652583, -163647.58177370808, -165161.48777741048, -161515.51592534973, -157009.9183332823, -0.068, 0.896, 0.436, 192.0, 0.0, 0.0, 0.0, 0.0, 0.0, 0.0, 0.0, 0.0, 0.0, 1.7307466715332518E9, 0.0, 2024-11-04 15:57:51.533
131.0, -167215.32252017528, -167272.40887551414, -163779.59117646114, -167435.10722340434, -163588.863741024, -165315.8265728744, -161950.99496257247, -157225.23268762024, -0.068, 0.896, 0.436, 192.0, 0.0, 0.0, 0.0, 0.0, 0.0, 0.0, 0.0, 0.0, 0.0, 1.7307466715386667E9, 0.0, 2024-11-04 15:57:51.538
132.0, -167215.65779634213, -167272.81120691434, -164857.95108770742, -167437.02947342748, -164512.61663587292, -164577.2578808377, -161327.8283271585, -157436.88135586755, -0.068, 0.896, 0.436, 192.0, 0.0, 0.0, 0.0, 0.0, 0.0, 0.0, 0.0, 0.0, 0.0, 1.730746671542441E9, 0.0, 2024-11-04 15:57:51.542
133.0, -167217.28947368736, -167274.35347728175, -164990.8992637276, -167438.0129501835, -164606.22574165175, -164445.85197518492, -161230.93351494474, -157254.87110076798, -0.068, 0.896, 0.436, 192.0, 0.0, 0.0, 0.0, 0.0, 0.0, 0.0, 0.0, 0.0, 0.0, 1.730746671546444E9, 0.0, 2024-11-04 15:57:51.546
134.0, -167219.97168302198, -167276.90157614966, -164065.6264502557, -167439.08583391737, -163816.4268513235, -165042.3529794637, -161781.68049832352, -157059.38274376187, -0.068, 0.896, 0.436, 192.0, 0.0, 0.0, 0.0, 0.0, 0.0, 0.0, 0.0, 0.0, 0.0, 1.7307466715503757E9, 0.0, 2024-11-04 15:57:51.550
135.0, -167221.53630513386, -167278.48855000598, -163688.2395968723, -167440.8739734738, -163513.53836220963, -165362.80993971945, -162035.97629499153, -157194.4990389942, -0.068, 0.896, 0.436, 192.0, 0.0, 0.0, 0.0, 0.0, 0.0, 0.0, 0.0, 0.0, 0.0, 1.7307466715545142E9, 0.0, 2024-11-04 15:57:51.554
136.0, -167220.68693884456, -167277.79564592786, -164715.2799028492, -167441.768043252, -164398.82390485096, -164679.40535299844, -161420.2527904812, -157441.93285011445, -0.068, 0.896, 0.436, 192.0, 0.0, 0.0, 0.0, 0.0, 0.0, 0.0, 0.0, 0.0, 0.0, 1.7307466715584285E9, 0.0, 2024-11-04 15:57:51.558
137.0, -167221.69276734506, -167278.77912268392, -165095.90775917863, -167442.6174095413, -164703.9699201548, -164381.79187557602, -161173.78010437253, -157301.25097051274, -0.062, 0.902, 0.442, 192.0, 254.0, 16.0, 28.0, 48.0, 13.0, 208.0, 0.0, 0.0, 0.0, 1.7307466715615468E9, 0.0, 2024-11-04 15:57:51.561
138.0, -167224.93377029107, -167281.8860151632, -164278.01272607004, -167444.45025258666, -164001.2534262244, -164893.98209976938, -161654.90140377302, -157068.2116828217, -0.062, 0.902, 0.442, 192.0, 0.0, 0.0, 0.0, 0.0, 0.0, 0.0, 0.0, 0.0, 0.0, 1.730746671566446E9, 0.0, 2024-11-04 15:57:51.566
139.0, -167225.04552901335, -167281.95307039656, -163650.68866618737, -167444.20438339765, -163484.1458182509, -165370.4318845787, -162053.99180102252, -157122.83934627048, -0.062, 0.902, 0.442, 192.0, 0.0, 0.0, 0.0, 0.0, 0.0, 0.0, 0.0, 0.0, 0.0, 1.730746671570528E9, 0.0, 2024-11-04 15:57:51.570
140.0, -167224.48673540197, -167281.483683763, -164548.82646189054, -167445.45608108715, -164262.90294681824, -164800.90943585747, -161534.55961162565, -157408.9416752984, -0.062, 0.902, 0.442, 192.0, 0.0, 0.0, 0.0, 0.0, 0.0, 0.0, 0.0, 0.0, 0.0, 1.730746671574566E9, 0.0, 2024-11-04 15:57:51.574
141.0, -167227.30305520335, -167284.23294833102, -165162.1359779997, -167448.45121484416, -164768.72292384182, -164345.20206990268, -161159.11736000984, -157328.02836037023, -0.062, 0.902, 0.442, 192.0, 0.0, 0.0, 0.0, 0.0, 0.0, 0.0, 0.0, 0.0, 0.0, 1.7307466715784547E9, 0.0, 2024-11-04 15:57:51.578
142.0, -167233.0251017839, -167289.86558793375, -164497.75272581016, -167452.74274977957, -164192.49495178403, -164760.89981328248, -161528.21171620034, -157073.1737700908, -0.062, 0.902, 0.442, 192.0, 0.0, 0.0, 0.0, 0.0, 0.0, 0.0, 0.0, 0.0, 0.0, 1.7307466715825987E9, 0.0, 2024-11-04 15:57:51.582
143.0, -167235.55084890735, -167292.36898331274, -163676.7284484778, -167454.6202963138, -163508.21864702925, -165346.35905580033, -162027.77320477643, -157053.99597334815, -0.062, 0.902, 0.442, 192.0, 0.0, 0.0, 0.0, 0.0, 0.0, 0.0, 0.0, 0.0, 0.0, 1.7307466715863557E9, 0.0, 2024-11-04 15:57:51.586
144.0, -167236.5790291523, -167293.50892227996, -164362.41291313327, -167457.1683951817, -164108.60885484325, -164939.69141718047, -161619.2503713668, -157347.9437646799, -0.062, 0.902, 0.442, 192.0, 0.0, 0.0, 0.0, 0.0, 0.0, 0.0, 0.0, 0.0, 0.0, 1.7307466715894573E9, 0.0, 2024-11-04 15:57:51.589
145.0, -167236.80254659685, -167293.82184670234, -165173.46831243855, -167458.10716844883, -164787.58779616212, -164355.77444503005, -160809.04433835082, -157340.54533726518, -0.062, 0.902, 0.442, 192.0, 0.0, 0.0, 0.0, 0.0, 0.0, 0.0, 0.0, 0.0, 0.0, 1.7307466715945773E9, 0.0, 2024-11-04 15:57:51.594
146.0, -167235.5732006518, -167292.52544552393, -164680.94762336585, -167455.69318004767, -164351.10293043888, -164661.50160568973, -160907.50377267646, -157073.95608114672, -0.062, 0.902, 0.442, 192.0, 0.0, 0.0, 0.0, 0.0, 0.0, 0.0, 0.0, 0.0, 0.0, 1.7307466715986643E9, 0.0, 2024-11-04 15:57:51.598
147.0, -167237.7189681195, -167294.5371025249, -163725.8352310461, -167456.58724982588, -163545.88133643643, -165335.4290527617, -161788.83305654922, -157005.49268788012, -0.062, 0.9, 0.436, 192.0, 254.0, 16.0, 28.0, 32.0, 13.0, 160.0, 0.0, 0.0, 0.0, 1.7307466716024437E9, 0.0, 2024-11-04 15:57:51.602
148.0, -167238.14365126417, -167294.91708218065, -164140.1918697586, -167458.2859824045, -163918.57432348424, -165127.24490490498, -161822.87476335463, -157306.6377409265, -0.062, 0.9, 0.436, 192.0, 0.0, 0.0, 0.0, 0.0, 0.0, 0.0, 0.0, 0.0, 0.0, 1.7307466716065276E9, 0.0, 2024-11-04 15:57:51.606
149.0, -167240.93761932108, -167297.77810547093, -165114.03502393188, -167462.0857789619, -164742.52667934023, -164437.6712367143, -161235.91795395827, -157401.85617230608, -0.062, 0.9, 0.436, 192.0, 0.0, 0.0, 0.0, 0.0, 0.0, 0.0, 0.0, 0.0, 0.0, 1.7307466716103907E9, 0.0, 2024-11-04 15:57:51.610
150.0, -167244.24567750047, -167300.99675667248, -164850.3514945926, -167464.41036038523, -164500.54669386707, -164573.5474912581, -161377.09157193798, -157162.7595618677, -0.062, 0.9, 0.436, 192.0, 0.0, 0.0, 0.0, 0.0, 0.0, 0.0, 0.0, 0.0, 0.0, 1.7307466716145175E9, 0.0, 2024-11-04 15:57:51.614
151.0, -167245.7208926345, -167302.3825648287, -163860.48213964488, -167464.61152608533, -163663.60797448255, -165229.01239740997, -161971.491512238, -157031.0183800481, -0.062, 0.9, 0.436, 192.0, 0.0, 0.0, 0.0, 0.0, 0.0, 0.0, 0.0, 0.0, 0.0, 1.7307466716175475E9, 0.0, 2024-11-04 15:57:51.617
152.0, -167247.24081125748, -167304.0812974073, -163975.43716137853, -167467.1372732088, -163781.91575788448, -165229.23591485454, -161917.19912495604, -157274.2277114663, -0.062, 0.9, 0.436, 192.0, 0.0, 0.0, 0.0, 0.0, 0.0, 0.0, 0.0, 0.0, 0.0, 1.7307466716214788E9, 0.0, 2024-11-04 15:57:51.621
153.0, -167248.1348810357, -167305.1318293967, -165037.81557533928, -167469.46185463213, -164687.4743327468, -164496.34456590947, -161281.69432660274, -157436.43432097844, -0.062, 0.9, 0.436, 192.0, 0.0, 0.0, 0.0, 0.0, 0.0, 0.0, 0.0, 0.0, 0.0, 1.73074667162651E9, 0.0, 2024-11-04 15:57:51.626
154.0, -167250.59357292578, -167307.4787625645, -165010.90407501507, -167471.27234593302, -164643.97783803678, -164481.7712285246, -161289.49508541764, -157226.4620335653, -0.062, 0.9, 0.436, 192.0, 0.0, 0.0, 0.0, 0.0, 0.0, 0.0, 0.0, 0.0, 0.0, 1.7307466716303864E9, 0.0, 2024-11-04 15:57:51.630
155.0, -167254.01338982742, -167310.76446899946, -164037.7314731755, -167473.2392994451, -163815.9574646899, -165114.99614894346, -161861.16330160658, -157047.20104303374, -0.062, 0.9, 0.436, 192.0, 0.0, 0.0, 0.0, 0.0, 0.0, 0.0, 0.0, 0.0, 0.0, 1.730746671634421E9, 0.0, 2024-11-04 15:57:51.634
156.0, -167256.56148869533, -167313.35727135628, -163852.30140117425, -167476.12267447982, -163678.71775373432, -165318.508782209, -161999.47589629603, -157225.88088820945, -0.062, 0.9, 0.436, 192.0, 0.0, 0.0, 0.0, 0.0, 0.0, 0.0, 0.0, 0.0, 0.0, 1.7307466716385615E9, 0.0, 2024-11-04 15:57:51.638
157.0, -167257.5896689403, -167314.5866173013, -164922.2347047609, -167478.9389942812, -164597.68737526983, -164596.41332583586, -161256.48155885717, -157450.60532696312, -0.066, 0.906, 0.438, 192.0, 253.0, 240.0, 28.0, 80.0, 13.0, 176.0, 0.0, 0.0, 0.0, 1.7307466716416185E9, 0.0, 2024-11-04 15:57:51.641
158.0, -167257.56731719582, -167314.43015509011, -165129.5247828394, -167478.55901462544, -164753.94842075687, -164428.9093528878, -160745.81125328675, -157266.73987707376, -0.066, 0.906, 0.438, 192.0, 0.0, 0.0, 0.0, 0.0, 0.0, 0.0, 0.0, 0.0, 0.0, 1.7307466716454377E9, 0.0, 2024-11-04 15:57:51.645
159.0, -167259.3778084967, -167316.21829464656, -164213.9526264611, -167478.7378285811, -163968.01638221936, -165031.26651421387, -161318.7758706541, -157039.53439468556, -0.066, 0.906, 0.438, 192.0, 0.0, 0.0, 0.0, 0.0, 0.0, 0.0, 0.0, 0.0, 0.0, 1.7307466716503649E9, 0.0, 2024-11-04 15:57:51.650
160.0, -167258.81901488532, -167315.6371492907, -163733.5018793943, -167478.1343314808, -163576.54792982913, -165426.35594920587, -162021.55941981787, -157154.1988437413, -0.066, 0.906, 0.438, 192.0, 0.0, 0.0, 0.0, 0.0, 0.0, 0.0, 0.0, 0.0, 0.0, 1.7307466716543627E9, 0.0, 2024-11-04 15:57:51.654
161.0, -167259.981305597, -167316.91119872467, -164727.30514136615, -167481.06241000444, -164435.23489656867, -164774.02028727773, -161520.00862598524, -157441.172890803, -0.066, 0.906, 0.438, 192.0, 0.0, 0.0, 0.0, 0.0, 0.0, 0.0, 0.0, 0.0, 0.0, 1.7307466716587539E9, 0.0, 2024-11-04 15:57:51.658
162.0, -167260.76361665293, -167317.71586152507, -165187.1922835341, -167481.88942454927, -164809.60426445058, -164424.88603888586, -161232.29697135653, -157334.39860753997, -0.066, 0.906, 0.438, 192.0, 0.0, 0.0, 0.0, 0.0, 0.0, 0.0, 0.0, 0.0, 0.0, 1.7307466716623628E9, 0.0, 2024-11-04 15:57:51.662
163.0, -167265.97157311102, -167322.76735577194, -164418.42638473827, -167485.55511063995, -164146.40565471718, -164903.50394290735, -161676.18026449447, -157103.080404172, -0.066, 0.906, 0.438, 192.0, 0.0, 0.0, 0.0, 0.0, 0.0, 0.0, 0.0, 0.0, 0.0, 1.7307466716655133E9, 0.0, 2024-11-04 15:57:51.665
164.0, -167265.1892620551, -167321.9403412271, -163718.63796933152, -167484.2363577171, -163566.40023784642, -165422.48909741512, -162111.011101128, -157142.17360522432, -0.066, 0.906, 0.438, 192.0, 0.0, 0.0, 0.0, 0.0, 0.0, 0.0, 0.0, 0.0, 0.0, 1.7307466716695795E9, 0.0, 2024-11-04 15:57:51.669
165.0, -167265.479834733, -167322.3426726273, -164552.24627879218, -167486.20331122915, -164291.89315937678, -164903.39218418507, -161623.72072025784, -157440.47998672485, -0.066, 0.906, 0.438, 192.0, 0.0, 0.0, 0.0, 0.0, 0.0, 0.0, 0.0, 0.0, 0.0, 1.730746671673764E9, 0.0, 2024-11-04 15:57:51.673
166.0, -167268.25145104545, -167325.22604766203, -165240.5458975489, -167489.37725894182, -164863.65078254353, -164398.91331182877, -161196.8024011615, -157389.54036111123, -0.066, 0.906, 0.438, 192.0, 0.0, 0.0, 0.0, 0.0, 0.0, 0.0, 0.0, 0.0, 0.0, 1.730746671677508E9, 0.0, 2024-11-04 15:57:51.677
167.0, -167269.6372592017, -167326.52244884043, -164633.67368384288, -167489.55607289745, -164334.24971511957, -164770.86869130956, -161550.2728879777, -157135.42337839885, -0.058, 0.902, 0.444, 192.0, 254.0, 48.0, 28.0, 48.0, 13.0, 224.0, 0.0, 0.0, 0.0, 1.7307466716825483E9, 0.0, 2024-11-04 15:57:51.682
168.0, -167271.71597143603, -167328.53410584142, -163763.02853381974, -167490.78541884248, -163606.09693599903, -165380.46781783915, -162081.37268798027, -157096.30782560204, -0.058, 0.902, 0.444, 192.0, 0.0, 0.0, 0.0, 0.0, 0.0, 0.0, 0.0, 0.0, 0.0, 1.7307466716865144E9, 0.0, 2024-11-04 15:57:51.686
169.0, -167273.70527669255, -167330.7022250536, -164362.5470236, -167494.27229097753, -164135.49800342298, -165037.1450230056, -161737.84872744666, -157391.97670125685, -0.058, 0.902, 0.444, 192.0, 0.0, 0.0, 0.0, 0.0, 0.0, 0.0, 0.0, 0.0, 0.0, 1.7307466716906836E9, 0.0, 2024-11-04 15:57:51.690
170.0, -167274.6887534486, -167331.7080535541, -165237.37194983626, -167496.03807878948, -164871.00450646933, -164416.19121029275, -160991.27811089496, -157420.6986928819, -0.058, 0.902, 0.444, 192.0, 0.0, 0.0, 0.0, 0.0, 0.0, 0.0, 0.0, 0.0, 0.0, 1.73074667169449E9, 0.0, 2024-11-04 15:57:51.694
171.0, -167275.62752671572, -167332.6021233323, -164816.55565697618, -167495.85926483385, -164495.0258129866, -164672.36455349502, -160926.480403719, -157155.87522457543, -0.058, 0.902, 0.444, 192.0, 0.0, 0.0, 0.0, 0.0, 0.0, 0.0, 0.0, 0.0, 0.0, 1.7307466716976051E9, 0.0, 2024-11-04 15:57:51.697
172.0, -167275.29225054887, -167332.13273669872, -163836.29755214424, -167494.33934621088, -163667.05014312867, -165354.45038729315, -161790.33062342773, -157055.13591231537, -0.058, 0.902, 0.444, 192.0, 0.0, 0.0, 0.0, 0.0, 0.0, 0.0, 0.0, 0.0, 0.0, 1.7307466717015283E9, 0.0, 2024-11-04 15:57:51.701
173.0, -167275.96280288254, -167332.9597512436, -164151.61361117527, -167496.30629972296, -163955.11942566867, -165221.72572871755, -161907.6772818181, -157348.97194492482, -0.058, 0.902, 0.444, 192.0, 0.0, 0.0, 0.0, 0.0, 0.0, 0.0, 0.0, 0.0, 0.0, 1.7307466717055058E9, 0.0, 2024-11-04 15:57:51.705
174.0, -167276.1863203271, -167333.18326868812, -165162.56066114435, -167497.51329392355, -164812.88997088553, -164508.74978408217, -161294.83715234246, -157472.75590571834, -0.058, 0.902, 0.444, 192.0, 0.0, 0.0, 0.0, 0.0, 0.0, 0.0, 0.0, 0.0, 0.0, 1.7307466717104208E9, 0.0, 2024-11-04 15:57:51.710
175.0, -167279.51673025094, -167336.4019198897, -164978.9857839329, -167499.99433755808, -164638.38990192293, -164595.60866303547, -161382.07601095154, -157243.20349016233, -0.058, 0.902, 0.444, 192.0, 0.0, 0.0, 0.0, 0.0, 0.0, 0.0, 0.0, 0.0, 0.0, 1.730746671714562E9, 0.0, 2024-11-04 15:57:51.714
176.0, -167281.14840759616, -167337.87713502374, -163985.18252196105, -167500.26255849155, -163797.07024062518, -165254.3592756223, -161965.05420983484, -157083.79084870708, -0.058, 0.902, 0.444, 192.0, 0.0, 0.0, 0.0, 0.0, 0.0, 0.0, 0.0, 0.0, 0.0, 1.7307466717187366E9, 0.0, 2024-11-04 15:57:51.718
177.0, -167279.9861168845, -167336.73719605652, -163996.3583941887, -167499.81552360245, -163827.0215781953, -165323.56027645592, -161995.51963752744, -157301.51919144622, -0.056, 0.91, 0.444, 192.0, 254.0, 64.0, 28.0, 112.0, 13.0, 224.0, 0.0, 0.0, 0.0, 1.7307466717216105E9, 0.0, 2024-11-04 15:57:51.721
178.0, -167280.23198607352, -167337.16187920116, -165072.88546238965, -167501.5366079255, -164746.21471717535, -164582.13056112893, -161359.90308045186, -157483.68590875698, -0.056, 0.91, 0.444, 192.0, 0.0, 0.0, 0.0, 0.0, 0.0, 0.0, 0.0, 0.0, 0.0, 1.7307466717256393E9, 0.0, 2024-11-04 15:57:51.725
179.0, -167284.47881752002, -167341.47576588104, -165129.90476249513, -167505.24699750508, -164774.0873425111, -164511.05201376104, -161310.84100137246, -157280.6650138694, -0.056, 0.91, 0.444, 192.0, 0.0, 0.0, 0.0, 0.0, 0.0, 0.0, 0.0, 0.0, 0.0, 1.7307466717295055E9, 0.0, 2024-11-04 15:57:51.729
180.0, -167288.74800071097, -167345.65554209417, -164179.73210570004, -167508.0856690509, -163963.63544030613, -165129.90476249513, -161863.21966209647, -157084.70727022973, -0.056, 0.91, 0.444, 192.0, 0.0, 0.0, 0.0, 0.0, 0.0, 0.0, 0.0, 0.0, 0.0, 1.7307466717336507E9, 0.0, 2024-11-04 15:57:51.733
181.0, -167289.55266351136, -167346.5496118724, -163890.20995977044, -167509.15855278476, -163736.3405509401, -165396.1810941912, -162066.03939128394, -157240.65539129442, -0.056, 0.91, 0.444, 192.0, 0.0, 0.0, 0.0, 0.0, 0.0, 0.0, 0.0, 0.0, 0.0, 1.7307466717386615E9, 0.0, 2024-11-04 15:57:51.738
182.0, -167291.09493387878, -167348.09188223982, -164944.85467014965, -167512.31014875296, -164642.94965779182, -164689.64245195896, -161337.70779820776, -157481.33897558917, -0.056, 0.91, 0.444, 192.0, 0.0, 0.0, 0.0, 0.0, 0.0, 0.0, 0.0, 0.0, 0.0, 1.7307466717426867E9, 0.0, 2024-11-04 15:57:51.742
183.0, -167290.42438154513, -167347.42132990615, -165237.17078413616, -167511.50548595257, -164871.83152101416, -164453.65273399983, -160774.15326525609, -157308.26941827172, -0.056, 0.91, 0.444, 192.0, 0.0, 0.0, 0.0, 0.0, 0.0, 0.0, 0.0, 0.0, 0.0, 1.730746671746636E9, 0.0, 2024-11-04 15:57:51.746
184.0, -167292.36898331274, -167349.32122818485, -164357.3390671419, -167511.8407621194, -164114.80028805736, -165026.61735136717, -161308.96345483823, -157067.40702002135, -0.056, 0.91, 0.444, 192.0, 0.0, 0.0, 0.0, 0.0, 0.0, 0.0, 0.0, 0.0, 0.0, 1.7307466717494724E9, 0.0, 2024-11-04 15:57:51.749
185.0, -167291.20669260106, -167348.04717875092, -163793.73983070135, -167510.54436094098, -163650.21927955383, -165481.5647580105, -162072.63315589825, -157168.3474979815, -0.056, 0.91, 0.444, 192.0, 0.0, 0.0, 0.0, 0.0, 0.0, 0.0, 0.0, 0.0, 0.0, 1.730746671753625E9, 0.0, 2024-11-04 15:57:51.753
186.0, -167291.49726527897, -167348.36010317327, -164740.44796710587, -167512.55601794197, -164469.27660337408, -164870.9150994915, -161618.5574672887, -157476.6227575091, -0.056, 0.91, 0.444, 192.0, 0.0, 0.0, 0.0, 0.0, 0.0, 0.0, 0.0, 0.0, 0.0, 1.7307466717576475E9, 0.0, 2024-11-04 15:57:51.757
187.0, -167294.49239903598, -167351.42229216365, -165282.34365968034, -167515.70761391017, -164914.29983547927, -164460.9170509478, -161276.15109397782, -157395.19535245842, -0.058, 0.91, 0.448, 192.0, 254.0, 48.0, 28.0, 112.0, 14.0, 0.0, 0.0, 0.0, 0.0, 1.7307466717617207E9, 0.0, 2024-11-04 15:57:51.761
188.0, -167296.79462871488, -167353.65746660918, -164564.11505509797, -167516.5793319439, -164293.30131927747, -164909.181285999, -161692.00529956882, -157156.5457769091, -0.058, 0.91, 0.448, 192.0, 0.0, 0.0, 0.0, 0.0, 0.0, 0.0, 0.0, 0.0, 0.0, 1.7307466717665637E9, 0.0, 2024-11-04 15:57:51.766
189.0, -167299.61094851626, -167356.47378641056, -163798.03136563677, -167518.70274766718, -163655.628401712, -165471.17119683878, -162163.15772094222, -157172.72843989474, -0.058, 0.91, 0.448, 192.0, 0.0, 0.0, 0.0, 0.0, 0.0, 0.0, 0.0, 0.0, 0.0, 1.7307466717707007E9, 0.0, 2024-11-04 15:57:51.770
190.0, -167299.1415618827, -167356.07145501036, -164559.60000271798, -167519.99914884559, -164321.0398341465, -165011.44051688202, -161718.02273011478, -157474.47699004138, -0.058, 0.91, 0.448, 192.0, 0.0, 0.0, 0.0, 0.0, 0.0, 0.0, 0.0, 0.0, 0.0, 1.730746671773917E9, 0.0, 2024-11-04 15:57:51.773
191.0, -167301.2873293504, -167358.21722247807, -165315.40188972975, -167522.7931169025, -164952.32015279774, -164457.9219171908, -161258.6049745804, -157451.61115546362, -0.058, 0.91, 0.448, 192.0, 0.0, 0.0, 0.0, 0.0, 0.0, 0.0, 0.0, 0.0, 0.0, 1.7307466717776155E9, 0.0, 2024-11-04 15:57:51.777
192.0, -167304.1930561296, -167361.1005975128, -164773.2379762218, -167524.4471459922, -164476.29505113306, -164783.40801994898, -161560.71115263834, -157196.06366110608, -0.058, 0.91, 0.448, 192.0, 0.0, 0.0, 0.0, 0.0, 0.0, 0.0, 0.0, 0.0, 0.0, 1.7307466717816765E9, 0.0, 2024-11-04 15:57:51.781
193.0, -167306.80821023087, -167363.67104812516, -163861.68913384547, -167525.9447128707, -163710.68074830543, -165415.51535314505, -162107.4571737596, -157133.70229407577, -0.058, 0.91, 0.448, 192.0, 0.0, 0.0, 0.0, 0.0, 0.0, 0.0, 0.0, 0.0, 0.0, 1.730746671785626E9, 0.0, 2024-11-04 15:57:51.785
194.0, -167306.6964515086, -167363.6486963807, -164371.8900527823, -167527.1964105602, -164163.7506084145, -165140.05245447785, -161825.71343490048, -157419.69286438142, -0.058, 0.91, 0.448, 192.0, 0.0, 0.0, 0.0, 0.0, 0.0, 0.0, 0.0, 0.0, 0.0, 1.7307466717897217E9, 0.0, 2024-11-04 15:57:51.789
195.0, -167307.2328933755, -167364.18513824765, -165304.270720991, -167528.6492739498, -164950.10733009665, -164482.53118783608, -161257.01800072409, -157476.35453657564, -0.058, 0.91, 0.448, 192.0, 0.0, 0.0, 0.0, 0.0, 0.0, 0.0, 0.0, 0.0, 0.0, 1.730746671794868E9, 0.0, 2024-11-04 15:57:51.794
196.0, -167311.16680039966, -167368.02963829396, -164969.41923730605, -167531.5997042179, -164648.29172471663, -164672.61042268403, -161442.76099714768, -157228.74191149973, -0.058, 0.91, 0.448, 192.0, 0.0, 0.0, 0.0, 0.0, 0.0, 0.0, 0.0, 0.0, 0.0, 1.7307466717987266E9, 0.0, 2024-11-04 15:57:51.798
197.0, -167313.737251012, -167370.62244065077, -163986.52362662836, -167532.8514019074, -163818.63967402454, -165335.16083182822, -162032.73529204552, -157107.86367748544, -0.058, 0.898, 0.45, 192.0, 254.0, 48.0, 28.0, 16.0, 14.0, 16.0, 0.0, 0.0, 0.0, 1.7307466718028617E9, 0.0, 2024-11-04 15:57:51.802
198.0, -167313.5807888008, -167370.46597843958, -164202.37442283327, -167533.63371296332, -164021.705272401, -165267.47974961755, -161935.12522400919, -157362.8970817205, -0.058, 0.898, 0.45, 192.0, 0.0, 0.0, 0.0, 0.0, 0.0, 0.0, 0.0, 0.0, 0.0, 1.730746671805606E9, 0.0, 2024-11-04 15:57:51.805
199.0, -167314.5419138124, -167371.58356566235, -165243.8986592172, -167536.07005310894, -164906.40966968652, -164541.7856623871, -161106.81427798443, -157493.09599317267, -0.058, 0.898, 0.45, 192.0, 0.0, 0.0, 0.0, 0.0, 0.0, 0.0, 0.0, 0.0, 0.0, 1.7307466718096747E9, 0.0, 2024-11-04 15:57:51.809
200.0, -167316.46416383557, -167373.3493534743, -165124.8309165038, -167537.12058509834, -164783.36331646008, -164592.39001183392, -160827.19395484854, -157243.15878667342, -0.058, 0.898, 0.45, 192.0, 0.0, 0.0, 0.0, 0.0, 0.0, 0.0, 0.0, 0.0, 0.0, 1.7307466718138223E9, 0.0, 2024-11-04 15:57:51.813
201.0, -167317.46999233603, -167374.1093127858, -164120.76820382694, -167536.51708799804, -163928.05146313328, -165270.43017988565, -161583.33111802713, -157072.2797003126, -0.058, 0.898, 0.45, 192.0, 0.0, 0.0, 0.0, 0.0, 0.0, 0.0, 0.0, 0.0, 0.0, 1.7307466718177538E9, 0.0, 2024-11-04 15:57:51.817
202.0, -167317.82762024732, -167374.6010511638, -164023.0687288128, -167537.61232347635, -163864.14782573556, -165420.0974607584, -162041.58658284982, -157292.55614191963, -0.058, 0.898, 0.45, 192.0, 0.0, 0.0, 0.0, 0.0, 0.0, 0.0, 0.0, 0.0, 0.0, 1.7307466718215916E9, 0.0, 2024-11-04 15:57:51.821
203.0, -167316.91119872467, -167373.86344359678, -165100.75808772544, -167538.26052406558, -164786.91724382844, -164679.83003614307, -161433.61913366546, -157512.05027247075, -0.058, 0.898, 0.45, 192.0, 0.0, 0.0, 0.0, 0.0, 0.0, 0.0, 0.0, 0.0, 0.0, 1.7307466718266935E9, 0.0, 2024-11-04 15:57:51.826
204.0, -167318.81109700337, -167375.71863838658, -165243.56338305038, -167539.7580909441, -164887.63420434407, -164549.65347643537, -161324.58732421248, -157332.74457845028, -0.058, 0.898, 0.45, 192.0, 0.0, 0.0, 0.0, 0.0, 0.0, 0.0, 0.0, 0.0, 0.0, 1.7307466718296998E9, 0.0, 2024-11-04 15:57:51.829
205.0, -167322.23091390502, -167378.98199307706, -164315.67541547722, -167541.68034096723, -164094.57195932532, -165151.8318238058, -161865.29837433083, -157135.75865456567, -0.058, 0.898, 0.45, 192.0, 0.0, 0.0, 0.0, 0.0, 0.0, 0.0, 0.0, 0.0, 0.0, 1.7307466718337605E9, 0.0, 2024-11-04 15:57:51.833
206.0, -167323.1920389166, -167379.8984145997, -163932.1418323686, -167542.57441074544, -163786.76608643128, -165472.1099701059, -162115.10147036333, -157269.57854861958, -0.058, 0.898, 0.45, 192.0, 0.0, 0.0, 0.0, 0.0, 0.0, 0.0, 0.0, 0.0, 0.0, 1.730746671837654E9, 0.0, 2024-11-04 15:57:51.837
207.0, -167321.3368441268, -167378.26673725448, -164961.2384988354, -167542.57441074544, -164672.87864361747, -164788.28070024023, -161431.2051452643, -157524.63430459908, -0.062, 0.896, 0.446, 192.0, 254.0, 16.0, 28.0, 0.0, 13.0, 240.0, 0.0, 0.0, 0.0, 1.7307466718416438E9, 0.0, 2024-11-04 15:57:51.841
208.0, -167321.62741680472, -167378.66906865468, -165335.45140450614, -167542.86498342335, -164971.49794954038, -164499.7196793222, -160820.1084518562, -157374.0953056926, -0.062, 0.896, 0.446, 192.0, 0.0, 0.0, 0.0, 0.0, 0.0, 0.0, 0.0, 0.0, 0.0, 1.730746671845703E9, 0.0, 2024-11-04 15:57:51.845
209.0, -167324.242570906, -167381.0607053114, -164501.30665317853, -167543.8037566905, -164252.15175773524, -165041.9059445746, -161278.00628876762, -157134.9316400208, -0.062, 0.896, 0.446, 192.0, 0.0, 0.0, 0.0, 0.0, 0.0, 0.0, 0.0, 0.0, 0.0, 1.730746671849728E9, 0.0, 2024-11-04 15:57:51.849
210.0, -167324.77901277292, -167381.68655415616, -163855.76592156483, -167544.0049223906, -163717.69919606438, -165540.84158430598, -162075.98591756655, -157202.2550943202, -0.062, 0.896, 0.446, 192.0, 0.0, 0.0, 0.0, 0.0, 0.0, 0.0, 0.0, 0.0, 0.0, 1.7307466718546557E9, 0.0, 2024-11-04 15:57:51.854
211.0, -167325.02488196193, -167381.93242334516, -164749.99216198828, -167545.97187590264, -164493.14826645236, -164976.5941472762, -161683.17636050898, -157508.80926952473, -0.062, 0.896, 0.446, 192.0, 0.0, 0.0, 0.0, 0.0, 0.0, 0.0, 0.0, 0.0, 0.0, 1.7307466718578937E9, 0.0, 2024-11-04 15:57:51.857
212.0, -167327.5059255965, -167384.48052221307, -165370.94597470117, -167548.83289919293, -165005.4949528569, -164523.97132205623, -161297.49700993265, -157451.87937639706, -0.062, 0.896, 0.446, 192.0, 0.0, 0.0, 0.0, 0.0, 0.0, 0.0, 0.0, 0.0, 0.0, 1.73074667186172E9, 0.0, 2024-11-04 15:57:51.861
213.0, -167330.18813493112, -167387.1180280588, -164709.11082137952, -167550.17400386024, -164429.9151813883, -164935.2881235228, -161677.6554796285, -157215.08499563756, -0.062, 0.896, 0.446, 192.0, 0.0, 0.0, 0.0, 0.0, 0.0, 0.0, 0.0, 0.0, 0.0, 1.730746671865801E9, 0.0, 2024-11-04 15:57:51.865
214.0, -167332.1997919321, -167389.0179263375, -163886.11959053512, -167551.38099806083, -163743.0907777656, -165514.9135607378, -162189.42102067723, -157205.31728331058, -0.062, 0.896, 0.446, 192.0, 0.0, 0.0, 0.0, 0.0, 0.0, 0.0, 0.0, 0.0, 0.0, 1.730746671869757E9, 0.0, 2024-11-04 15:57:51.869
215.0, -167334.1443936997, -167391.1189903163, -164566.17141558786, -167555.02433240705, -164340.57525880044, -165107.93299769558, -161810.3801382041, -157505.61297006762, -0.062, 0.896, 0.446, 192.0, 0.0, 0.0, 0.0, 0.0, 0.0, 0.0, 0.0, 0.0, 0.0, 1.7307466718741488E9, 0.0, 2024-11-04 15:57:51.874
216.0, -167333.38443438822, -167390.4037344937, -165389.1402946878, -167554.91257368476, -165029.5007264019, -164515.075327763, -161301.22975125667, -157515.1348132056, -0.062, 0.896, 0.446, 192.0, 0.0, 0.0, 0.0, 0.0, 0.0, 0.0, 0.0, 0.0, 0.0, 1.730746671877702E9, 0.0, 2024-11-04 15:57:51.877
217.0, -167334.63613207772, -167391.58837694983, -164914.21042850142, -167554.93492542923, -164609.51144808668, -164797.4449154669, -161555.90552758044, -157263.49887412775, -0.062, 0.902, 0.442, 192.0, 254.0, 16.0, 28.0, 48.0, 13.0, 208.0, 0.0, 0.0, 0.0, 1.730746671882808E9, 0.0, 2024-11-04 15:57:51.882
218.0, -167339.8440885358, -167396.72927817458, -163970.11744619816, -167559.04764640902, -163815.84570596763, -165438.06826330046, -162131.19472637115, -157180.73036440974, -0.062, 0.902, 0.442, 192.0, 0.0, 0.0, 0.0, 0.0, 0.0, 0.0, 0.0, 0.0, 0.0, 1.730746671885748E9, 0.0, 2024-11-04 15:57:51.885
219.0, -167339.73232981353, -167396.72927817458, -164383.24473896562, -167560.23228886514, -164186.68349822564, -165230.37585382175, -161916.48386913346, -157460.79772243474, -0.062, 0.902, 0.442, 192.0, 0.0, 0.0, 0.0, 0.0, 0.0, 0.0, 0.0, 0.0, 0.0, 1.7307466718897564E9, 0.0, 2024-11-04 15:57:51.889
220.0, -167338.92766701314, -167395.94696711862, -165361.78175947448, -167560.38875107633, -165014.3015401723, -164540.71277865325, -161323.0674055895, -157543.8344530862, -0.062, 0.902, 0.442, 192.0, 0.0, 0.0, 0.0, 0.0, 0.0, 0.0, 0.0, 0.0, 0.0, 1.7307466718939664E9, 0.0, 2024-11-04 15:57:51.893
221.0, -167341.8557455368, -167398.78563866444, -165105.9660441835, -167562.33335284394, -164778.64709838, -164679.98649835426, -161459.0107153667, -157300.4239559679, -0.062, 0.902, 0.442, 192.0, 0.0, 0.0, 0.0, 0.0, 0.0, 0.0, 0.0, 0.0, 0.0, 1.730746671897961E9, 0.0, 2024-11-04 15:57:51.897
222.0, -167345.61083860527, -167402.38426952175, -164111.738099067, -167564.81439647847, -163938.95911442747, -165344.50386101054, -162047.88977478622, -157155.15996875288, -0.062, 0.902, 0.442, 192.0, 0.0, 0.0, 0.0, 0.0, 0.0, 0.0, 0.0, 0.0, 0.0, 1.7307466719017332E9, 0.0, 2024-11-04 15:57:51.901
223.0, -167346.46020489457, -167403.30069104442, -164222.04395795392, -167566.62488777936, -164052.64008672716, -165341.79929993144, -162024.0404634524, -157391.35085241208, -0.062, 0.902, 0.442, 192.0, 0.0, 0.0, 0.0, 0.0, 0.0, 0.0, 0.0, 0.0, 0.0, 1.7307466719057739E9, 0.0, 2024-11-04 15:57:51.905
224.0, -167346.99664676152, -167403.99359512253, -165284.0647440034, -167568.5471378025, -164956.58933598868, -164607.49979108572, -161212.6050844914, -157551.21052875646, -0.062, 0.902, 0.442, 192.0, 0.0, 0.0, 0.0, 0.0, 0.0, 0.0, 0.0, 0.0, 0.0, 1.7307466719097552E9, 0.0, 2024-11-04 15:57:51.909
225.0, -167347.30957118387, -167404.15005733373, -165249.03956044192, -167568.12245465786, -164905.9626347974, -164603.65529103938, -160859.5592808198, -157321.88163064502, -0.062, 0.902, 0.442, 192.0, 0.0, 0.0, 0.0, 0.0, 0.0, 0.0, 0.0, 0.0, 0.0, 1.7307466719127953E9, 0.0, 2024-11-04 15:57:51.912
226.0, -167351.42229216365, -167408.32983354686, -164259.14785374975, -167570.8046639925, -164062.60896475424, -165261.89181350372, -161582.54880697117, -157128.00259923967, -0.062, 0.902, 0.442, 192.0, 0.0, 0.0, 0.0, 0.0, 0.0, 0.0, 0.0, 0.0, 0.0, 1.7307466719177108E9, 0.0, 2024-11-04 15:57:51.917
227.0, -167353.54570788692, -167410.40854578122, -164056.79751119585, -167573.28570762704, -163909.47716349093, -165481.8553306884, -162114.34151105184, -157320.16054632195, -0.058, 0.906, 0.448, 192.0, 254.0, 48.0, 28.0, 80.0, 14.0, 0.0, 0.0, 0.0, 0.0, 1.7307466719216952E9, 0.0, 2024-11-04 15:57:51.921
228.0, -167356.42908292165, -167413.4707347716, -165131.1341084402, -167577.8454634959, -164830.4584420274, -164763.3361534281, -161516.27588466118, -157560.21828177193, -0.058, 0.906, 0.448, 192.0, 0.0, 0.0, 0.0, 0.0, 0.0, 0.0, 0.0, 0.0, 0.0, 1.7307466719257104E9, 0.0, 2024-11-04 15:57:51.925
229.0, -167355.98204803254, -167413.13545860475, -165357.46787279463, -167577.1972629067, -165001.42693536603, -164574.26274708068, -161363.23349037571, -157393.42956464645, -0.058, 0.906, 0.448, 192.0, 0.0, 0.0, 0.0, 0.0, 0.0, 0.0, 0.0, 0.0, 0.0, 1.7307466719297943E9, 0.0, 2024-11-04 15:57:51.929
230.0, -167356.85376606628, -167413.9177696607, -164462.01228642612, -167576.5490623175, -164235.05267322692, -165145.61803884723, -161881.92807220557, -157182.89848362192, -0.058, 0.906, 0.448, 192.0, 0.0, 0.0, 0.0, 0.0, 0.0, 0.0, 0.0, 0.0, 0.0, 1.73074667193392E9, 0.0, 2024-11-04 15:57:51.933
231.0, -167357.61372537777, -167414.58832199435, -163986.16599871707, -167577.2419663956, -163849.35097090615, -165529.2186771892, -162178.9380525277, -157296.1324210325, -0.058, 0.906, 0.448, 192.0, 0.0, 0.0, 0.0, 0.0, 0.0, 0.0, 0.0, 0.0, 0.0, 1.7307466719377906E9, 0.0, 2024-11-04 15:57:51.937
232.0, -167358.28427771144, -167415.34828130584, -164976.90707169857, -167579.67830654126, -164704.03697538818, -164876.8159600277, -161591.31069079766, -157569.96364235444, -0.058, 0.906, 0.448, 192.0, 0.0, 0.0, 0.0, 0.0, 0.0, 0.0, 0.0, 0.0, 0.0, 1.730746671940739E9, 0.0, 2024-11-04 15:57:51.940
233.0, -167360.78767309044, -167417.85167668483, -165445.55609769298, -167582.11464668688, -165085.00010788444, -164517.578723142, -161297.2287889992, -157451.65585895252, -0.058, 0.906, 0.448, 192.0, 0.0, 0.0, 0.0, 0.0, 0.0, 0.0, 0.0, 0.0, 0.0, 1.7307466719447732E9, 0.0, 2024-11-04 15:57:51.944
234.0, -167361.34646670183, -167418.3657668073, -164675.0691145741, -167581.28763214205, -164420.7509661616, -165005.47260111244, -161742.54259378227, -157214.14622237041, -0.058, 0.906, 0.448, 192.0, 0.0, 0.0, 0.0, 0.0, 0.0, 0.0, 0.0, 0.0, 0.0, 1.730746671949696E9, 0.0, 2024-11-04 15:57:51.949
235.0, -167363.87221382526, -167420.82445869737, -163969.960983987, -167583.27693739856, -163836.69988354444, -165517.08167994997, -162181.26263395103, -157246.57860357506, -0.058, 0.906, 0.448, 192.0, 0.0, 0.0, 0.0, 0.0, 0.0, 0.0, 0.0, 0.0, 0.0, 1.7307466719539115E9, 0.0, 2024-11-04 15:57:51.953
236.0, -167365.41448419268, -167422.41143255372, -164802.63052018054, -167586.42853336676, -164561.52225274115, -165002.07513595524, -161695.4251164705, -157540.5263949068, -0.058, 0.906, 0.448, 192.0, 0.0, 0.0, 0.0, 0.0, 0.0, 0.0, 0.0, 0.0, 0.0, 1.7307466719576612E9, 0.0, 2024-11-04 15:57:51.957
237.0, -167367.2026237491, -167424.19957211014, -165494.0146796721, -167588.61900432338, -165133.14576544115, -164500.5690456115, -160989.4005643607, -157482.54596978976, -0.062, 0.904, 0.448, 192.0, 254.0, 16.0, 28.0, 64.0, 14.0, 0.0, 0.0, 0.0, 0.0, 1.7307466719617937E9, 0.0, 2024-11-04 15:57:51.961
238.0, -167368.52137667197, -167425.518325033, -164876.52538734977, -167588.64135606782, -164592.6582327674, -164889.53410262277, -161133.81518528642, -157215.44262354882, -0.062, 0.904, 0.448, 192.0, 0.0, 0.0, 0.0, 0.0, 0.0, 0.0, 0.0, 0.0, 0.0, 1.730746671965815E9, 0.0, 2024-11-04 15:57:51.965
239.0, -167369.81777785037, -167426.79237446695, -163987.59651036223, -167588.9542804902, -163847.98751449437, -165529.73276731168, -162011.7917074909, -157182.65261443288, -0.062, 0.904, 0.448, 192.0, 0.0, 0.0, 0.0, 0.0, 0.0, 0.0, 0.0, 0.0, 0.0, 1.7307466719687324E9, 0.0, 2024-11-04 15:57:51.968
240.0, -167370.8459580953, -167427.90996168973, -164579.87303493894, -167591.63648982483, -164370.52659637053, -165198.56932146184, -161877.12244714767, -157499.24272289788, -0.062, 0.904, 0.448, 192.0, 0.0, 0.0, 0.0, 0.0, 0.0, 0.0, 0.0, 0.0, 0.0, 1.7307466719728277E9, 0.0, 2024-11-04 15:57:51.972
241.0, -167371.78473136245, -167428.84873495685, -165463.3480862794, -167593.3575741479, -165111.73279425298, -164566.52904349912, -161337.327818552, -157541.7333891074, -0.062, 0.904, 0.448, 192.0, 0.0, 0.0, 0.0, 0.0, 0.0, 0.0, 0.0, 0.0, 0.0, 1.7307466719780169E9, 0.0, 2024-11-04 15:57:51.978
242.0, -167374.66810639718, -167431.68740650266, -165060.971982595, -167595.14571370432, -164751.44502537788, -164798.13781954502, -161556.8443008476, -157292.44438319738, -0.062, 0.904, 0.448, 192.0, 0.0, 0.0, 0.0, 0.0, 0.0, 0.0, 0.0, 0.0, 0.0, 1.7307466719817722E9, 0.0, 2024-11-04 15:57:51.981
243.0, -167378.78082737696, -167435.71072050463, -164091.71093603503, -167597.98438525014, -163936.00868415937, -165453.22274604117, -162128.51251703652, -157191.9509401263, -0.062, 0.904, 0.448, 192.0, 0.0, 0.0, 0.0, 0.0, 0.0, 0.0, 0.0, 0.0, 0.0, 1.7307466719857786E9, 0.0, 2024-11-04 15:57:51.985
244.0, -167378.37849597677, -167435.44249957116, -164405.551779932, -167598.78904805053, -164223.9662079771, -165323.49322122257, -161974.17372157262, -157462.40704803553, -0.062, 0.904, 0.448, 192.0, 0.0, 0.0, 0.0, 0.0, 0.0, 0.0, 0.0, 0.0, 0.0, 1.730746671990047E9, 0.0, 2024-11-04 15:57:51.990
245.0, -167376.59035642032, -167433.7214152481, -165425.05954802746, -167598.14084746133, -165087.65996547462, -164613.46770685527, -161360.95361244126, -157574.5904534567, -0.062, 0.904, 0.448, 192.0, 0.0, 0.0, 0.0, 0.0, 0.0, 0.0, 0.0, 0.0, 0.0, 1.7307466719930327E9, 0.0, 2024-11-04 15:57:51.993
246.0, -167378.02086806548, -167434.99546468206, -165245.86561272928, -167598.72199281718, -164913.78574535678, -164689.4636380033, -161455.54619497614, -157344.05456114467, -0.062, 0.904, 0.448, 192.0, 0.0, 0.0, 0.0, 0.0, 0.0, 0.0, 0.0, 0.0, 0.0, 1.7307466719967923E9, 0.0, 2024-11-04 15:57:51.996
247.0, -167382.24534776752, -167439.19759263966, -164251.25768795703, -167601.58301610744, -164071.7731799809, -165334.5349829835, -162048.91795503115, -157192.91206513788, -0.068, 0.902, 0.446, 192.0, 253.0, 224.0, 28.0, 48.0, 13.0, 240.0, 0.0, 0.0, 0.0, 1.7307466720008695E9, 0.0, 2024-11-04 15:57:52.000
248.0, -167384.7487431465, -167441.768043252, -164255.63862987026, -167604.9134260313, -164096.47185760402, -165403.06543148344, -162076.41060071118, -157406.32652119716, -0.068, 0.902, 0.446, 192.0, 0.0, 0.0, 0.0, 0.0, 0.0, 0.0, 0.0, 0.0, 0.0, 1.7307466720059423E9, 0.0, 2024-11-04 15:57:52.005
249.0, -167386.08984781383, -167443.2656101305, -165332.3668637713, -167607.88620804384, -165013.8992087721, -164670.08467556056, -161306.99650132615, -157579.73135468143, -0.068, 0.902, 0.446, 192.0, 0.0, 0.0, 0.0, 0.0, 0.0, 0.0, 0.0, 0.0, 0.0, 1.7307466720099533E9, 0.0, 2024-11-04 15:57:52.009
250.0, -167387.34154550332, -167444.38319735328, -165383.26178589606, -167608.4226499108, -165034.93220030455, -164609.01970970866, -160897.33372894928, -157363.63468928752, -0.068, 0.902, 0.446, 192.0, 0.0, 0.0, 0.0, 0.0, 0.0, 0.0, 0.0, 0.0, 0.0, 1.7307466720139644E9, 0.0, 2024-11-04 15:57:52.013
251.0, -167387.78858039243, -167444.7184735201, -164410.37975673436, -167607.19330396573, -164205.99540543504, -165257.1532436792, -161562.36518172803, -157164.7935706131, -0.068, 0.902, 0.446, 192.0, 0.0, 0.0, 0.0, 0.0, 0.0, 0.0, 0.0, 0.0, 0.0, 1.7307466720178719E9, 0.0, 2024-11-04 15:57:52.017
252.0, -167389.62142343778, -167446.50661307652, -164111.738099067, -167609.38377492235, -163970.76564678736, -165543.70260759623, -162153.50176733756, -157336.74554070778, -0.068, 0.902, 0.446, 192.0, 0.0, 0.0, 0.0, 0.0, 0.0, 0.0, 0.0, 0.0, 0.0, 1.7307466720208175E9, 0.0, 2024-11-04 15:57:52.020
253.0, -167388.012097837, -167444.9643427091, -165167.52274841344, -167609.562588878, -164877.79943678374, -164842.48368054436, -161582.25823429326, -157593.50002926588, -0.068, 0.902, 0.446, 192.0, 0.0, 0.0, 0.0, 0.0, 0.0, 0.0, 0.0, 0.0, 0.0, 1.7307466720248387E9, 0.0, 2024-11-04 15:57:52.024
254.0, -167390.02375483798, -167446.90894447672, -165477.6084992419, -167611.39543192333, -165120.6287885462, -164597.106229914, -161377.22568240474, -157446.38084726105, -0.068, 0.902, 0.446, 192.0, 0.0, 0.0, 0.0, 0.0, 0.0, 0.0, 0.0, 0.0, 0.0, 1.7307466720288012E9, 0.0, 2024-11-04 15:57:52.028
255.0, -167394.2705862845, -167451.11107243432, -164618.09451795754, -167614.09999300243, -164384.76465758856, -165140.20891668904, -161873.3002988458, -157223.6680655084, -0.068, 0.902, 0.446, 192.0, 0.0, 0.0, 0.0, 0.0, 0.0, 0.0, 0.0, 0.0, 0.0, 1.730746672033813E9, 0.0, 2024-11-04 15:57:52.033
0.0, -167398.29390028643, -167455.11203469182, -164054.80820593933, -167617.78803083755, -163923.40230028657, -165573.0280963216, -162232.55988747597, -157306.34716824855, -0.068, 0.902, 0.446, 192.0, 0.0, 0.0, 0.0, 0.0, 0.0, 0.0, 0.0, 0.0, 0.0, 1.7307466720377305E9, 0.0, 2024-11-04 15:57:52.037
1.0, -167399.54559797593, -167456.60960157032, -165002.63392956663, -167620.80551633902, -164743.71132179635, -164956.79050168878, -161668.3124504462, -157591.46602052046, -0.066, 0.9, 0.444, 192.0, 253.0, 240.0, 28.0, 32.0, 13.0, 224.0, 0.0, 0.0, 0.0, 1.7307466720418513E9, 0.0, 2024-11-04 15:57:52.041
2.0, -167398.78563866444, -167455.8272905144, -165551.34690419995, -167620.13496400535, -165191.8861498697, -164549.832290391, -161330.28701904858, -157496.11347867412, -0.066, 0.9, 0.444, 192.0, 0.0, 0.0, 0.0, 0.0, 0.0, 0.0, 0.0, 0.0, 0.0, 1.730746672044833E9, 0.0, 2024-11-04 15:57:52.044
3.0, -167398.74093517553, -167455.60377306983, -164834.68292172946, -167618.72680410466, -164571.22290983473, -164993.6932317845, -161756.5794893002, -157250.08782745455, -0.066, 0.9, 0.444, 192.0, 0.0, 0.0, 0.0, 0.0, 0.0, 0.0, 0.0, 0.0, 0.0, 1.7307466720489392E9, 0.0, 2024-11-04 15:57:52.048
4.0, -167401.6243102103, -167458.44244461568, -164064.35240082175, -167620.9172750613, -163931.58303875724, -165554.2302792347, -162232.0010938646, -157262.42599039388, -0.066, 0.9, 0.444, 192.0, 0.0, 0.0, 0.0, 0.0, 0.0, 0.0, 0.0, 0.0, 0.0, 1.730746672052776E9, 0.0, 2024-11-04 15:57:52.052
5.0, -167404.75355443402, -167461.7728545395, -164822.38946227904, -167625.81230709702, -164593.82052347905, -165098.83583770227, -161764.7378760264, -157559.2348050159, -0.066, 0.9, 0.444, 192.0, 0.0, 0.0, 0.0, 0.0, 0.0, 0.0, 0.0, 0.0, 0.0, 1.7307466720567987E9, 0.0, 2024-11-04 15:57:52.056
6.0, -167404.8653131563, -167461.8846132618, -165584.89687262737, -167626.48285943066, -165227.87245844275, -164548.42413049034, -160998.743593543, -157526.64596160006, -0.066, 0.9, 0.444, 192.0, 0.0, 0.0, 0.0, 0.0, 0.0, 0.0, 0.0, 0.0, 0.0, 1.730746672061812E9, 0.0, 2024-11-04 15:57:52.061
7.0, -167405.55821723441, -167462.44340687318, -165027.86904905667, -167625.70054837473, -164738.07868219362, -164891.21048345693, -161128.56252533942, -157256.39101939095, -0.066, 0.9, 0.444, 192.0, 0.0, 0.0, 0.0, 0.0, 0.0, 0.0, 0.0, 0.0, 0.0, 1.7307466720659027E9, 0.0, 2024-11-04 15:57:52.065
8.0, -167406.65345271272, -167463.49393886258, -164097.8353140158, -167625.83465884146, -163956.32641986923, -165548.39647393185, -162029.0025507215, -157197.15889658438, -0.066, 0.9, 0.444, 192.0, 0.0, 0.0, 0.0, 0.0, 0.0, 0.0, 0.0, 0.0, 0.0, 1.730746672070024E9, 0.0, 2024-11-04 15:57:52.070
9.0, -167405.7593829345, -167462.75633129553, -164598.17911364784, -167626.57226640848, -164401.41670720777, -165282.38836316924, -161969.65866919263, -157501.56730432122, -0.066, 0.9, 0.444, 192.0, 0.0, 0.0, 0.0, 0.0, 0.0, 0.0, 0.0, 0.0, 0.0, 1.7307466720729697E9, 0.0, 2024-11-04 15:57:52.072
10.0, -167405.40175502322, -167462.51046210653, -165536.05831099252, -167627.17576350877, -165189.27099576843, -164619.68149181386, -161386.45695286477, -157567.0355638308, -0.066, 0.9, 0.444, 192.0, 0.0, 0.0, 0.0, 0.0, 0.0, 0.0, 0.0, 0.0, 0.0, 1.7307466720769305E9, 0.0, 2024-11-04 15:57:52.076
11.0, -167409.04508936944, -167466.01968598602, -165208.2029233221, -167629.67915888777, -164891.41164915703, -164803.79281089222, -161563.147492784, -157329.54827899317, -0.066, 0.9, 0.444, 192.0, 0.0, 0.0, 0.0, 0.0, 0.0, 0.0, 0.0, 0.0, 0.0, 1.7307466720809252E9, 0.0, 2024-11-04 15:57:52.080
12.0, -167411.6155399818, -167468.45602613164, -164222.6027515653, -167630.97556006617, -164061.44667404256, -165470.053609616, -162150.75250276955, -157226.3055713541, -0.068, 0.9, 0.442, 192.0, 253.0, 224.0, 28.0, 32.0, 13.0, 208.0, 0.0, 0.0, 0.0, 1.7307466720848615E9, 0.0, 2024-11-04 15:57:52.084
13.0, -167411.79435393744, -167468.6348400873, -164432.73150118967, -167632.07079554448, -164261.83006308437, -165404.67475708423, -162058.26098421347, -157492.6266065391, -0.068, 0.9, 0.442, 192.0, 0.0, 0.0, 0.0, 0.0, 0.0, 0.0, 0.0, 0.0, 0.0, 1.7307466720890324E9, 0.0, 2024-11-04 15:57:52.089
14.0, -167414.09658361634, -167471.026476744, -165479.9554324097, -167635.7141298907, -165149.75311157145, -164675.73966690776, -161430.24402025272, -157626.33474187073, -0.068, 0.9, 0.442, 192.0, 0.0, 0.0, 0.0, 0.0, 0.0, 0.0, 0.0, 0.0, 0.0, 1.730746672093979E9, 0.0, 2024-11-04 15:57:52.093
15.0, -167415.79531619494, -167472.70285757814, -165381.71951552865, -167636.7646618801, -165044.99048530942, -164701.93591140938, -161477.29444233113, -157387.08166922114, -0.068, 0.9, 0.442, 192.0, 0.0, 0.0, 0.0, 0.0, 0.0, 0.0, 0.0, 0.0, 0.0, 1.730746672097932E9, 0.0, 2024-11-04 15:57:52.097
16.0, -167417.60580749583, -167474.40159015675, -164391.02314603605, -167637.23404851367, -164205.61542577928, -165340.30173305294, -162066.41937093966, -157209.13943161242, -0.068, 0.9, 0.442, 192.0, 0.0, 0.0, 0.0, 0.0, 0.0, 0.0, 0.0, 0.0, 0.0, 1.7307466721008432E9, 0.0, 2024-11-04 15:57:52.100
17.0, -167420.06449938592, -167476.9273372802, -164290.79792389847, -167640.13977529286, -164142.1811750151, -165476.7591329526, -162156.29573539447, -157408.6958061094, -0.068, 0.9, 0.442, 192.0, 0.0, 0.0, 0.0, 0.0, 0.0, 0.0, 0.0, 0.0, 0.0, 1.7307466721049268E9, 0.0, 2024-11-04 15:57:52.104
18.0, -167419.66216798572, -167476.56970936892, -165372.86822472434, -167641.30206600454, -165066.29169777533, -164747.9358014984, -161379.68437429483, -157611.6943492525, -0.068, 0.9, 0.442, 192.0, 0.0, 0.0, 0.0, 0.0, 0.0, 0.0, 0.0, 0.0, 0.0, 1.7307466721088755E9, 0.0, 2024-11-04 15:57:52.108
19.0, -167422.54554302045, -167479.4307326592, -165508.45390659024, -167643.69370266126, -165158.44794016457, -164624.21889593828, -160924.60285718477, -157408.13701249805, -0.068, 0.9, 0.442, 192.0, 0.0, 0.0, 0.0, 0.0, 0.0, 0.0, 0.0, 0.0, 0.0, 1.7307466721128805E9, 0.0, 2024-11-04 15:57:52.112
20.0, -167422.52319127598, -167479.34132568137, -164564.15975858687, -167642.0173218271, -164351.0805786944, -165245.46328132908, -161573.7869231447, -157197.6506349624, -0.068, 0.9, 0.442, 192.0, 0.0, 0.0, 0.0, 0.0, 0.0, 0.0, 0.0, 0.0, 0.0, 1.730746672116896E9, 0.0, 2024-11-04 15:57:52.116
21.0, -167420.86916218628, -167477.66494484723, -164165.98578286002, -167640.40799622633, -164030.78008064989, -165599.06787861203, -162224.0885763274, -157348.5472617802, -0.068, 0.9, 0.442, 192.0, 0.0, 0.0, 0.0, 0.0, 0.0, 0.0, 0.0, 0.0, 0.0, 1.730746672121801E9, 0.0, 2024-11-04 15:57:52.121
22.0, -167421.24914184204, -167478.1790349697, -165193.9425103596, -167642.68787416077, -164915.84210584668, -164921.8770768496, -161679.08599127366, -157629.7992622613, -0.07, 0.9, 0.446, 192.0, 253.0, 208.0, 28.0, 32.0, 13.0, 240.0, 0.0, 0.0, 0.0, 1.7307466721258876E9, 0.0, 2024-11-04 15:57:52.125
23.0, -167425.11599363282, -167481.91177629374, -165588.6743174403, -167646.4653189737, -165231.22522011105, -164615.4570121118, -161423.0020550492, -157500.80734500973, -0.07, 0.9, 0.446, 192.0, 0.0, 0.0, 0.0, 0.0, 0.0, 0.0, 0.0, 0.0, 0.0, 1.730746672128955E9, 0.0, 2024-11-04 15:57:52.128
24.0, -167429.02754891248, -167485.80097982896, -164769.9969732758, -167648.90165911935, -164528.10639478045, -165123.9815502145, -161889.460610087, -157267.43278115187, -0.07, 0.9, 0.446, 192.0, 0.0, 0.0, 0.0, 0.0, 0.0, 0.0, 0.0, 0.0, 0.0, 1.7307466721328917E9, 0.0, 2024-11-04 15:57:52.132
25.0, -167431.08390940237, -167488.01380253004, -164130.96059929856, -167650.68979867577, -164001.58870239125, -165611.1378206179, -162278.71623977617, -157329.72709294883, -0.07, 0.9, 0.446, 192.0, 0.0, 0.0, 0.0, 0.0, 0.0, 0.0, 0.0, 0.0, 0.0, 1.7307466721368861E9, 0.0, 2024-11-04 15:57:52.136
26.0, -167432.02268266949, -167488.99727928606, -165021.67761584255, -167653.39435975486, -164773.37208668853, -165050.3549039787, -161756.6912480225, -157621.5961720462, -0.07, 0.9, 0.446, 192.0, 0.0, 0.0, 0.0, 0.0, 0.0, 0.0, 0.0, 0.0, 0.0, 1.7307466721410177E9, 0.0, 2024-11-04 15:57:52.141
27.0, -167432.08973790286, -167489.10903800835, -165649.26989665866, -167653.75198766615, -165290.41263942872, -164588.5455117876, -161382.9924324742, -157546.51666242085, -0.07, 0.9, 0.446, 192.0, 0.0, 0.0, 0.0, 0.0, 0.0, 0.0, 0.0, 0.0, 0.0, 1.73074667214487E9, 0.0, 2024-11-04 15:57:52.144
28.0, -167434.05669141494, -167491.09834326486, -164989.55815906028, -167654.3778365109, -164717.64918776145, -164996.8001242638, -161762.0333149473, -157296.9370838329, -0.07, 0.9, 0.446, 192.0, 0.0, 0.0, 0.0, 0.0, 0.0, 0.0, 0.0, 0.0, 0.0, 1.7307466721499643E9, 0.0, 2024-11-04 15:57:52.149
29.0, -167436.42597632718, -167493.46762817714, -164161.0460473354, -167655.8754033894, -164026.80147013682, -165583.06402958205, -162266.71335300367, -157279.4803714133, -0.07, 0.9, 0.446, 192.0, 0.0, 0.0, 0.0, 0.0, 0.0, 0.0, 0.0, 0.0, 0.0, 1.7307466721529756E9, 0.0, 2024-11-04 15:57:52.152
30.0, -167437.43180482768, -167494.45110493316, -164840.98611366586, -167658.4682057462, -164622.8107360376, -165184.35361198828, -161881.36927859418, -157573.87519763413, -0.07, 0.9, 0.446, 192.0, 0.0, 0.0, 0.0, 0.0, 0.0, 0.0, 0.0, 0.0, 0.0, 1.7307466721559136E9, 0.0, 2024-11-04 15:57:52.155
31.0, -167439.24229612856, -167496.39570670077, -165670.7052195913, -167661.03865635858, -165315.267779263, -164594.82635197954, -161373.91762422535, -157574.00930810088, -0.07, 0.9, 0.446, 192.0, 0.0, 0.0, 0.0, 0.0, 0.0, 0.0, 0.0, 0.0, 0.0, 1.7307466721609073E9, 0.0, 2024-11-04 15:57:52.160
32.0, -167441.276304874, -167498.29560497947, -165198.25639703948, -167661.9327261368, -164897.73719283787, -164870.95980298042, -161641.91504024446, -157321.05461610015, -0.062, 0.894, 0.444, 192.0, 254.0, 16.0, 27.0, 240.0, 13.0, 224.0, 0.0, 0.0, 0.0, 1.7307466721649232E9, 0.0, 2024-11-04 15:57:52.164
33.0, -167444.025569442, -167500.97781431413, -164249.31308618942, -167663.4749965042, -164101.29983440638, -165518.6686538063, -162213.69501515568, -157243.3152488846, -0.062, 0.894, 0.444, 192.0, 0.0, 0.0, 0.0, 0.0, 0.0, 0.0, 0.0, 0.0, 0.0, 1.730746672168913E9, 0.0, 2024-11-04 15:57:52.168
34.0, -167444.78552875348, -167501.82718060343, -164653.83495734155, -167665.55370873853, -164466.05795217253, -165310.015119316, -161983.56145424384, -157514.03957772726, -0.062, 0.894, 0.444, 192.0, 0.0, 0.0, 0.0, 0.0, 0.0, 0.0, 0.0, 0.0, 0.0, 1.7307466721729157E9, 0.0, 2024-11-04 15:57:52.172
35.0, -167444.49495607556, -167501.5366079255, -165636.08236743003, -167666.2689645611, -165294.63711913076, -164618.74271854674, -161177.66930790775, -157587.71092745196, -0.062, 0.894, 0.444, 192.0, 0.0, 0.0, 0.0, 0.0, 0.0, 0.0, 0.0, 0.0, 0.0, 1.7307466721779408E9, 0.0, 2024-11-04 15:57:52.177
36.0, -167446.68542703218, -167503.6376719043, -165370.45423632316, -167667.4312552728, -165046.86803184368, -164769.37112443105, -161026.75032934552, -157330.75527319376, -0.062, 0.894, 0.444, 192.0, 0.0, 0.0, 0.0, 0.0, 0.0, 0.0, 0.0, 0.0, 0.0, 1.7307466721809266E9, 0.0, 2024-11-04 15:57:52.180
37.0, -167447.8253659994, -167504.6882038937, -164361.1388636993, -167667.14068259488, -164192.36084131728, -165452.3510280074, -161865.9018714311, -157190.6992424368, -0.062, 0.894, 0.444, 192.0, 0.0, 0.0, 0.0, 0.0, 0.0, 0.0, 0.0, 0.0, 0.0, 1.7307466721849592E9, 0.0, 2024-11-04 15:57:52.184
38.0, -167447.0654066879, -167504.0400033045, -164458.92774569127, -167667.34184829498, -164295.8270664009, -165467.2149380702, -162157.59213657287, -157444.92798387146, -0.062, 0.894, 0.444, 192.0, 0.0, 0.0, 0.0, 0.0, 0.0, 0.0, 0.0, 0.0, 0.0, 1.7307466721889315E9, 0.0, 2024-11-04 15:57:52.188
39.0, -167447.6242002993, -167504.57644517143, -165526.89409576586, -167669.35350529593, -165204.13490583122, -164736.22348740383, -161511.8725910035, -157614.30950335378, -0.062, 0.894, 0.444, 192.0, 0.0, 0.0, 0.0, 0.0, 0.0, 0.0, 0.0, 0.0, 0.0, 1.730746672192896E9, 0.0, 2024-11-04 15:57:52.192
40.0, -167449.54645032246, -167506.49869519458, -165510.75613626913, -167670.64990647434, -165168.79679784738, -164715.10108889354, -161485.22931161278, -157404.82895431865, -0.062, 0.894, 0.444, 192.0, 0.0, 0.0, 0.0, 0.0, 0.0, 0.0, 0.0, 0.0, 0.0, 1.7307466721990123E9, 0.0, 2024-11-04 15:57:52.199
41.0, -167451.69221779017, -167508.59975917338, -164534.47664195023, -167671.34281055248, -164339.90470646677, -165345.21911683312, -162062.17253949316, -157229.90420221142, -0.062, 0.894, 0.444, 192.0, 0.0, 0.0, 0.0, 0.0, 0.0, 0.0, 0.0, 0.0, 0.0, 1.7307466722018683E9, 0.0, 2024-11-04 15:57:52.201
42.0, -167452.8321567574, -167509.71734639615, -164332.10394765186, -167672.81802568652, -164188.35987905978, -165548.3294186985, -162215.7290239011, -157412.02621603326, -0.064, 0.898, 0.442, 192.0, 254.0, 0.0, 28.0, 16.0, 13.0, 208.0, 0.0, 0.0, 0.0, 1.730746672204978E9, 0.0, 2024-11-04 15:57:52.204
43.0, -167453.6144678133, -167510.6337679188, -165404.3394809174, -167675.2767175766, -165107.19539012856, -164830.27962807176, -161525.06012023214, -157641.0645414668, -0.064, 0.898, 0.442, 192.0, 0.0, 0.0, 0.0, 0.0, 0.0, 0.0, 0.0, 0.0, 0.0, 1.7307466722089007E9, 0.0, 2024-11-04 15:57:52.208
44.0, -167454.84381375837, -167512.0419278195, -165632.61784703945, -167676.2825460771, -165278.94619452313, -164647.9117450609, -161014.501573384, -157463.65874572503, -0.064, 0.898, 0.442, 192.0, 0.0, 0.0, 0.0, 0.0, 0.0, 0.0, 0.0, 0.0, 0.0, 1.7307466722129197E9, 0.0, 2024-11-04 15:57:52.212
45.0, -167456.8331190149, -167513.8300673759, -164718.6326645175, -167676.70722922173, -164497.1268769654, -165238.98127543705, -161538.2700012052, -157237.0120569482, -0.064, 0.898, 0.442, 192.0, 0.0, 0.0, 0.0, 0.0, 0.0, 0.0, 0.0, 0.0, 0.0, 1.7307466722170265E9, 0.0, 2024-11-04 15:57:52.217
46.0, -167457.5707265819, -167514.50061970958, -164227.25191441202, -167677.2883745776, -164097.0306512154, -165649.15813793638, -162250.12835861783, -157357.8902909625, -0.064, 0.898, 0.442, 192.0, 0.0, 0.0, 0.0, 0.0, 0.0, 0.0, 0.0, 0.0, 0.0, 1.730746672221067E9, 0.0, 2024-11-04 15:57:52.221
47.0, -167460.65526731673, -167517.71927091116, -165219.89288567222, -167682.07164789102, -164952.11898709764, -165002.99155747792, -161734.58537275618, -157646.5630706028, -0.064, 0.898, 0.442, 192.0, 0.0, 0.0, 0.0, 0.0, 0.0, 0.0, 0.0, 0.0, 0.0, 1.7307466722249718E9, 0.0, 2024-11-04 15:57:52.224
48.0, -167463.24806967354, -167520.3791285013, -165695.20273151432, -167684.79856071455, -165335.9878463731, -164643.53080314767, -161435.42962496635, -157533.5302988923, -0.064, 0.898, 0.442, 192.0, 0.0, 0.0, 0.0, 0.0, 0.0, 0.0, 0.0, 0.0, 0.0, 1.730746672228946E9, 0.0, 2024-11-04 15:57:52.228
49.0, -167464.05273247394, -167520.9826256016, -164927.35325424114, -167684.17271186982, -164675.15852155193, -165122.64044554718, -161877.32361284777, -157301.5415431907, -0.064, 0.898, 0.442, 192.0, 0.0, 0.0, 0.0, 0.0, 0.0, 0.0, 0.0, 0.0, 0.0, 1.7307466722340157E9, 0.0, 2024-11-04 15:57:52.234
50.0, -167465.4385406302, -167522.21197154667, -164215.0031584505, -167684.8879676924, -164086.05594468786, -165648.26406815817, -162314.3225686935, -157342.22171809935, -0.064, 0.898, 0.442, 192.0, 0.0, 0.0, 0.0, 0.0, 0.0, 0.0, 0.0, 0.0, 0.0, 1.7307466722370086E9, 0.0, 2024-11-04 15:57:52.237
51.0, -167466.01968598602, -167522.97193085813, -165041.9059445746, -167687.30195609355, -164805.46919172636, -165131.69290205158, -161839.12448157364, -157636.84006176473, -0.064, 0.898, 0.442, 192.0, 0.0, 0.0, 0.0, 0.0, 0.0, 0.0, 0.0, 0.0, 0.0, 1.730746672239985E9, 0.0, 2024-11-04 15:57:52.239
52.0, -167469.19363369868, -167526.3470442709, -165747.39405481744, -167690.96764218423, -165388.71561154316, -164620.68732031435, -161417.5035259132, -157589.92375015304, -0.068, 0.904, 0.448, 192.0, 253.0, 224.0, 28.0, 64.0, 14.0, 0.0, 0.0, 0.0, 0.0, 1.730746672245039E9, 0.0, 2024-11-04 15:57:52.245
53.0, -167472.94872676715, -167530.035082106, -165146.91444002563, -167693.3816305854, -164864.38839011054, -164989.8934352271, -161759.39580910158, -157342.26642158825, -0.068, 0.904, 0.448, 192.0, 0.0, 0.0, 0.0, 0.0, 0.0, 0.0, 0.0, 0.0, 0.0, 1.730746672249049E9, 0.0, 2024-11-04 15:57:52.249
54.0, -167475.0274390015, -167531.95733212918, -164268.98262131008, -167694.49921780816, -164130.82648883184, -165597.34679428898, -162291.2108649267, -157303.91082810293, -0.068, 0.904, 0.448, 192.0, 0.0, 0.0, 0.0, 0.0, 0.0, 0.0, 0.0, 0.0, 0.0, 1.7307466722530167E9, 0.0, 2024-11-04 15:57:52.253
55.0, -167473.35105816735, -167530.3927100173, -164858.28636387424, -167694.25334861915, -164650.4151404399, -165259.23195591354, -161944.80352935835, -157594.95289265548, -0.068, 0.904, 0.448, 192.0, 0.0, 0.0, 0.0, 0.0, 0.0, 0.0, 0.0, 0.0, 0.0, 1.7307466722570093E9, 0.0, 2024-11-04 15:57:52.257
56.0, -167473.30635467844, -167530.48211699512, -165745.5835635166, -167695.21447363074, -165393.76710579003, -164627.43754713985, -161121.65583630276, -157614.6000760317, -0.068, 0.904, 0.448, 192.0, 0.0, 0.0, 0.0, 0.0, 0.0, 0.0, 0.0, 0.0, 0.0, 1.730746672262149E9, 0.0, 2024-11-04 15:57:52.262
57.0, -167475.787398313, -167532.8514019074, -165329.25997129202, -167696.55557829805, -165020.82824955325, -164879.87814901807, -161118.01250195655, -157351.76591298176, -0.068, 0.904, 0.448, 192.0, 0.0, 0.0, 0.0, 0.0, 0.0, 0.0, 0.0, 0.0, 0.0, 1.730746672265126E9, 0.0, 2024-11-04 15:57:52.265
58.0, -167476.70381983565, -167533.67841645223, -164339.45767157766, -167696.19795038676, -164186.43762903663, -165563.5286049281, -162009.46712606755, -157253.10531295603, -0.068, 0.904, 0.448, 192.0, 0.0, 0.0, 0.0, 0.0, 0.0, 0.0, 0.0, 0.0, 0.0, 1.73074667226802E9, 0.0, 2024-11-04 15:57:52.268
59.0, -167477.86611054733, -167534.86305890835, -164641.8544223135, -167698.43312483229, -164464.53803354956, -165441.33161799095, -162130.39006357075, -157535.40784542655, -0.068, 0.904, 0.448, 192.0, 0.0, 0.0, 0.0, 0.0, 0.0, 0.0, 0.0, 0.0, 0.0, 1.730746672273044E9, 0.0, 2024-11-04 15:57:52.273
60.0, -167478.89429079226, -167535.98064613112, -165666.12311197797, -167700.84711323347, -165330.6234277038, -164730.27792337872, -161514.44304161586, -157662.14223648814, -0.068, 0.904, 0.448, 192.0, 0.0, 0.0, 0.0, 0.0, 0.0, 0.0, 0.0, 0.0, 0.0, 1.7307466722770426E9, 0.0, 2024-11-04 15:57:52.277
61.0, -167481.30827919344, -167538.32757929893, -165494.34995583893, -167702.32232836753, -165163.72295185603, -164805.93857835993, -161601.2348653358, -157437.8201291347, -0.068, 0.904, 0.448, 192.0, 0.0, 0.0, 0.0, 0.0, 0.0, 0.0, 0.0, 0.0, 0.0, 1.7307466722810369E9, 0.0, 2024-11-04 15:57:52.281
62.0, -167484.57163388393, -167541.6579892228, -164496.14340020937, -167704.11046792395, -164320.2351713461, -165462.34225777892, -162186.35883168684, -157289.33749071808, -0.064, 0.902, 0.452, 192.0, 254.0, 0.0, 28.0, 48.0, 14.0, 32.0, 0.0, 0.0, 0.0, 1.7307466722851627E9, 0.0, 2024-11-04 15:57:52.285
63.0, -167486.24801471806, -167543.2449630791, -164495.0258129866, -167706.45740109176, -164340.12822391134, -165536.39358715937, -162213.85147736687, -157510.15037419205, -0.064, 0.902, 0.452, 192.0, 0.0, 0.0, 0.0, 0.0, 0.0, 0.0, 0.0, 0.0, 0.0, 1.7307466722880409E9, 0.0, 2024-11-04 15:57:52.288
64.0, -167486.47153216263, -167543.51318401255, -165576.96200334575, -167708.1784854148, -165260.5507088364, -164793.13102878703, -161565.76264688524, -157696.29570201586, -0.064, 0.902, 0.452, 192.0, 0.0, 0.0, 0.0, 0.0, 0.0, 0.0, 0.0, 0.0, 0.0, 1.7307466722921438E9, 0.0, 2024-11-04 15:57:52.292
65.0, -167488.46083741914, -167545.52484101354, -165644.88895474543, -167709.74310752668, -165295.82176158688, -164717.15744938343, -161510.84441075855, -157496.24758914087, -0.064, 0.902, 0.452, 192.0, 0.0, 0.0, 0.0, 0.0, 0.0, 0.0, 0.0, 0.0, 0.0, 1.7307466722961464E9, 0.0, 2024-11-04 15:57:52.296
66.0, -167490.42779093122, -167547.49179452562, -164690.4247630149, -167710.2348459047, -164484.02875471459, -165327.4718317356, -162065.99468779503, -157299.10520304504, -0.064, 0.902, 0.452, 192.0, 0.0, 0.0, 0.0, 0.0, 0.0, 0.0, 0.0, 0.0, 0.0, 1.730746672301089E9, 0.0, 2024-11-04 15:57:52.301
67.0, -167492.37239269883, -167549.36934105985, -164388.96678554616, -167712.3806133724, -164247.90492628873, -165596.4750762552, -162285.57822532396, -157449.68890544045, -0.064, 0.902, 0.452, 192.0, 0.0, 0.0, 0.0, 0.0, 0.0, 0.0, 0.0, 0.0, 0.0, 1.7307466723050673E9, 0.0, 2024-11-04 15:57:52.305
68.0, -167494.40640144426, -167551.51510852756, -165446.6513331713, -167716.2921686521, -165155.49750989646, -164898.45244866045, -161661.13754047605, -157690.9089316021, -0.064, 0.902, 0.452, 192.0, 0.0, 0.0, 0.0, 0.0, 0.0, 0.0, 0.0, 0.0, 0.0, 1.7307466723090992E9, 0.0, 2024-11-04 15:57:52.309
69.0, -167495.76985785604, -167552.9009166838, -165765.49896782625, -167717.40975587486, -165404.96532976214, -164655.64544864243, -161449.80179665113, -157533.68676110348, -0.064, 0.902, 0.452, 192.0, 0.0, 0.0, 0.0, 0.0, 0.0, 0.0, 0.0, 0.0, 0.0, 1.7307466723132489E9, 0.0, 2024-11-04 15:57:52.313
70.0, -167499.14497126878, -167556.09721614092, -164905.58265514168, -167719.15319194237, -164669.74939939374, -165194.9483388601, -161941.4284159456, -157301.96622633532, -0.064, 0.902, 0.452, 192.0, 0.0, 0.0, 0.0, 0.0, 0.0, 0.0, 0.0, 0.0, 0.0, 1.7307466723161302E9, 0.0, 2024-11-04 15:57:52.316
71.0, -167501.89423583678, -167558.69001849773, -164336.97662794314, -167721.5448285991, -164205.32485310137, -165631.50025981668, -162302.94553076572, -157376.93397723843, -0.064, 0.902, 0.452, 192.0, 0.0, 0.0, 0.0, 0.0, 0.0, 0.0, 0.0, 0.0, 0.0, 1.7307466723201597E9, 0.0, 2024-11-04 15:57:52.320
72.0, -167502.02834630353, -167558.98059117564, -165278.3203456784, -167723.5788373445, -165018.77188906336, -165028.96428453497, -161704.4775729749, -157661.62814636566, -0.062, 0.894, 0.45, 192.0, 254.0, 16.0, 27.0, 240.0, 14.0, 16.0, 0.0, 0.0, 0.0, 1.7307466723241289E9, 0.0, 2024-11-04 15:57:52.324
73.0, -167502.29656723698, -167559.22646036465, -165831.21309652485, -167724.00352048918, -165468.6678014598, -164618.6533115689, -161012.02052974945, -157557.3349067372, -0.062, 0.894, 0.45, 192.0, 0.0, 0.0, 0.0, 0.0, 0.0, 0.0, 0.0, 0.0, 0.0, 1.7307466723281047E9, 0.0, 2024-11-04 15:57:52.328
74.0, -167502.47538119263, -167559.24881210912, -165097.02534640138, -167722.7294710552, -164832.17952635046, -165083.32372705027, -161349.55422276905, -157297.2276565108, -0.062, 0.894, 0.45, 192.0, 0.0, 0.0, 0.0, 0.0, 0.0, 0.0, 0.0, 0.0, 0.0, 1.7307466723331091E9, 0.0, 2024-11-04 15:57:52.333
75.0, -167504.46468644915, -167561.19341387672, -164307.06999386192, -167723.9364652558, -164173.54067248592, -165673.27567020367, -162226.279047284, -157314.63966544147, -0.062, 0.894, 0.45, 192.0, 0.0, 0.0, 0.0, 0.0, 0.0, 0.0, 0.0, 0.0, 0.0, 1.730746672337067E9, 0.0, 2024-11-04 15:57:52.337
76.0, -167507.2810062505, -167564.16619588927, -165061.5084244619, -167728.45151763578, -164832.06776762818, -165217.63535948223, -161966.41766624662, -157634.04609370782, -0.062, 0.894, 0.45, 192.0, 0.0, 0.0, 0.0, 0.0, 0.0, 0.0, 0.0, 0.0, 0.0, 1.7307466723411093E9, 0.0, 2024-11-04 15:57:52.341
77.0, -167509.20325627367, -167566.26725986807, -165835.28111401573, -167731.17843045932, -165474.83688292943, -164662.10510279002, -161479.39550630993, -157622.6020005467, -0.062, 0.894, 0.45, 192.0, 0.0, 0.0, 0.0, 0.0, 0.0, 0.0, 0.0, 0.0, 0.0, 1.730746672344064E9, 0.0, 2024-11-04 15:57:52.344
78.0, -167511.14785804128, -167568.18950989124, -165300.85090408934, -167731.82663104852, -165005.78552553483, -164989.692269527, -161763.687344037, -157378.6550615615, -0.062, 0.894, 0.45, 192.0, 0.0, 0.0, 0.0, 0.0, 0.0, 0.0, 0.0, 0.0, 0.0, 1.7307466723480957E9, 0.0, 2024-11-04 15:57:52.348
79.0, -167513.85241912038, -167570.71525701467, -164378.93085228573, -167733.25714269368, -164234.4268243822, -165615.6975764868, -162315.93189429425, -157324.63089521302, -0.062, 0.894, 0.45, 192.0, 0.0, 0.0, 0.0, 0.0, 0.0, 0.0, 0.0, 0.0, 0.0, 1.7307466723521175E9, 0.0, 2024-11-04 15:57:52.352
80.0, -167512.62307317535, -167569.57531804746, -164874.96076523792, -167733.5477153716, -164677.12547506398, -165352.59519250336, -162037.3397514033, -157614.86829696517, -0.062, 0.894, 0.45, 192.0, 0.0, 0.0, 0.0, 0.0, 0.0, 0.0, 0.0, 0.0, 0.0, 1.7307466723571308E9, 0.0, 2024-11-04 15:57:52.357
81.0, -167511.70665165267, -167568.68124826925, -165821.400680709, -167733.6818258383, -165472.42289452828, -164692.7716961827, -161464.28572705816, -157674.83802733876, -0.062, 0.894, 0.45, 192.0, 0.0, 0.0, 0.0, 0.0, 0.0, 0.0, 0.0, 0.0, 0.0, 1.7307466723611867E9, 0.0, 2024-11-04 15:57:52.361
82.0, -167514.85824762087, -167571.78814074854, -165493.85821746092, -167735.80524156158, -165176.86577759575, -164871.9656314809, -161645.71483680187, -157431.47223370938, -0.068, 0.898, 0.446, 192.0, 253.0, 224.0, 28.0, 16.0, 13.0, 240.0, 0.0, 0.0, 0.0, 1.7307466723651068E9, 0.0, 2024-11-04 15:57:52.365
83.0, -167517.11577381086, -167573.9562599607, -164502.8712752904, -167736.65460785088, -164343.36922685735, -165523.69779630876, -162236.15851833328, -157308.09060431606, -0.068, 0.898, 0.446, 192.0, 0.0, 0.0, 0.0, 0.0, 0.0, 0.0, 0.0, 0.0, 0.0, 1.7307466723691196E9, 0.0, 2024-11-04 15:57:52.369
84.0, -167517.6969191667, -167574.6491640388, -164705.84746668907, -167738.21922996273, -164536.35418848446, -165466.7008479477, -162141.83415673187, -157559.97241258292, -0.068, 0.898, 0.446, 192.0, 0.0, 0.0, 0.0, 0.0, 0.0, 0.0, 0.0, 0.0, 0.0, 1.7307466723721461E9, 0.0, 2024-11-04 15:57:52.372
85.0, -167518.3451197559, -167575.40912335028, -165761.2744881242, -167740.32029394154, -165430.66983588575, -164741.00676071725, -161384.53470284163, -157691.9594635915, -0.068, 0.898, 0.446, 192.0, 0.0, 0.0, 0.0, 0.0, 0.0, 0.0, 0.0, 0.0, 0.0, 1.7307466723761344E9, 0.0, 2024-11-04 15:57:52.376
86.0, -167516.0875935659, -167573.17394890476, -165657.2494694292, -167737.32516018453, -165320.14045955427, -164781.4857699258, -161076.013574125, -157452.77344617527, -0.068, 0.898, 0.446, 192.0, 0.0, 0.0, 0.0, 0.0, 0.0, 0.0, 0.0, 0.0, 0.0, 1.7307466723802016E9, 0.0, 2024-11-04 15:57:52.380
87.0, -167518.1886575447, -167575.07384718346, -164646.50358516022, -167737.81689856254, -164463.37574283787, -165447.18777503824, -161807.00502479138, -157273.08777249907, -0.068, 0.898, 0.446, 192.0, 0.0, 0.0, 0.0, 0.0, 0.0, 0.0, 0.0, 0.0, 0.0, 1.73074667238413E9, 0.0, 2024-11-04 15:57:52.384
88.0, -167521.02732909052, -167577.93487047375, -164533.69433089427, -167741.25906720868, -164387.11159075637, -165605.97456764872, -162257.66089649926, -157487.8656849701, -0.068, 0.898, 0.446, 192.0, 0.0, 0.0, 0.0, 0.0, 0.0, 0.0, 0.0, 0.0, 0.0, 1.730746672389198E9, 0.0, 2024-11-04 15:57:52.389
89.0, -167523.17309655822, -167580.1923966637, -165617.9998061657, -167745.03651202162, -165311.69150015016, -164876.34657339414, -161647.01123798027, -157708.58916146628, -0.068, 0.898, 0.446, 192.0, 0.0, 0.0, 0.0, 0.0, 0.0, 0.0, 0.0, 0.0, 0.0, 1.7307466723932374E9, 0.0, 2024-11-04 15:57:52.393
90.0, -167523.5977797029, -167580.57237631947, -165772.04802895166, -167744.9471050438, -165420.90212355877, -164733.69774028036, -161543.85793731903, -157519.49340337436, -0.068, 0.898, 0.446, 192.0, 0.0, 0.0, 0.0, 0.0, 0.0, 0.0, 0.0, 0.0, 0.0, 1.7307466723962536E9, 0.0, 2024-11-04 15:57:52.396
91.0, -167525.67649193722, -167582.62873680936, -164839.62265725408, -167745.5506021441, -164627.57165760658, -165329.6175992033, -162092.39209799672, -157313.56678170763, -0.068, 0.898, 0.446, 192.0, 0.0, 0.0, 0.0, 0.0, 0.0, 0.0, 0.0, 0.0, 0.0, 1.73074667240019E9, 0.0, 2024-11-04 15:57:52.400
92.0, -167529.297474539, -167586.27207115557, -164446.05314088502, -167749.28334346812, -164311.0933078639, -165664.8937660329, -162345.50325220864, -157449.39833276253, -0.066, 0.91, 0.442, 192.0, 253.0, 240.0, 28.0, 112.0, 13.0, 208.0, 0.0, 0.0, 0.0, 1.7307466724041712E9, 0.0, 2024-11-04 15:57:52.404
93.0, -167531.57735247342, -167588.6637078123, -165478.4131620423, -167753.351360959, -165197.87641738373, -164988.95466196, -161731.99257039936, -157713.4394900131, -0.066, 0.91, 0.442, 192.0, 0.0, 0.0, 0.0, 0.0, 0.0, 0.0, 0.0, 0.0, 0.0, 1.730746672408265E9, 0.0, 2024-11-04 15:57:52.408
94.0, -167531.66675945124, -167588.73076304566, -165878.97877442584, -167753.30665747006, -165517.14873518335, -164684.45684724534, -161485.22931161278, -157577.98791861392, -0.066, 0.91, 0.442, 192.0, 0.0, 0.0, 0.0, 0.0, 0.0, 0.0, 0.0, 0.0, 0.0, 1.7307466724123185E9, 0.0, 2024-11-04 15:57:52.412
95.0, -167533.76782343004, -167590.74242004662, -165060.92727910608, -167753.9995615482, -164815.77334592026, -165190.7909143914, -161964.04838133437, -157346.31208733466, -0.066, 0.91, 0.442, 192.0, 0.0, 0.0, 0.0, 0.0, 0.0, 0.0, 0.0, 0.0, 0.0, 1.7307466724172275E9, 0.0, 2024-11-04 15:57:52.417
96.0, -167534.57248623043, -167591.48002761367, -164411.92202710177, -167754.35718945946, -164280.76199063804, -165673.9462225373, -162375.2757758231, -157406.3935764305, -0.066, 0.91, 0.442, 192.0, 0.0, 0.0, 0.0, 0.0, 0.0, 0.0, 0.0, 0.0, 0.0, 1.7307466724211774E9, 0.0, 2024-11-04 15:57:52.421
97.0, -167535.71242519765, -167592.61996658088, -165303.15313376824, -167757.1511575164, -165052.76889237989, -165118.0806896783, -161817.3985859631, -157697.25682702742, -0.066, 0.91, 0.442, 192.0, 0.0, 0.0, 0.0, 0.0, 0.0, 0.0, 0.0, 0.0, 0.0, 1.7307466724242563E9, 0.0, 2024-11-04 15:57:52.424
98.0, -167538.81931767694, -167595.816266038, -165934.18758323046, -167760.66038139586, -165569.51887244213, -164661.8145301121, -161088.6199579978, -157616.81289873278, -0.066, 0.91, 0.442, 192.0, 0.0, 0.0, 0.0, 0.0, 0.0, 0.0, 0.0, 0.0, 0.0, 1.7307466724283216E9, 0.0, 2024-11-04 15:57:52.428
99.0, -167538.48404151012, -167595.4586381267, -165255.54391807842, -167758.93929707282, -164979.8798537111, -165086.74354395195, -161354.0916268935, -157354.2469566163, -0.066, 0.91, 0.442, 192.0, 0.0, 0.0, 0.0, 0.0, 0.0, 0.0, 0.0, 0.0, 0.0, 1.7307466724323275E9, 0.0, 2024-11-04 15:57:52.432
100.0, -167536.87471590933, -167593.804609037, -164409.28452125605, -167756.48060518273, -164273.83294985688, -165706.13273455296, -162252.4082365523, -157349.55309028068, -0.066, 0.91, 0.442, 192.0, 0.0, 0.0, 0.0, 0.0, 0.0, 0.0, 0.0, 0.0, 0.0, 1.7307466724363835E9, 0.0, 2024-11-04 15:57:52.436
101.0, -167539.71338745515, -167596.7103358162, -165080.0156688709, -167760.9509540738, -164862.4661400874, -165320.6098461878, -162036.82566128083, -157671.462913926, -0.066, 0.91, 0.442, 192.0, 0.0, 0.0, 0.0, 0.0, 0.0, 0.0, 0.0, 0.0, 0.0, 1.7307466724403377E9, 0.0, 2024-11-04 15:57:52.440
102.0, -167542.17207934524, -167599.1019724729, -165921.49179237985, -167764.21430876426, -165563.46154969474, -164720.19728662935, -161509.83858225806, -157689.90310310162, -0.062, 0.906, 0.44, 192.0, 254.0, 16.0, 28.0, 80.0, 13.0, 192.0, 0.0, 0.0, 0.0, 1.7307466724453595E9, 0.0, 2024-11-04 15:57:52.445
103.0, -167544.8989921688, -167601.87358878538, -165451.68047567375, -167765.68952389833, -165148.14378597066, -164991.68157478352, -161771.84573076316, -157437.6636669235, -0.062, 0.906, 0.44, 192.0, 0.0, 0.0, 0.0, 0.0, 0.0, 0.0, 0.0, 0.0, 0.0, 1.7307466724492772E9, 0.0, 2024-11-04 15:57:52.449
104.0, -167545.9048206693, -167602.83471379694, -164495.584606598, -167765.44365470932, -164346.27495363654, -165638.65281804238, -162347.13492955387, -157352.6376310155, -0.062, 0.906, 0.44, 192.0, 0.0, 0.0, 0.0, 0.0, 0.0, 0.0, 0.0, 0.0, 0.0, 1.7307466724524136E9, 0.0, 2024-11-04 15:57:52.452
105.0, -167547.08946312542, -167604.08641148644, -164895.99375677036, -167767.94705008832, -164707.6803097344, -165443.00799882508, -162139.53192705297, -157634.98486697493, -0.062, 0.906, 0.44, 192.0, 0.0, 0.0, 0.0, 0.0, 0.0, 0.0, 0.0, 0.0, 0.0, 1.7307466724564369E9, 0.0, 2024-11-04 15:57:52.456
106.0, -167547.38003580333, -167604.37698416438, -165888.32180360818, -167769.46696871126, -165543.0320552626, -164749.05338872116, -161544.8190623306, -157722.8272226843, -0.062, 0.906, 0.44, 192.0, 0.0, 0.0, 0.0, 0.0, 0.0, 0.0, 0.0, 0.0, 0.0, 1.730746672460374E9, 0.0, 2024-11-04 15:57:52.460
107.0, -167549.97283816015, -167606.88037954335, -165640.17273666535, -167771.00923907867, -165313.03260481748, -164880.01225948482, -161669.29592720224, -157482.2777488563, -0.062, 0.906, 0.44, 192.0, 0.0, 0.0, 0.0, 0.0, 0.0, 0.0, 0.0, 0.0, 0.0, 1.7307466724644203E9, 0.0, 2024-11-04 15:57:52.464
108.0, -167553.9514486732, -167610.7248795897, -164639.64159961243, -167773.51263445767, -164469.09778941845, -165540.6180668614, -162257.45973079916, -157348.81548271366, -0.062, 0.906, 0.44, 192.0, 0.0, 0.0, 0.0, 0.0, 0.0, 0.0, 0.0, 0.0, 0.0, 1.7307466724684653E9, 0.0, 2024-11-04 15:57:52.468
109.0, -167553.25854459507, -167610.14373423383, -164737.00579845975, -167773.69144841333, -164572.92164241333, -165548.66469486532, -162223.21685829366, -157590.57195074225, -0.062, 0.906, 0.44, 192.0, 0.0, 0.0, 0.0, 0.0, 0.0, 0.0, 0.0, 0.0, 0.0, 1.7307466724723997E9, 0.0, 2024-11-04 15:57:52.472
110.0, -167554.24202135112, -167611.12721098986, -165813.55521840518, -167776.08308507004, -165486.70565923522, -164816.89093314303, -161587.22032156234, -157753.40440909917, -0.062, 0.906, 0.44, 192.0, 0.0, 0.0, 0.0, 0.0, 0.0, 0.0, 0.0, 0.0, 0.0, 1.7307466724773707E9, 0.0, 2024-11-04 15:57:52.477
111.0, -167556.67836149674, -167613.54119939104, -165804.74863108978, -167777.78181764865, -165456.08376933145, -164786.31374672815, -161589.70136519687, -157538.44768267247, -0.062, 0.906, 0.44, 192.0, 0.0, 0.0, 0.0, 0.0, 0.0, 0.0, 0.0, 0.0, 0.0, 1.7307466724802663E9, 0.0, 2024-11-04 15:57:52.480
112.0, -167558.37709407535, -167615.30698720302, -164822.81414542368, -167778.16179730438, -164622.9001430154, -165415.33653918942, -162159.4249796182, -157351.96707868186, -0.062, 0.9, 0.446, 192.0, 254.0, 16.0, 28.0, 32.0, 13.0, 240.0, 0.0, 0.0, 0.0, 1.730746672484249E9, 0.0, 2024-11-04 15:57:52.484
113.0, -167561.79691097702, -167618.6150453824, -164611.9030847434, -167781.8945386284, -164464.62744052737, -165630.65089352737, -162305.068946489, -157526.42244415553, -0.062, 0.9, 0.446, 192.0, 0.0, 0.0, 0.0, 0.0, 0.0, 0.0, 0.0, 0.0, 0.0, 1.7307466724883792E9, 0.0, 2024-11-04 15:57:52.488
114.0, -167563.80856797798, -167620.76081285012, -165689.95007156732, -167785.6943351858, -165387.9780039761, -164910.63414938858, -161549.51292866623, -157753.739685266, -0.062, 0.9, 0.446, 192.0, 0.0, 0.0, 0.0, 0.0, 0.0, 0.0, 0.0, 0.0, 0.0, 1.7307466724924347E9, 0.0, 2024-11-04 15:57:52.492
115.0, -167562.1992423772, -167619.2185424827, -165918.8095830452, -167783.86149214048, -165559.0806077815, -164722.92419945291, -161031.73476835905, -157560.37474398312, -0.062, 0.9, 0.446, 192.0, 0.0, 0.0, 0.0, 0.0, 0.0, 0.0, 0.0, 0.0, 0.0, 1.7307466724963498E9, 0.0, 2024-11-04 15:57:52.496
116.0, -167563.85327146688, -167620.62670238336, -165001.96337723295, -167783.7944369071, -164774.55672914468, -165317.43589847517, -161618.53511554422, -157330.17412783793, -0.062, 0.9, 0.446, 192.0, 0.0, 0.0, 0.0, 0.0, 0.0, 0.0, 0.0, 0.0, 0.0, 1.7307466725013025E9, 0.0, 2024-11-04 15:57:52.501
117.0, -167565.10496915638, -167621.92310356177, -164504.14532472438, -167784.91202412988, -164369.16313995878, -165731.05492962062, -162333.50036543614, -157453.04166710874, -0.062, 0.9, 0.446, 192.0, 0.0, 0.0, 0.0, 0.0, 0.0, 0.0, 0.0, 0.0, 0.0, 1.7307466725053525E9, 0.0, 2024-11-04 15:57:52.505
118.0, -167564.79204473403, -167621.7666413506, -165496.58513028445, -167786.52134973067, -165224.6985107301, -165094.09726787775, -161831.3013710143, -157746.14009215118, -0.062, 0.9, 0.446, 192.0, 0.0, 0.0, 0.0, 0.0, 0.0, 0.0, 0.0, 0.0, 0.0, 1.7307466725083628E9, 0.0, 2024-11-04 15:57:52.508
119.0, -167565.19437613423, -167622.1689727508, -165982.66851695403, -167787.1024950865, -165616.9045706874, -164725.67346402092, -161532.86087904705, -157638.3599803877, -0.062, 0.9, 0.446, 192.0, 0.0, 0.0, 0.0, 0.0, 0.0, 0.0, 0.0, 0.0, 0.0, 1.7307466725130196E9, 0.0, 2024-11-04 15:57:52.513
120.0, -167567.36249534637, -167624.20298149623, -165209.0522896114, -167787.7059921868, -164950.80023417476, -165201.38564126322, -161970.50803548194, -157399.12925948255, -0.062, 0.9, 0.446, 192.0, 0.0, 0.0, 0.0, 0.0, 0.0, 0.0, 0.0, 0.0, 0.0, 1.730746672516477E9, 0.0, 2024-11-04 15:57:52.516
121.0, -167569.30709711398, -167626.16993500828, -164490.4213536288, -167789.0470968541, -164355.30505839648, -165729.49030750876, -162413.72077628624, -157437.77542564578, -0.062, 0.9, 0.446, 192.0, 0.0, 0.0, 0.0, 0.0, 0.0, 0.0, 0.0, 0.0, 0.0, 1.7307466725203707E9, 0.0, 2024-11-04 15:57:52.520
122.0, -167570.93877445924, -167628.00277805363, -165315.93833159667, -167792.5563207336, -165074.38302926815, -165223.71503397406, -161934.34291295326, -157741.66974326014, -0.062, 0.896, 0.448, 192.0, 254.0, 16.0, 28.0, 0.0, 14.0, 0.0, 0.0, 0.0, 0.0, 1.7307466725244527E9, 0.0, 2024-11-04 15:57:52.524
123.0, -167573.88920472734, -167630.90850483283, -166029.4954215879, -167795.77497193517, -165663.08327473202, -164706.629777745, -161503.51303857722, -157688.8078676233, -0.062, 0.896, 0.448, 192.0, 0.0, 0.0, 0.0, 0.0, 0.0, 0.0, 0.0, 0.0, 0.0, 1.7307466725293913E9, 0.0, 2024-11-04 15:57:52.529
124.0, -167575.6549925393, -167632.40607171133, -165429.55224866298, -167796.1996550798, -165140.6335998337, -165068.72803792096, -161849.89802240112, -157434.2662017663, -0.062, 0.896, 0.448, 192.0, 0.0, 0.0, 0.0, 0.0, 0.0, 0.0, 0.0, 0.0, 0.0, 1.7307466725324454E9, 0.0, 2024-11-04 15:57:52.532
125.0, -167576.9960972066, -167633.74717637865, -164542.97030484324, -167796.57963473556, -164399.89678858483, -165687.42432444385, -162387.74804922915, -157397.72109958186, -0.062, 0.896, 0.448, 192.0, 0.0, 0.0, 0.0, 0.0, 0.0, 0.0, 0.0, 0.0, 0.0, 1.7307466725354111E9, 0.0, 2024-11-04 15:57:52.535
126.0, -167578.4042571073, -167635.40120546834, -165132.09523345175, -167799.5524167481, -164919.30662623723, -165355.79149196047, -162050.66139109866, -157688.42788796758, -0.062, 0.896, 0.448, 192.0, 0.0, 0.0, 0.0, 0.0, 0.0, 0.0, 0.0, 0.0, 0.0, 1.7307466725405347E9, 0.0, 2024-11-04 15:57:52.540
127.0, -167579.83476875245, -167636.89877234685, -166030.16597392154, -167801.94405340482, -165669.83350155753, -164722.16424014143, -161296.93821632126, -157710.60081846724, -0.062, 0.896, 0.448, 192.0, 0.0, 0.0, 0.0, 0.0, 0.0, 0.0, 0.0, 0.0, 0.0, 1.7307466725446572E9, 0.0, 2024-11-04 15:57:52.544
128.0, -167581.28763214205, -167638.17282178078, -165615.6975764868, -167802.12286736048, -165299.62155814428, -164959.80798719026, -161241.9082214723, -157444.95033561593, -0.062, 0.896, 0.448, 192.0, 0.0, 0.0, 0.0, 0.0, 0.0, 0.0, 0.0, 0.0, 0.0, 1.7307466725485065E9, 0.0, 2024-11-04 15:57:52.548
129.0, -167583.52280658757, -167640.3632927374, -164620.12852670296, -167802.9498819053, -164460.49236780315, -165642.67613204435, -162109.69234820514, -157344.32278207812, -0.062, 0.896, 0.448, 192.0, 0.0, 0.0, 0.0, 0.0, 0.0, 0.0, 0.0, 0.0, 0.0, 1.7307466725525272E9, 0.0, 2024-11-04 15:57:52.552
130.0, -167583.6569170543, -167640.58681018197, -164916.08797503568, -167804.33569006153, -164732.49074607977, -165525.15065969832, -162221.1828495482, -157627.72055002698, -0.062, 0.896, 0.448, 192.0, 0.0, 0.0, 0.0, 0.0, 0.0, 0.0, 0.0, 0.0, 0.0, 1.7307466725564349E9, 0.0, 2024-11-04 15:57:52.556
131.0, -167585.2438909106, -167642.24083927166, -165948.24683049283, -167807.33082381854, -165604.2311315812, -164816.22038080936, -161595.31165305516, -157754.32083062181, -0.062, 0.896, 0.448, 192.0, 0.0, 0.0, 0.0, 0.0, 0.0, 0.0, 0.0, 0.0, 0.0, 1.730746672560439E9, 0.0, 2024-11-04 15:57:52.560
132.0, -167587.14378918931, -167644.073682317, -165778.57473833262, -167808.38135580794, -165440.41519646827, -164892.8198090577, -161681.58938665266, -157532.27860120282, -0.062, 0.9, 0.446, 192.0, 254.0, 16.0, 28.0, 32.0, 13.0, 240.0, 0.0, 0.0, 0.0, 1.73074667256351E9, 0.0, 2024-11-04 15:57:52.563
133.0, -167588.88722525683, -167645.75006315115, -164777.70832511288, -167808.58252150804, -164595.47455256875, -165541.31097093952, -162271.4519228282, -157377.13514293852, -0.062, 0.9, 0.446, 192.0, 0.0, 0.0, 0.0, 0.0, 0.0, 0.0, 0.0, 0.0, 0.0, 1.730746672568509E9, 0.0, 2024-11-04 15:57:52.568
134.0, -167592.64231832532, -167649.6169149419, -164769.37112443105, -167813.03051865465, -164609.24322715323, -165625.62175102494, -162308.04172850153, -157593.45532577697, -0.062, 0.9, 0.446, 192.0, 0.0, 0.0, 0.0, 0.0, 0.0, 0.0, 0.0, 0.0, 0.0, 1.73074667257254E9, 0.0, 2024-11-04 15:57:52.572
135.0, -167592.73172530317, -167649.9074876198, -165857.40934102648, -167814.8186582111, -165534.65015109183, -164888.05888748873, -161663.17154922147, -157775.3985256432, -0.062, 0.9, 0.446, 192.0, 0.0, 0.0, 0.0, 0.0, 0.0, 0.0, 0.0, 0.0, 0.0, 1.7307466725764208E9, 0.0, 2024-11-04 15:57:52.576
136.0, -167595.4139346378, -167652.5226417211, -165932.69001635196, -167816.9197221899, -165575.68795391178, -164804.68688067043, -161611.0472811517, -157572.37763075563, -0.062, 0.9, 0.446, 192.0, 0.0, 0.0, 0.0, 0.0, 0.0, 0.0, 0.0, 0.0, 0.0, 1.7307466725805304E9, 0.0, 2024-11-04 15:57:52.580
137.0, -167600.1078009734, -167656.99299061217, -164969.4862925394, -167819.9595594358, -164758.39641790348, -165421.03623402552, -162160.2296424186, -157373.26829114775, -0.062, 0.9, 0.446, 192.0, 0.0, 0.0, 0.0, 0.0, 0.0, 0.0, 0.0, 0.0, 0.0, 1.7307466725844195E9, 0.0, 2024-11-04 15:57:52.584
138.0, -167601.806533552, -167658.73642667968, -164660.5181289337, -167821.83710597004, -164515.92469405232, -165696.92381583736, -162362.75879892812, -157524.38843541007, -0.062, 0.9, 0.446, 192.0, 0.0, 0.0, 0.0, 0.0, 0.0, 0.0, 0.0, 0.0, 0.0, 1.730746672588559E9, 0.0, 2024-11-04 15:57:52.588
139.0, -167599.34784166192, -167656.54595572306, -165721.9577696273, -167821.30066410312, -165424.81367883846, -164997.4930283419, -161691.89354084653, -157772.15752269718, -0.062, 0.9, 0.446, 192.0, 0.0, 0.0, 0.0, 0.0, 0.0, 0.0, 0.0, 0.0, 0.0, 1.7307466725913851E9, 0.0, 2024-11-04 15:57:52.591
140.0, -167599.54900736202, -167656.6130109564, -166043.80053803927, -167821.1665536364, -165674.0132777707, -164751.3332666556, -161142.2417929461, -157609.81680271827, -0.062, 0.9, 0.446, 192.0, 0.0, 0.0, 0.0, 0.0, 0.0, 0.0, 0.0, 0.0, 0.0, 1.7307466725964162E9, 0.0, 2024-11-04 15:57:52.596
141.0, -167600.4207253958, -167657.30591503452, -165162.87358556673, -167820.38424258045, -164919.5748471707, -165309.74689838255, -161593.45645826537, -157374.22941615933, -0.062, 0.9, 0.446, 192.0, 0.0, 0.0, 0.0, 0.0, 0.0, 0.0, 0.0, 0.0, 0.0, 1.7307466726003747E9, 0.0, 2024-11-04 15:57:52.600
142.0, -167601.49360912963, -167658.35644702392, -164576.02853489263, -167821.18890538084, -164438.58765823694, -165776.67484005392, -162354.39924650185, -157467.70441147144, -0.06, 0.898, 0.446, 192.0, 254.0, 32.0, 28.0, 16.0, 13.0, 240.0, 0.0, 0.0, 0.0, 1.7307466726046407E9, 0.0, 2024-11-04 15:57:52.604
143.0, -167602.54414111903, -167659.4740342467, -165523.29546490856, -167824.07228041557, -165257.42146461268, -165172.17191126014, -161913.4216801431, -157769.4306098736, -0.06, 0.898, 0.446, 192.0, 0.0, 0.0, 0.0, 0.0, 0.0, 0.0, 0.0, 0.0, 0.0, 1.730746672608454E9, 0.0, 2024-11-04 15:57:52.608
144.0, -167604.93577777574, -167661.8209674145, -166087.7440676384, -167826.82154498357, -165717.33095852507, -164753.8366620346, -161564.0862660511, -157683.4658006985, -0.06, 0.898, 0.446, 192.0, 0.0, 0.0, 0.0, 0.0, 0.0, 0.0, 0.0, 0.0, 0.0, 1.7307466726125507E9, 0.0, 2024-11-04 15:57:52.612
145.0, -167607.32741443245, -167664.14554883787, -165367.39204733277, -167827.76031825072, -165096.60066325674, -165188.4439812236, -161964.6295266902, -157437.52955645675, -0.06, 0.898, 0.446, 192.0, 0.0, 0.0, 0.0, 0.0, 0.0, 0.0, 0.0, 0.0, 0.0, 1.7307466726164057E9, 0.0, 2024-11-04 15:57:52.616
146.0, -167607.48387664364, -167664.3690662824, -164582.93522392932, -167827.15682115042, -164444.77909145108, -165744.60008676053, -162444.34266619, -157444.2127280489, -0.06, 0.898, 0.446, 192.0, 0.0, 0.0, 0.0, 0.0, 0.0, 0.0, 0.0, 0.0, 0.0, 1.7307466726194503E9, 0.0, 2024-11-04 15:57:52.619
