%OpenBCI Raw EXG Data
%Number of channels = 8
%Sample Rate = 250 Hz
%Board = OpenBCI_GUI$BoardCytonSerial
Sample Index, EXG Channel 0, EXG Channel 1, EXG Channel 2, EXG Channel 3, EXG Channel 4, EXG Channel 5, EXG Channel 6, EXG Channel 7, Accel Channel 0, Accel Channel 1, Accel Channel 2, Not Used, Digital Channel 0 (D11), Digital Channel 1 (D12), Digital Channel 2 (D13), Digital Channel 3 (D17), Not Used, Digital Channel 4 (D18), Analog Channel 0, Analog Channel 1, Analog Channel 2, Timestamp, Marker Channel, Timestamp (Formatted)
91.0, -155143.72648521978, -155201.55044812566, -155327.30136243123, -86975.30919019094, 179268.09838629942, -53576.7961832042, -145366.49231511264, -72171.05593336296, 0.0, 0.0, 0.0, 192.0, 0.0, 0.0, 0.0, 0.0, 0.0, 0.0, 0.0, 0.0, 0.0, 1.7307453554493449E9, 0.0, 2024-11-04 15:35:55.449
92.0, -155141.58071775208, -155199.33762542458, -155325.08853973015, -86979.28780070398, 179261.97400831868, -53709.252620846346, -145724.20963337537, -72378.97186028623, 0.0, 0.0, 0.0, 192.0, 0.0, 0.0, 0.0, 0.0, 0.0, 0.0, 0.0, 0.0, 0.0, 1.7307453554493775E9, 0.0, 2024-11-04 15:35:55.449
93.0, -155138.5185287617, -155196.25308468976, -155321.9145920175, -87220.4854751212, 179276.9720288482, -53857.109410418205, -145765.87328504006, -72436.95228540328, 0.0, 0.0, 0.0, 192.0, 0.0, 0.0, 0.0, 0.0, 0.0, 0.0, 0.0, 0.0, 0.0, 1.7307453554493966E9, 0.0, 2024-11-04 15:35:55.449
94.0, -155135.25517407124, -155192.98972999927, -155318.62888558256, -87583.83543298667, 179292.79706392254, -54000.853479010286, -145730.31165961167, -72472.44685559832, 0.514, 0.15, 0.932, 192.0, 16.0, 16.0, 4.0, 176.0, 29.0, 32.0, 0.0, 0.0, 0.0, 1.730745355449427E9, 0.0, 2024-11-04 15:35:55.449
0.0, -12375.535056058772, 29815.2377981231, -87954.06972814439, -82499.61823220471, -12712.08527232233, 187500.0, -47091.16930856339, 94971.0646237212, 0.02, 0.486, 0.17, 192.0, 0.0, 160.0, 15.0, 48.0, 5.0, 80.0, 0.0, 0.0, 0.0, 1.730745355555925E9, 0.0, 2024-11-04 15:35:55.555
1.0, -12105.72714873876, 30060.034103397622, -88019.40387718724, -82598.502349675, -12780.749831289033, 187500.0, -47379.01507365883, 94581.38431088738, 0.02, 0.486, 0.17, 192.0, 0.0, 0.0, 0.0, 0.0, 0.0, 0.0, 0.0, 0.0, 0.0, 1.7307453555588024E9, 0.0, 2024-11-04 15:35:55.558
2.0, -11372.969910260428, 30176.39728503195, -88138.98571002313, -82920.30041459804, -12507.119775667165, 187500.0, -47619.586899231304, 94153.61662550172, 0.02, 0.486, 0.17, 192.0, 0.0, 0.0, 0.0, 0.0, 0.0, 0.0, 0.0, 0.0, 0.0, 1.730745355564104E9, 0.0, 2024-11-04 15:35:55.564
3.0, -11818.462528999155, 30042.487984000207, -88456.40283303295, -83177.54664153417, -12646.59466106828, 187500.0, -47662.658710796684, 94191.18990793108, 0.02, 0.486, 0.17, 192.0, 0.0, 0.0, 0.0, 0.0, 0.0, 0.0, 0.0, 0.0, 0.0, 1.7307453555669875E9, 0.0, 2024-11-04 15:35:55.566
4.0, -12890.273379120039, 29993.805884576548, -88758.41960411306, -83218.4950373763, -13156.259138138192, 187500.0, -47722.1143510478, 94335.78334281247, 0.02, 0.486, 0.17, 192.0, 0.0, 0.0, 0.0, 0.0, 0.0, 0.0, 0.0, 0.0, 0.0, 1.7307453555709584E9, 0.0, 2024-11-04 15:35:55.570
5.0, -12866.35701255286, 30210.12606741501, -88846.10549761124, -83279.62705846156, -13331.720332112352, 187500.0, -47981.61810417391, 94030.97260367544, 0.02, 0.486, 0.17, 192.0, 0.0, 0.0, 0.0, 0.0, 0.0, 0.0, 0.0, 0.0, 0.0, 1.7307453555748897E9, 0.0, 2024-11-04 15:35:55.574
6.0, -12055.614537669962, 30393.58918590417, -88935.73599287702, -83574.73714050498, -13084.845314603486, 187500.0, -48262.490124999305, 93554.92515026631, 0.02, 0.486, 0.17, 192.0, 0.0, 0.0, 0.0, 0.0, 0.0, 0.0, 0.0, 0.0, 0.0, 1.7307453555788336E9, 0.0, 2024-11-04 15:35:55.578
7.0, -12259.730668035827, 30282.18809153892, -89225.28049055106, -83866.78503355802, -13104.693663679798, 187500.0, -48329.43359964295, 93507.24887934314, 0.036000000000000004, 0.716, 0.254, 192.0, 1.0, 32.0, 22.0, 96.0, 7.0, 240.0, 0.0, 0.0, 0.0, 1.7307453555829573E9, 0.0, 2024-11-04 15:35:55.582
8.0, -13363.817437150174, 30188.69074448237, -89553.73937532179, -83936.2095518362, -13593.906294573104, 187500.0, -48354.78047785527, 93696.94813453534, 0.036000000000000004, 0.716, 0.254, 192.0, 0.0, 0.0, 0.0, 0.0, 0.0, 0.0, 0.0, 0.0, 0.0, 1.7307453555870636E9, 0.0, 2024-11-04 15:35:55.587
9.0, -13591.268788727379, 30371.907993782523, -89669.78963253375, -83963.50103181614, -13886.691795193172, 187500.0, -48583.05884397732, 93484.80772791001, 0.036000000000000004, 0.716, 0.254, 192.0, 0.0, 0.0, 0.0, 0.0, 0.0, 0.0, 0.0, 0.0, 0.0, 1.730745355590001E9, 0.0, 2024-11-04 15:35:55.590
10.0, -12780.52631384448, 30596.766543002912, -89736.1296100771, -84225.41877334342, -13658.07815290429, 187500.0, -48885.097966801884, 92978.31719855276, 0.036000000000000004, 0.716, 0.254, 192.0, 0.0, 0.0, 0.0, 0.0, 0.0, 0.0, 0.0, 0.0, 0.0, 1.7307453555949368E9, 0.0, 2024-11-04 15:35:55.594
11.0, -12724.89282189522, 30528.392556714127, -89989.0395985889, -84545.04871905432, -13584.07152701277, 187500.0, -48991.33580819795, 92833.25437703781, 0.036000000000000004, 0.716, 0.254, 192.0, 0.0, 0.0, 0.0, 0.0, 0.0, 0.0, 0.0, 0.0, 0.0, 1.7307453555988355E9, 0.0, 2024-11-04 15:35:55.598
12.0, -13795.653140026707, 30396.69607838346, -90339.00086152564, -84657.72386285351, -14044.986849425657, 187500.0, -49004.27746823758, 93033.16837944608, 0.036000000000000004, 0.716, 0.254, 192.0, 0.0, 0.0, 0.0, 0.0, 0.0, 0.0, 0.0, 0.0, 0.0, 1.7307453556029267E9, 0.0, 2024-11-04 15:35:55.602
13.0, -14284.239922075263, 30522.491696177924, -90495.37366573498, -84670.77728161542, -14408.336807291129, 187500.0, -49192.25563910671, 92911.88781403158, 0.036000000000000004, 0.716, 0.254, 192.0, 0.0, 0.0, 0.0, 0.0, 0.0, 0.0, 0.0, 0.0, 0.0, 1.7307453556070087E9, 0.0, 2024-11-04 15:35:55.607
14.0, -13540.10564566918, 30784.118865027296, -90546.84973321554, -84887.70096155418, -14244.207947755809, 187500.0, -49510.72329410593, 92404.14558698483, 0.036000000000000004, 0.716, 0.254, 192.0, 0.0, 0.0, 0.0, 0.0, 0.0, 0.0, 0.0, 0.0, 0.0, 1.7307453556099508E9, 0.0, 2024-11-04 15:35:55.609
15.0, -13235.563127465623, 30776.027533534474, -90758.49840146284, -85219.11027659301, -14103.570771643017, 187500.0, -49659.80942962282, 92168.96053182609, 0.036000000000000004, 0.716, 0.254, 192.0, 0.0, 0.0, 0.0, 0.0, 0.0, 0.0, 0.0, 0.0, 0.0, 1.7307453556139789E9, 0.0, 2024-11-04 15:35:55.613
16.0, -14211.775566551158, 30606.377793118692, -91113.66762085768, -85376.77948198075, -14463.72443005138, 187500.0, -49651.092249285255, 92361.47610681965, 0.036000000000000004, 0.716, 0.254, 192.0, 0.0, 0.0, 0.0, 0.0, 0.0, 0.0, 0.0, 0.0, 0.0, 1.7307453556179678E9, 0.0, 2024-11-04 15:35:55.617
17.0, -14927.925458899195, 30678.350410264782, -91311.77113196507, -85380.89220296052, -14897.750603884531, 187500.0, -49795.57392544436, 92340.33135656493, 0.042, 0.836, 0.3, 192.0, 1.0, 80.0, 26.0, 32.0, 9.0, 96.0, 0.0, 0.0, 0.0, 1.7307453556220653E9, 0.0, 2024-11-04 15:35:55.622
18.0, -14314.772405001213, 30959.13302411235, -91357.77102205409, -85546.9880160079, -14839.703123534098, 187500.0, -50119.22718515721, 91866.5861328347, 0.042, 0.836, 0.3, 192.0, 0.0, 0.0, 0.0, 0.0, 0.0, 0.0, 0.0, 0.0, 0.0, 1.7307453556270387E9, 0.0, 2024-11-04 15:35:55.627
19.0, -13807.343102376832, 30997.578024575476, -91532.94164335032, -85885.05815089443, -14617.415024926071, 187500.0, -50305.52897519219, 91542.82111439957, 0.042, 0.836, 0.3, 192.0, 0.0, 0.0, 0.0, 0.0, 0.0, 0.0, 0.0, 0.0, 0.0, 1.730745355630866E9, 0.0, 2024-11-04 15:35:55.630
20.0, -14621.103062761196, 30827.972987648605, -91885.45100515497, -86084.92744981378, -14898.309397495914, 187500.0, -50308.88173686049, 91687.16868009194, 0.042, 0.836, 0.3, 192.0, 0.0, 0.0, 0.0, 0.0, 0.0, 0.0, 0.0, 0.0, 0.0, 1.7307453556350558E9, 0.0, 2024-11-04 15:35:55.635
21.0, -15505.852163535616, 30868.720217790633, -92123.0947522038, -86090.18010976078, -15411.170174022935, 187500.0, -50425.468435939365, 91747.63014884356, 0.042, 0.836, 0.3, 192.0, 0.0, 0.0, 0.0, 0.0, 0.0, 0.0, 0.0, 0.0, 0.0, 1.7307453556380591E9, 0.0, 2024-11-04 15:35:55.638
22.0, -15099.720966782686, 31114.991738199205, -92178.4600232196, -86220.78135261314, -15413.964142079849, 187500.0, -50723.75246569544, 91328.26671937307, 0.042, 0.836, 0.3, 192.0, 0.0, 0.0, 0.0, 0.0, 0.0, 0.0, 0.0, 0.0, 0.0, 1.7307453556420724E9, 0.0, 2024-11-04 15:35:55.642
23.0, -14445.127778664564, 31182.292840754133, -92319.83480689941, -86559.67850204451, -15135.081426510982, 187500.0, -50935.46818917611, 90935.4124588266, 0.042, 0.836, 0.3, 192.0, 0.0, 0.0, 0.0, 0.0, 0.0, 0.0, 0.0, 0.0, 0.0, 1.7307453556459503E9, 0.0, 2024-11-04 15:35:55.645
24.0, -15023.166242023259, 31060.520536961623, -92648.18193294787, -86788.11333037775, -15358.554167575143, 187500.0, -50970.7839454155, 91014.5376341984, 0.042, 0.836, 0.3, 192.0, 0.0, 0.0, 0.0, 0.0, 0.0, 0.0, 0.0, 0.0, 0.0, 1.7307453556499777E9, 0.0, 2024-11-04 15:35:55.649
25.0, -16043.36691419684, 31044.80726060954, -92924.22597697092, -86809.97333645503, -15875.95234822659, 187500.0, -51047.78570506402, 91137.42752521367, 0.042, 0.836, 0.3, 192.0, 0.0, 0.0, 0.0, 0.0, 0.0, 0.0, 0.0, 0.0, 0.0, 1.7307453556550255E9, 0.0, 2024-11-04 15:35:55.655
26.0, -15868.844493489802, 31267.698856317864, -92995.28217259434, -86897.12278808627, -15975.238797097063, 187500.0, -51321.54987115263, 90786.59454424317, 0.042, 0.836, 0.3, 192.0, 0.0, 0.0, 0.0, 0.0, 0.0, 0.0, 0.0, 0.0, 0.0, 1.7307453556595433E9, 0.0, 2024-11-04 15:35:55.659
27.0, -15082.443068318735, 31426.93268381747, -93097.96608662202, -87205.80037901406, -15725.703921998016, 187500.0, -51586.1274702701, 90331.96006202222, 0.046, 0.894, 0.324, 192.0, 1.0, 112.0, 27.0, 240.0, 10.0, 32.0, 0.0, 0.0, 0.0, 1.7307453556631956E9, 0.0, 2024-11-04 15:35:55.663
28.0, -15455.024296644247, 31278.539452378685, -93407.76126477258, -87485.86773703907, -15805.991388081478, 187500.0, -51625.71240970045, 90338.26325395862, 0.046, 0.894, 0.324, 192.0, 0.0, 0.0, 0.0, 0.0, 0.0, 0.0, 0.0, 0.0, 0.0, 1.730745355666102E9, 0.0, 2024-11-04 15:35:55.666
29.0, -16556.831187824155, 31197.69319268384, -93721.73621913628, -87543.37877552256, -16303.60827488998, 187500.0, -51662.05634618478, 90512.02571535418, 0.046, 0.894, 0.324, 192.0, 0.0, 0.0, 0.0, 0.0, 0.0, 0.0, 0.0, 0.0, 0.0, 1.7307453556701045E9, 0.0, 2024-11-04 15:35:55.670
30.0, -16613.71637746291, 31418.0143377798, -93816.14998771549, -87588.84222374466, -16542.682533583946, 187500.0, -51918.78848299843, 90246.44228773622, 0.046, 0.894, 0.324, 192.0, 0.0, 0.0, 0.0, 0.0, 0.0, 0.0, 0.0, 0.0, 0.0, 1.7307453556739032E9, 0.0, 2024-11-04 15:35:55.673
31.0, -15797.810649610836, 31613.212122107998, -93894.3140380757, -87873.15641321617, -16285.168085714351, 187500.0, -52202.74504455865, 89758.79427895478, 0.046, 0.894, 0.324, 192.0, 0.0, 0.0, 0.0, 0.0, 0.0, 0.0, 0.0, 0.0, 0.0, 1.730745355677982E9, 0.0, 2024-11-04 15:35:55.677
32.0, -15914.48675566754, 31495.418428828532, -94170.6263030322, -88182.81748089999, -16246.298402106573, 187500.0, -52269.129725590916, 89679.8702692831, 0.046, 0.894, 0.324, 192.0, 0.0, 0.0, 0.0, 0.0, 0.0, 0.0, 0.0, 0.0, 0.0, 1.7307453556829448E9, 0.0, 2024-11-04 15:35:55.682
33.0, -17012.672664245685, 31382.899747240517, -94507.46709197368, -88269.76576683114, -16739.087312112726, 187500.0, -52286.72054847724, 89883.74053045995, 0.046, 0.894, 0.324, 192.0, 0.0, 0.0, 0.0, 0.0, 0.0, 0.0, 0.0, 0.0, 0.0, 1.7307453556870408E9, 0.0, 2024-11-04 15:35:55.687
34.0, -17338.248173981687, 31549.37553994364, -94636.77193364763, -88287.91538332884, -17060.66185959123, 187500.0, -52502.43723421541, 89709.59808940865, 0.046, 0.894, 0.324, 192.0, 0.0, 0.0, 0.0, 0.0, 0.0, 0.0, 0.0, 0.0, 0.0, 1.7307453556901276E9, 0.0, 2024-11-04 15:35:55.690
35.0, -16558.216995980383, 31772.58006007434, -94698.21687915527, -88536.69029911641, -16838.753740638942, 187500.0, -52803.224659350475, 89206.14739729732, 0.046, 0.894, 0.324, 192.0, 0.0, 0.0, 0.0, 0.0, 0.0, 0.0, 0.0, 0.0, 0.0, 1.7307453556939464E9, 0.0, 2024-11-04 15:35:55.693
36.0, -16417.937447778877, 31705.79304764188, -94938.54283553873, -88867.45141356604, -16737.96972488996, 187500.0, -52915.89980314968, 89033.48017138007, 0.046, 0.894, 0.324, 192.0, 0.0, 0.0, 0.0, 0.0, 0.0, 0.0, 0.0, 0.0, 0.0, 1.7307453556980915E9, 0.0, 2024-11-04 15:35:55.698
37.0, -17450.476282891785, 31565.66996165156, -95288.92878162012, -88996.06335116188, -17166.74323877612, 187500.0, -52922.87354741974, 89230.39904003132, 0.042, 0.926, 0.334, 192.0, 1.0, 80.0, 28.0, 240.0, 10.0, 112.0, 0.0, 0.0, 0.0, 1.7307453557021396E9, 0.0, 2024-11-04 15:35:55.702
38.0, -18019.752862424, 31680.446169429564, -95457.84091446888, -89001.04779017542, -17561.698563301394, 187500.0, -53099.6311425723, 89146.22237041264, 0.042, 0.926, 0.334, 192.0, 0.0, 0.0, 0.0, 0.0, 0.0, 0.0, 0.0, 0.0, 0.0, 1.7307453557062576E9, 0.0, 2024-11-04 15:35:55.706
39.0, -17326.938191287303, 31935.904256809266, -95506.03127551453, -89202.36995248437, -17432.840756516547, 187500.0, -53412.71202715779, 88659.98252153189, 0.042, 0.926, 0.334, 192.0, 0.0, 0.0, 0.0, 0.0, 0.0, 0.0, 0.0, 0.0, 0.0, 1.7307453557111976E9, 0.0, 2024-11-04 15:35:55.711
40.0, -16958.514387430478, 31918.089916478388, -95705.18531861131, -89544.2398839283, -17237.03947508806, 187500.0, -53559.11595334005, 88398.6682771049, 0.042, 0.926, 0.334, 192.0, 0.0, 0.0, 0.0, 0.0, 0.0, 0.0, 0.0, 0.0, 0.0, 1.7307453557150724E9, 0.0, 2024-11-04 15:35:55.715
41.0, -17877.238139776964, 31740.99704515899, -96059.25930252783, -89720.81866512522, -17565.0960284586, 187500.0, -53550.84580789159, 88572.49779373381, 0.042, 0.926, 0.334, 192.0, 0.0, 0.0, 0.0, 0.0, 0.0, 0.0, 0.0, 0.0, 0.0, 1.7307453557181363E9, 0.0, 2024-11-04 15:35:55.718
42.0, -18650.899070608506, 31806.53235990195, -96267.30933991783, -89720.75160989186, -18044.362133069295, 187500.0, -53686.14091707956, 88583.42779677246, 0.042, 0.926, 0.334, 192.0, 0.0, 0.0, 0.0, 0.0, 0.0, 0.0, 0.0, 0.0, 0.0, 1.7307453557221344E9, 0.0, 2024-11-04 15:35:55.722
43.0, -18118.324055471905, 32068.58421189597, -96316.23730853049, -89876.09623385624, -18001.357376737284, 187500.0, -53997.38895861971, 88132.01196575307, 0.042, 0.926, 0.334, 192.0, 0.0, 0.0, 0.0, 0.0, 0.0, 0.0, 0.0, 0.0, 0.0, 1.7307453557263198E9, 0.0, 2024-11-04 15:35:55.726
44.0, -17580.47402864385, 32087.851415616446, -96484.05420590095, -90224.91755782576, -17740.17724277702, 187500.0, -54179.44391720819, 87789.9185168646, 0.042, 0.926, 0.334, 192.0, 0.0, 0.0, 0.0, 0.0, 0.0, 0.0, 0.0, 0.0, 0.0, 1.7307453557301865E9, 0.0, 2024-11-04 15:35:55.730
45.0, -18325.547078317057, 31898.509788335537, -96828.98632633523, -90446.53510410013, -17988.259254486475, 187500.0, -54177.11933578484, 87923.04550684041, 0.042, 0.926, 0.334, 192.0, 0.0, 0.0, 0.0, 0.0, 0.0, 0.0, 0.0, 0.0, 0.0, 1.7307453557341015E9, 0.0, 2024-11-04 15:35:55.734
46.0, -19260.699362838193, 31909.529198352004, -97078.85647760112, -90458.31447342808, -18500.76240310221, 187500.0, -54274.93056952126, 88007.71391483712, 0.042, 0.926, 0.334, 192.0, 0.0, 0.0, 0.0, 0.0, 0.0, 0.0, 0.0, 0.0, 0.0, 1.7307453557391489E9, 0.0, 2024-11-04 15:35:55.739
47.0, -18943.483405528477, 32148.379939601415, -97140.05555391975, -90571.59311432757, -18542.180185577894, 187500.0, -54562.66457589443, 87613.98793625689, 0.04, 0.9400000000000001, 0.334, 192.0, 1.0, 64.0, 29.0, 96.0, 10.0, 112.0, 0.0, 0.0, 0.0, 1.7307453557429905E9, 0.0, 2024-11-04 15:35:55.742
48.0, -18262.7610281421, 32213.557626433092, -97272.60139853971, -90911.85372017071, -18257.441312961735, 187500.0, -54774.71557554193, 87213.35526863996, 0.04, 0.9400000000000001, 0.334, 192.0, 0.0, 0.0, 0.0, 0.0, 0.0, 0.0, 0.0, 0.0, 0.0, 1.7307453557464664E9, 0.0, 2024-11-04 15:35:55.746
49.0, -18793.346738022177, 32030.63094981086, -97600.32267574343, -91175.96193265462, -18396.960901851762, 187500.0, -54786.04790998076, 87279.49408048321, 0.04, 0.9400000000000001, 0.334, 192.0, 0.0, 0.0, 0.0, 0.0, 0.0, 0.0, 0.0, 0.0, 0.0, 1.7307453557500896E9, 0.0, 2024-11-04 15:35:55.750
50.0, -19848.460835034948, 31984.47459751065, -97889.5542489951, -91210.33891562688, -18911.565114446297, 187500.0, -54843.71541067546, 87423.97575664232, 0.04, 0.9400000000000001, 0.334, 192.0, 0.0, 0.0, 0.0, 0.0, 0.0, 0.0, 0.0, 0.0, 0.0, 1.7307453557541344E9, 0.0, 2024-11-04 15:35:55.754
51.0, -19773.42602889848, 32191.965841289264, -97971.69690986836, -91283.45147174019, -19061.72413369705, 187500.0, -55102.99564635702, 87111.99010753514, 0.04, 0.9400000000000001, 0.334, 192.0, 0.0, 0.0, 0.0, 0.0, 0.0, 0.0, 0.0, 0.0, 0.0, 1.7307453557582135E9, 0.0, 2024-11-04 15:35:55.758
52.0, -19022.85445008927, 32296.214377428816, -98078.0465099867, -91607.10473145303, -18768.33513597669, 187500.0, -55339.70062013872, 86664.99992191792, 0.04, 0.9400000000000001, 0.334, 192.0, 0.0, 0.0, 0.0, 0.0, 0.0, 0.0, 0.0, 0.0, 0.0, 1.7307453557621155E9, 0.0, 2024-11-04 15:35:55.762
53.0, -19298.2055900342, 32148.536401812602, -98380.10798455573, -91903.31004897476, -18851.371866628157, 187500.0, -55385.70051022775, 86663.2564858504, 0.04, 0.9400000000000001, 0.334, 192.0, 0.0, 0.0, 0.0, 0.0, 0.0, 0.0, 0.0, 0.0, 0.0, 1.7307453557672043E9, 0.0, 2024-11-04 15:35:55.767
54.0, -20397.28556839056, 32057.520098390592, -98698.79915699949, -91970.52174455188, -19347.73705574716, 187500.0, -55413.5284320746, 86845.87023805025, 0.04, 0.9400000000000001, 0.334, 192.0, 0.0, 0.0, 0.0, 0.0, 0.0, 0.0, 0.0, 0.0, 0.0, 1.7307453557710617E9, 0.0, 2024-11-04 15:35:55.771
55.0, -20577.73120137825, 32229.89675162992, -98809.64145775336, -92013.10181773924, -19586.20781734083, 187500.0, -55639.05753362865, 86618.21772077295, 0.04, 0.9400000000000001, 0.334, 192.0, 0.0, 0.0, 0.0, 0.0, 0.0, 0.0, 0.0, 0.0, 0.0, 1.730745355774187E9, 0.0, 2024-11-04 15:35:55.774
56.0, -19817.25779977534, 32366.39885501848, -98893.12522329393, -92306.46846371514, -19303.480601725652, 187500.0, -55893.643902974596, 86147.95936917776, 0.04, 0.9400000000000001, 0.334, 192.0, 0.0, 0.0, 0.0, 0.0, 0.0, 0.0, 0.0, 0.0, 0.0, 1.730745355778131E9, 0.0, 2024-11-04 15:35:55.778
57.0, -19867.012782932852, 32215.77044913417, -99170.1080405841, -92644.09156371256, -19232.066778190947, 187500.0, -55951.7584385584, 86053.45619362072, 0.042, 0.9420000000000001, 0.336, 192.0, 1.0, 80.0, 29.0, 112.0, 10.0, 128.0, 0.0, 0.0, 0.0, 1.730745355782328E9, 0.0, 2024-11-04 15:35:55.782
58.0, -20935.71674057445, 32103.095305334966, -99516.02363777443, -92748.02717542973, -19718.530144516248, 187500.0, -55969.23750272245, 86252.83375416206, 0.042, 0.9420000000000001, 0.336, 192.0, 0.0, 0.0, 0.0, 0.0, 0.0, 0.0, 0.0, 0.0, 0.0, 1.7307453557861829E9, 0.0, 2024-11-04 15:35:55.786
59.0, -21383.645699458804, 32210.115457786975, -99667.18848552568, -92774.35753039808, -20049.87240432172, 187500.0, -56148.520844998464, 86127.86515091243, 0.042, 0.9420000000000001, 0.336, 192.0, 0.0, 0.0, 0.0, 0.0, 0.0, 0.0, 0.0, 0.0, 0.0, 1.730745355790193E9, 0.0, 2024-11-04 15:35:55.790
60.0, -20686.13716198649, 32364.476604995325, -99740.16693117225, -93031.58140558975, -19834.714512194936, 187500.0, -56413.94781040523, 85659.28318015137, 0.042, 0.9420000000000001, 0.336, 192.0, 0.0, 0.0, 0.0, 0.0, 0.0, 0.0, 0.0, 0.0, 0.0, 1.7307453557941263E9, 0.0, 2024-11-04 15:35:55.794
61.0, -20474.063810594536, 32282.222185399794, -99976.26840785365, -93381.27444759304, -19686.388335989515, 187500.0, -56520.878555879426, 85464.86770687911, 0.042, 0.9420000000000001, 0.336, 192.0, 0.0, 0.0, 0.0, 0.0, 0.0, 0.0, 0.0, 0.0, 0.0, 1.7307453557991297E9, 0.0, 2024-11-04 15:35:55.799
62.0, -21453.874880537376, 32134.320692339028, -100328.57660395821, -93529.01947844261, -20082.21537854855, 187500.0, -56521.86203263546, 85652.60000855924, 0.042, 0.9420000000000001, 0.336, 192.0, 0.0, 0.0, 0.0, 0.0, 0.0, 0.0, 0.0, 0.0, 0.0, 1.7307453558022103E9, 0.0, 2024-11-04 15:35:55.802
63.0, -22086.47395211148, 32244.179516336862, -100508.79871950136, -93528.37127785341, -20529.20556416578, 187500.0, -56689.54481953917, 85603.69439169102, 0.042, 0.9420000000000001, 0.336, 192.0, 0.0, 0.0, 0.0, 0.0, 0.0, 0.0, 0.0, 0.0, 0.0, 1.7307453558061464E9, 0.0, 2024-11-04 15:35:55.806
64.0, -21442.654304820815, 32507.23719683137, -100556.65380438016, -93712.46024518732, -20434.322408953, 187500.0, -57000.34582619022, 85131.78201100613, 0.042, 0.9420000000000001, 0.336, 192.0, 0.0, 0.0, 0.0, 0.0, 0.0, 0.0, 0.0, 0.0, 0.0, 1.7307453558102336E9, 0.0, 2024-11-04 15:35:55.810
65.0, -21016.607703758207, 32475.09538830464, -100749.86228345183, -94070.1552117056, -20191.314243234905, 187500.0, -57144.71574362704, 84846.77491745651, 0.042, 0.9420000000000001, 0.336, 192.0, 0.0, 0.0, 0.0, 0.0, 0.0, 0.0, 0.0, 0.0, 0.0, 1.730745355814196E9, 0.0, 2024-11-04 15:35:55.814
66.0, -21883.743629901845, 32270.8674992165, -101107.37843601448, -94274.27134207146, -20485.172627588825, 187500.0, -57127.21432771854, 85016.31289915001, 0.042, 0.9420000000000001, 0.336, 192.0, 0.0, 0.0, 0.0, 0.0, 0.0, 0.0, 0.0, 0.0, 0.0, 1.7307453558182323E9, 0.0, 2024-11-04 15:35:55.818
67.0, -22742.631762341472, 32295.566176839613, -101338.65193589353, -94288.53175503395, -20976.70983990548, 187500.0, -57239.48714011755, 85068.90655385335, 0.042, 0.9460000000000001, 0.338, 192.0, 1.0, 80.0, 29.0, 144.0, 10.0, 144.0, 0.0, 0.0, 0.0, 1.730745355823266E9, 0.0, 2024-11-04 15:35:55.823
68.0, -22350.291591917467, 32470.021542313287, -101410.69160827299, -94456.84039078241, -20924.80908928026, 187500.0, -57501.91897176731, 84670.06202579285, 0.042, 0.9460000000000001, 0.338, 192.0, 0.0, 0.0, 0.0, 0.0, 0.0, 0.0, 0.0, 0.0, 0.0, 1.7307453558261569E9, 0.0, 2024-11-04 15:35:55.826
69.0, -21837.69903632391, 32383.207366848874, -101593.14889826166, -94846.09602047158, -20596.618425442986, 187500.0, -57630.10622621849, 84356.55645806271, 0.042, 0.9460000000000001, 0.338, 192.0, 0.0, 0.0, 0.0, 0.0, 0.0, 0.0, 0.0, 0.0, 0.0, 1.730745355829188E9, 0.0, 2024-11-04 15:35:55.829
70.0, -22582.570920297017, 32081.749389380147, -101961.6621090963, -95121.46951216097, -20764.34591583561, 187500.0, -57571.7905249346, 84513.62216635015, 0.042, 0.9460000000000001, 0.338, 192.0, 0.0, 0.0, 0.0, 0.0, 0.0, 0.0, 0.0, 0.0, 0.0, 1.7307453558342755E9, 0.0, 2024-11-04 15:35:55.834
71.0, -23637.97558998771, 31976.495024740107, -102253.10650504906, -95172.00680637441, -21248.842328648847, 187500.0, -57604.55818230608, 84663.11063326725, 0.042, 0.9460000000000001, 0.338, 192.0, 0.0, 0.0, 0.0, 0.0, 0.0, 0.0, 0.0, 0.0, 0.0, 1.7307453558382375E9, 0.0, 2024-11-04 15:35:55.838
72.0, -23478.048858409984, 32101.73184892319, -102346.11211372759, -95306.6984184621, -21301.368928118816, 187500.0, -57828.92499314845, 84346.6099317801, 0.042, 0.9460000000000001, 0.338, 192.0, 0.0, 0.0, 0.0, 0.0, 0.0, 0.0, 0.0, 0.0, 0.0, 1.7307453558422637E9, 0.0, 2024-11-04 15:35:55.842
73.0, -22840.063016422155, 32058.503575146628, -102497.92516206803, -95685.582838724, -20969.311412490777, 187500.0, -57988.65055902607, 83976.26387790011, 0.042, 0.9460000000000001, 0.338, 192.0, 0.0, 0.0, 0.0, 0.0, 0.0, 0.0, 0.0, 0.0, 0.0, 1.7307453558461676E9, 0.0, 2024-11-04 15:35:55.846
74.0, -23370.425208857683, 31742.449908548584, -102853.58611984088, -96014.93579327295, -21010.505677521905, 187500.0, -57935.72162815591, 84065.87202142144, 0.042, 0.9460000000000001, 0.338, 192.0, 0.0, 0.0, 0.0, 0.0, 0.0, 0.0, 0.0, 0.0, 0.0, 1.730745355851215E9, 0.0, 2024-11-04 15:35:55.851
75.0, -24559.917993535757, 31517.054917461268, -103199.2558478422, -96117.50794857836, -21474.371430202893, 187500.0, -57898.97536027138, 84294.21744277686, 0.042, 0.9460000000000001, 0.338, 192.0, 0.0, 0.0, 0.0, 0.0, 0.0, 0.0, 0.0, 0.0, 0.0, 1.7307453558543367E9, 0.0, 2024-11-04 15:35:55.854
76.0, -24700.733983604194, 31539.630179361127, -103337.5907942761, -96237.69327851455, -21623.256400019694, 187500.0, -58060.6008244277, 84085.13922514192, 0.042, 0.9460000000000001, 0.338, 192.0, 0.0, 0.0, 0.0, 0.0, 0.0, 0.0, 0.0, 0.0, 0.0, 1.7307453558572917E9, 0.0, 2024-11-04 15:35:55.857
77.0, -24117.845191698696, 31405.11738122909, -103497.45047062046, -96636.47075134168, -21235.92302035368, 187500.0, -58176.89695082867, 83723.9573864886, 0.042, 0.9460000000000001, 0.34, 192.0, 1.0, 80.0, 29.0, 144.0, 10.0, 160.0, 0.0, 0.0, 0.0, 1.7307453558621268E9, 0.0, 2024-11-04 15:35:55.862
78.0, -24591.948043340213, 30867.736741034598, -103884.11329795282, -97079.28116074577, -21076.443323665062, 187500.0, -58027.38613216712, 83823.19913187018, 0.042, 0.9460000000000001, 0.34, 192.0, 0.0, 0.0, 0.0, 0.0, 0.0, 0.0, 0.0, 0.0, 0.0, 1.7307453558664196E9, 0.0, 2024-11-04 15:35:55.866
79.0, -25854.419273664866, 30504.386783169128, -104284.34363416955, -97251.36724130718, -21508.68135794179, 187500.0, -57920.254220992836, 84118.5550831026, 0.042, 0.9460000000000001, 0.34, 192.0, 0.0, 0.0, 0.0, 0.0, 0.0, 0.0, 0.0, 0.0, 0.0, 1.7307453558702283E9, 0.0, 2024-11-04 15:35:55.870
80.0, -26166.31551579422, 30554.76761517139, -104442.01283955728, -97327.3184689663, -21793.509637535768, 187500.0, -58082.0584991048, 83968.4184155963, 0.042, 0.9460000000000001, 0.34, 192.0, 0.0, 0.0, 0.0, 0.0, 0.0, 0.0, 0.0, 0.0, 0.0, 1.7307453558742416E9, 0.0, 2024-11-04 15:35:55.874
81.0, -25400.12006761075, 30672.382494495214, -104538.41591339302, -97632.4421325257, -21560.35859112246, 187500.0, -58330.051103836435, 83506.34080247174, 0.042, 0.9460000000000001, 0.34, 192.0, 0.0, 0.0, 0.0, 0.0, 0.0, 0.0, 0.0, 0.0, 0.0, 1.7307453558782923E9, 0.0, 2024-11-04 15:35:55.878
82.0, -25338.58571512529, 30505.124390736153, -104817.25392547298, -98001.40237824946, -21468.00118303313, 187500.0, -58388.09858418687, 83391.34107724919, 0.042, 0.9460000000000001, 0.34, 192.0, 0.0, 0.0, 0.0, 0.0, 0.0, 0.0, 0.0, 0.0, 0.0, 1.7307453558821845E9, 0.0, 2024-11-04 15:35:55.882
83.0, -26356.528861108884, 30358.42989187597, -105180.35801414943, -98139.98319387237, -21924.222639110405, 187500.0, -58392.4348226112, 83593.26673665844, 0.042, 0.9460000000000001, 0.34, 192.0, 0.0, 0.0, 0.0, 0.0, 0.0, 0.0, 0.0, 0.0, 0.0, 1.7307453558853116E9, 0.0, 2024-11-04 15:35:55.885
84.0, -26841.762881489147, 30478.861091001167, -105351.88530109946, -98165.39712731805, -22321.70371075913, 187500.0, -58576.143810289366, 83495.14257849962, 0.042, 0.9460000000000001, 0.34, 192.0, 0.0, 0.0, 0.0, 0.0, 0.0, 0.0, 0.0, 0.0, 0.0, 1.7307453558903165E9, 0.0, 2024-11-04 15:35:55.890
85.0, -26177.1784635995, 30627.187267206584, -105435.90550850696, -98425.03499091089, -22144.543784206366, 187500.0, -58836.11695004904, 83050.9016574504, 0.042, 0.9460000000000001, 0.34, 192.0, 0.0, 0.0, 0.0, 0.0, 0.0, 0.0, 0.0, 0.0, 0.0, 1.730745355894353E9, 0.0, 2024-11-04 15:35:55.894
86.0, -25957.796091770662, 30431.318930544727, -105692.59294183171, -98833.42371385382, -21897.489952741857, 187500.0, -58893.2033053879, 82872.9594198417, 0.042, 0.9460000000000001, 0.34, 192.0, 0.0, 0.0, 0.0, 0.0, 0.0, 0.0, 0.0, 0.0, 0.0, 1.7307453558981466E9, 0.0, 2024-11-04 15:35:55.898
87.0, -26901.822018840554, 30220.36316637554, -106069.01867020353, -99029.31440226012, -22247.965305801074, 187500.0, -58867.163523097464, 83072.22522166076, 0.048, 0.9440000000000001, 0.334, 192.0, 1.0, 128.0, 29.0, 128.0, 10.0, 112.0, 0.0, 0.0, 0.0, 1.7307453559021804E9, 0.0, 2024-11-04 15:35:55.902
88.0, -27556.728131381053, 30341.844897490133, -106268.10565806695, -99030.56609994962, -22750.097244989545, 187500.0, -59036.276821646316, 83051.5051545507, 0.048, 0.9440000000000001, 0.334, 192.0, 0.0, 0.0, 0.0, 0.0, 0.0, 0.0, 0.0, 0.0, 0.0, 1.7307453559063177E9, 0.0, 2024-11-04 15:35:55.906
89.0, -26979.740200011754, 30573.967763658497, -106333.05982745408, -99222.14290167605, -22669.094523083513, 187500.0, -59333.64442987972, 82608.73944863552, 0.048, 0.9440000000000001, 0.334, 192.0, 0.0, 0.0, 0.0, 0.0, 0.0, 0.0, 0.0, 0.0, 0.0, 1.730745355910208E9, 0.0, 2024-11-04 15:35:55.910
90.0, -26549.49147099155, 30455.07883490072, -106543.90383290099, -99626.68712457265, -22358.09235073237, 187500.0, -59443.86088178884, 82340.56321866074, 0.048, 0.9440000000000001, 0.334, 192.0, 0.0, 0.0, 0.0, 0.0, 0.0, 0.0, 0.0, 0.0, 0.0, 1.7307453559133492E9, 0.0, 2024-11-04 15:35:55.913
91.0, -27383.770332785887, 30171.234032062774, -106927.61622996525, -99887.06259573252, -22594.23853090269, 187500.0, -59392.18364860817, 82525.6803662396, 0.048, 0.9440000000000001, 0.334, 192.0, 0.0, 0.0, 0.0, 0.0, 0.0, 0.0, 0.0, 0.0, 0.0, 1.7307453559173453E9, 0.0, 2024-11-04 15:35:55.917
92.0, -28300.951814764958, 30140.098052036534, -107194.09372736141, -99932.68250616582, -23079.696068727502, 187500.0, -59473.09696353638, 82613.32155624886, 0.048, 0.9440000000000001, 0.334, 192.0, 0.0, 0.0, 0.0, 0.0, 0.0, 0.0, 0.0, 0.0, 0.0, 1.730745355922353E9, 0.0, 2024-11-04 15:35:55.922
93.0, -28046.857183797027, 30199.196064376363, -107298.40931873434, -100131.65773530696, -23017.625274375114, 187500.0, -59673.502704322666, 82280.83935747616, 0.048, 0.9440000000000001, 0.334, 192.0, 0.0, 0.0, 0.0, 0.0, 0.0, 0.0, 0.0, 0.0, 0.0, 1.7307453559262707E9, 0.0, 2024-11-04 15:35:55.926
94.0, -27593.787323687953, 29949.527078810584, -107512.04729223816, -100586.76160416147, -22615.629150346416, 187500.0, -59727.30335322659, 82013.33367983505, 0.048, 0.9440000000000001, 0.334, 192.0, 0.0, 0.0, 0.0, 0.0, 0.0, 0.0, 0.0, 0.0, 0.0, 1.7307453559302435E9, 0.0, 2024-11-04 15:35:55.930
95.0, -28238.523392501284, 29639.396624493198, -107895.42441313558, -100905.25161090514, -22745.49278563175, 187500.0, -59671.960433955246, 82147.35473958906, 0.048, 0.9440000000000001, 0.334, 192.0, 0.0, 0.0, 0.0, 0.0, 0.0, 0.0, 0.0, 0.0, 0.0, 1.7307453559342651E9, 0.0, 2024-11-04 15:35:55.934
96.0, -29273.297402059725, 29554.482347307487, -108202.91736160725, -100971.54688495958, -23253.704399312068, 187500.0, -59709.55606812907, 82306.6779740665, 0.048, 0.9440000000000001, 0.334, 192.0, 0.0, 0.0, 0.0, 0.0, 0.0, 0.0, 0.0, 0.0, 0.0, 1.7307453559383092E9, 0.0, 2024-11-04 15:35:55.938
97.0, -29244.59776217911, 29587.89820526817, -108328.19888927924, -101128.88081418048, -23321.94427513412, 187500.0, -59886.26895979273, 82055.62318034448, 0.038, 0.9560000000000001, 0.336, 192.0, 1.0, 48.0, 29.0, 224.0, 10.0, 128.0, 0.0, 0.0, 0.0, 1.730745355941325E9, 0.0, 2024-11-04 15:35:55.941
98.0, -28666.067560442396, 29427.882066712627, -108508.86803971148, -101557.09553445525, -22927.659502942504, 187500.0, -59993.35616747811, 81720.34701351488, 0.038, 0.9560000000000001, 0.336, 192.0, 0.0, 0.0, 0.0, 0.0, 0.0, 0.0, 0.0, 0.0, 0.0, 1.7307453559463549E9, 0.0, 2024-11-04 15:35:55.946
99.0, -29143.076138863104, 29033.239666609727, -108885.15965761658, -101943.93717574325, -22893.282519970242, 187500.0, -59911.66054149396, 81809.061087258, 0.038, 0.9560000000000001, 0.336, 192.0, 0.0, 0.0, 0.0, 0.0, 0.0, 0.0, 0.0, 0.0, 0.0, 1.7307453559503703E9, 0.0, 2024-11-04 15:35:55.950
100.0, -30205.588663290582, 28911.95910119523, -109224.41443495924, -102038.59681351148, -23426.997474074065, 187500.0, -59934.21345164937, 82001.66606922938, 0.038, 0.9560000000000001, 0.336, 192.0, 0.0, 0.0, 0.0, 0.0, 0.0, 0.0, 0.0, 0.0, 0.0, 1.7307453559542851E9, 0.0, 2024-11-04 15:35:55.954
101.0, -30301.388240026026, 29062.632210568456, -109346.67847712977, -102120.89593659592, -23667.032857779606, 187500.0, -60158.62496598065, 81774.01355195207, 0.038, 0.9560000000000001, 0.336, 192.0, 0.0, 0.0, 0.0, 0.0, 0.0, 0.0, 0.0, 0.0, 0.0, 1.730745355958275E9, 0.0, 2024-11-04 15:35:55.958
102.0, -29609.579397389818, 29058.072454699573, -109478.73258337172, -102489.02916777482, -23331.779042694456, 187500.0, -60345.30673567137, 81368.01646566587, 0.038, 0.9560000000000001, 0.336, 192.0, 0.0, 0.0, 0.0, 0.0, 0.0, 0.0, 0.0, 0.0, 0.0, 1.7307453559612908E9, 0.0, 2024-11-04 15:35:55.961
103.0, -29750.26127699152, 28795.953547472185, -109795.94854068143, -102874.82027707342, -23254.93374525711, 187500.0, -60348.16775896165, 81335.36056701667, 0.038, 0.9560000000000001, 0.336, 192.0, 0.0, 0.0, 0.0, 0.0, 0.0, 0.0, 0.0, 0.0, 0.0, 1.7307453559653592E9, 0.0, 2024-11-04 15:35:55.965
104.0, -30749.160736699196, 28710.324014463906, -110138.6454866702, -102986.19901969422, -23758.8091205131, 187500.0, -60382.164762278175, 81521.52824658493, 0.038, 0.9560000000000001, 0.336, 192.0, 0.0, 0.0, 0.0, 0.0, 0.0, 0.0, 0.0, 0.0, 0.0, 1.7307453559693215E9, 0.0, 2024-11-04 15:35:55.969
105.0, -31021.94142603176, 28915.91535996382, -110271.526607457, -103015.63626714186, -24113.710118974464, 187500.0, -60619.07090175997, 81346.89406715562, 0.038, 0.9560000000000001, 0.336, 192.0, 0.0, 0.0, 0.0, 0.0, 0.0, 0.0, 0.0, 0.0, 0.0, 1.7307453559733553E9, 0.0, 2024-11-04 15:35:55.973
106.0, -30361.916764011, 28962.854023319964, -110379.64199538733, -103339.75891348827, -23841.19765057536, 187500.0, -60832.731227008255, 80934.77260288867, 0.038, 0.9560000000000001, 0.336, 192.0, 0.0, 0.0, 0.0, 0.0, 0.0, 0.0, 0.0, 0.0, 0.0, 1.7307453559784904E9, 0.0, 2024-11-04 15:35:55.978
107.0, -30329.66319676199, 28663.854737741323, -110677.83661816557, -103773.42745941013, -23611.891104208364, 187500.0, -60834.87699447596, 80838.34717730846, 0.036000000000000004, 0.9580000000000001, 0.34400000000000003, 192.0, 1.0, 32.0, 29.0, 240.0, 10.0, 192.0, 0.0, 0.0, 0.0, 1.730745355982463E9, 0.0, 2024-11-04 15:35:55.982
108.0, -31285.960231537847, 28521.02709067191, -111044.8075586328, -103939.67973466871, -24036.730711070384, 187500.0, -60848.98094522726, 81022.83847604257, 0.036000000000000004, 0.9580000000000001, 0.34400000000000003, 192.0, 0.0, 0.0, 0.0, 0.0, 0.0, 0.0, 0.0, 0.0, 0.0, 1.730745355986662E9, 0.0, 2024-11-04 15:35:55.986
109.0, -31794.730638829547, 28677.8692815148, -111216.49130779401, -103954.81186566495, -24491.879283413804, 187500.0, -61049.05140984672, 80946.64137919444, 0.036000000000000004, 0.9580000000000001, 0.34400000000000003, 192.0, 0.0, 0.0, 0.0, 0.0, 0.0, 0.0, 0.0, 0.0, 0.0, 1.7307453559894269E9, 0.0, 2024-11-04 15:35:55.989
110.0, -31211.998309135237, 28775.12172163984, -111303.28313151398, -104224.82093868506, -24290.199493193566, 187500.0, -61282.13540102666, 80534.31874922739, 0.036000000000000004, 0.9580000000000001, 0.34400000000000003, 192.0, 0.0, 0.0, 0.0, 0.0, 0.0, 0.0, 0.0, 0.0, 0.0, 1.7307453559936316E9, 0.0, 2024-11-04 15:35:55.993
111.0, -30953.50038450961, 28529.856029731756, -111559.36706773844, -104669.06185973428, -23970.614250971586, 187500.0, -61321.832099179286, 80349.06749118179, 0.036000000000000004, 0.9580000000000001, 0.34400000000000003, 192.0, 0.0, 0.0, 0.0, 0.0, 0.0, 0.0, 0.0, 0.0, 0.0, 1.7307453559972281E9, 0.0, 2024-11-04 15:35:55.997
112.0, -31742.62872250423, 28407.122600927665, -111915.20683946692, -104867.47829526405, -24342.30140951889, 187500.0, -61348.8330064813, 80501.61814708926, 0.036000000000000004, 0.9580000000000001, 0.34400000000000003, 192.0, 0.0, 0.0, 0.0, 0.0, 0.0, 0.0, 0.0, 0.0, 0.0, 1.73074535600134E9, 0.0, 2024-11-04 15:35:56.001
113.0, -32333.20651450235, 28658.62442953878, -112094.37842302067, -104839.67272516164, -24912.516762318228, 187500.0, -61583.99570989558, 80450.45500403107, 0.036000000000000004, 0.9580000000000001, 0.34400000000000003, 192.0, 0.0, 0.0, 0.0, 0.0, 0.0, 0.0, 0.0, 0.0, 0.0, 1.7307453560063276E9, 0.0, 2024-11-04 15:35:56.006
114.0, -31845.089119087355, 28864.081664571964, -112161.79128429787, -105034.98226821212, -24826.842525821034, 187500.0, -61861.939652197325, 80038.98174035332, 0.036000000000000004, 0.9580000000000001, 0.34400000000000003, 192.0, 0.0, 0.0, 0.0, 0.0, 0.0, 0.0, 0.0, 0.0, 0.0, 1.730745356010262E9, 0.0, 2024-11-04 15:35:56.010
115.0, -31454.246515541854, 28627.19787683462, -112387.90153120775, -105494.33296851313, -24436.268143209, 187500.0, -61913.72864410027, 79803.2378915832, 0.036000000000000004, 0.9580000000000001, 0.34400000000000003, 192.0, 0.0, 0.0, 0.0, 0.0, 0.0, 0.0, 0.0, 0.0, 0.0, 1.7307453560142517E9, 0.0, 2024-11-04 15:35:56.014
116.0, -32210.271919998162, 28328.623274400627, -112770.25047186023, -105790.40417556814, -24619.39598553133, 187500.0, -61861.29145160812, 79966.47268134031, 0.036000000000000004, 0.9580000000000001, 0.34400000000000003, 192.0, 0.0, 0.0, 0.0, 0.0, 0.0, 0.0, 0.0, 0.0, 0.0, 1.730745356017396E9, 0.0, 2024-11-04 15:35:56.017
117.0, -33066.723712292165, 28389.017687918866, -113019.94180917047, -105818.18739392608, -25155.569631525235, 187500.0, -61988.02584266971, 80037.97591185283, 0.05, 0.9500000000000001, 0.336, 192.0, 1.0, 144.0, 29.0, 176.0, 10.0, 128.0, 0.0, 0.0, 0.0, 1.7307453560215464E9, 0.0, 2024-11-04 15:35:56.021
118.0, -32788.600956034774, 28564.992972015498, -113101.41391771006, -105972.99557602353, -25197.59091110121, 187500.0, -62248.6918865075, 79698.58702404345, 0.05, 0.9500000000000001, 0.336, 192.0, 0.0, 0.0, 0.0, 0.0, 0.0, 0.0, 0.0, 0.0, 0.0, 1.7307453560254023E9, 0.0, 2024-11-04 15:35:56.025
119.0, -32231.014338852685, 28412.442316108027, -113282.97713792052, -106409.01105511321, -24802.300310409108, 187500.0, -62357.05314362683, 79386.26609876944, 0.05, 0.9500000000000001, 0.336, 192.0, 0.0, 0.0, 0.0, 0.0, 0.0, 0.0, 0.0, 0.0, 0.0, 1.730745356029422E9, 0.0, 2024-11-04 15:35:56.029
120.0, -32740.991740344973, 28147.060054190166, -113635.57590670299, -106736.86644278365, -24882.67718347039, 187500.0, -62334.12025381569, 79472.36501841129, 0.05, 0.9500000000000001, 0.336, 192.0, 0.0, 0.0, 0.0, 0.0, 0.0, 0.0, 0.0, 0.0, 0.0, 1.7307453560343459E9, 0.0, 2024-11-04 15:35:56.034
121.0, -33629.965320821444, 28229.694453441436, -113904.71326168935, -106767.04129779832, -25475.490149914047, 187500.0, -62463.93918561211, 79574.9371737167, 0.05, 0.9500000000000001, 0.336, 192.0, 0.0, 0.0, 0.0, 0.0, 0.0, 0.0, 0.0, 0.0, 0.0, 1.7307453560382607E9, 0.0, 2024-11-04 15:35:56.038
122.0, -33523.72747942537, 28463.560755677314, -113983.97254752787, -106856.00124073045, -25654.214698578682, 187500.0, -62740.698485457724, 79275.93788813805, 0.05, 0.9500000000000001, 0.336, 192.0, 0.0, 0.0, 0.0, 0.0, 0.0, 0.0, 0.0, 0.0, 0.0, 1.7307453560424185E9, 0.0, 2024-11-04 15:35:56.042
123.0, -32808.78458127792, 28472.00971508142, -114111.01986301182, -107236.85261450442, -25297.503208816437, 187500.0, -62938.354961676, 78868.35382799552, 0.05, 0.9500000000000001, 0.336, 192.0, 0.0, 0.0, 0.0, 0.0, 0.0, 0.0, 0.0, 0.0, 0.0, 1.7307453560453565E9, 0.0, 2024-11-04 15:35:56.045
124.0, -32982.412932206746, 28345.163565297553, -114408.4992299675, -107564.32802251913, -25332.48368888899, 187500.0, -63004.605532241534, 78827.07015598657, 0.05, 0.9500000000000001, 0.336, 192.0, 0.0, 0.0, 0.0, 0.0, 0.0, 0.0, 0.0, 0.0, 0.0, 1.7307453560496154E9, 0.0, 2024-11-04 15:35:56.049
125.0, -33830.21459939654, 28491.45573275754, -114681.03405011106, -107590.36780480956, -25943.33451310808, 187500.0, -63162.09592367362, 78923.47322982231, 0.05, 0.9500000000000001, 0.336, 192.0, 0.0, 0.0, 0.0, 0.0, 0.0, 0.0, 0.0, 0.0, 0.0, 1.730745356053594E9, 0.0, 2024-11-04 15:35:56.053
126.0, -33752.788156603354, 28974.275764736627, -114725.1787454103, -107558.47186547183, -26332.50073581943, 187500.0, -63554.860777242284, 78595.81900785197, 0.05, 0.9500000000000001, 0.336, 192.0, 0.0, 0.0, 0.0, 0.0, 0.0, 0.0, 0.0, 0.0, 0.0, 1.730745356057614E9, 0.0, 2024-11-04 15:35:56.057
127.0, -32783.169482132136, 29360.268039735325, -114750.0338852446, -107800.07187128924, -26151.228088286887, 187500.0, -63946.79861626609, 78047.84364078565, 0.04, 0.9520000000000001, 0.34, 192.0, 1.0, 64.0, 29.0, 192.0, 10.0, 160.0, 0.0, 0.0, 0.0, 1.730745356061614E9, 0.0, 2024-11-04 15:35:56.061
128.0, -32531.421784332015, 29515.053870088326, -114945.16461433943, -108075.53476995644, -26156.27958253379, 187500.0, -64171.34424106411, 77830.74114689126, 0.04, 0.9520000000000001, 0.34, 192.0, 0.0, 0.0, 0.0, 0.0, 0.0, 0.0, 0.0, 0.0, 0.0, 1.7307453560666075E9, 0.0, 2024-11-04 15:35:56.066
129.0, -33119.18325652877, 29945.92844795328, -115159.80841634375, -108040.48723465053, -26814.381994531395, 187500.0, -64474.21037843351, 77813.39619319394, 0.04, 0.9520000000000001, 0.34, 192.0, 0.0, 0.0, 0.0, 0.0, 0.0, 0.0, 0.0, 0.0, 0.0, 1.730745356069655E9, 0.0, 2024-11-04 15:35:56.069
130.0, -33120.345547240446, 30647.952037805564, -115170.0902187932, -107901.07940448278, -27374.74022802594, 187500.0, -64958.12564589091, 77488.31242183596, 0.04, 0.9520000000000001, 0.34, 192.0, 0.0, 0.0, 0.0, 0.0, 0.0, 0.0, 0.0, 0.0, 0.0, 1.7307453560736053E9, 0.0, 2024-11-04 15:35:56.073
131.0, -32203.365230961474, 31123.194828414304, -115150.91242205053, -108073.16548504418, -27225.251761108848, 187500.0, -65390.184866211996, 76921.98627257184, 0.04, 0.9520000000000001, 0.34, 192.0, 0.0, 0.0, 0.0, 0.0, 0.0, 0.0, 0.0, 0.0, 0.0, 1.7307453560774677E9, 0.0, 2024-11-04 15:35:56.077
132.0, -31769.428464106142, 31301.829970101116, -115307.64285417115, -108367.15797986485, -27083.586404751113, 187500.0, -65642.42430239014, 76620.59535033647, 0.04, 0.9520000000000001, 0.34, 192.0, 0.0, 0.0, 0.0, 0.0, 0.0, 0.0, 0.0, 0.0, 0.0, 1.7307453560813975E9, 0.0, 2024-11-04 15:35:56.081
133.0, -32249.074548372573, 31766.343923371307, -115512.9659787376, -108352.69640120225, -27685.47417944362, 187500.0, -65966.9716318812, 76574.75192245864, 0.04, 0.9520000000000001, 0.34, 192.0, 0.0, 0.0, 0.0, 0.0, 0.0, 0.0, 0.0, 0.0, 0.0, 1.7307453560856647E9, 0.0, 2024-11-04 15:35:56.085
134.0, -32408.956576461387, 32532.87464772161, -115527.11463297781, -108159.55497736395, -28356.965286369956, 187500.0, -66469.66236468105, 76302.01593661499, 0.04, 0.9520000000000001, 0.34, 192.0, 0.0, 0.0, 0.0, 0.0, 0.0, 0.0, 0.0, 0.0, 0.0, 1.730745356090582E9, 0.0, 2024-11-04 15:35:56.090
135.0, -31739.454774791575, 32912.340213339354, -115508.3615193798, -108307.25530472462, -28195.608043147095, 187500.0, -66842.86944185132, 75799.07933462612, 0.04, 0.9520000000000001, 0.34, 192.0, 0.0, 0.0, 0.0, 0.0, 0.0, 0.0, 0.0, 0.0, 0.0, 1.7307453560946076E9, 0.0, 2024-11-04 15:35:56.094
136.0, -31342.510145009775, 32868.62020118478, -115669.80816958049, -108680.06005049468, -27853.55929774753, 187500.0, -66985.3618127539, 75522.09651733596, 0.04, 0.9520000000000001, 0.34, 192.0, 0.0, 0.0, 0.0, 0.0, 0.0, 0.0, 0.0, 0.0, 0.0, 1.7307453560973964E9, 0.0, 2024-11-04 15:35:56.097
137.0, -32033.20140042322, 32887.59683222733, -115952.80360612914, -108833.14714826908, -28182.33110694064, 187500.0, -67082.65895636784, 75606.13907648792, 0.04, 0.9460000000000001, 0.34, 192.0, 1.0, 64.0, 29.0, 144.0, 10.0, 160.0, 0.0, 0.0, 0.0, 1.7307453561015525E9, 0.0, 2024-11-04 15:35:56.101
138.0, -32700.155103225126, 33196.65440281086, -116094.29014853122, -108769.51173180483, -28731.692282163178, 187500.0, -67334.65252335698, 75556.5852590305, 0.04, 0.9460000000000001, 0.34, 192.0, 0.0, 0.0, 0.0, 0.0, 0.0, 0.0, 0.0, 0.0, 0.0, 1.730745356105472E9, 0.0, 2024-11-04 15:35:56.105
139.0, -32254.39426355294, 33495.2066535004, -116098.96166312238, -108896.00025367741, -28687.14525546375, 187500.0, -67660.76447495991, 75123.76607939793, 0.04, 0.9460000000000001, 0.34, 192.0, 0.0, 0.0, 0.0, 0.0, 0.0, 0.0, 0.0, 0.0, 0.0, 1.730745356109688E9, 0.0, 2024-11-04 15:35:56.109
140.0, -31676.02052402741, 33498.64882214652, -116225.91957162853, -109265.63105173482, -28351.13148106712, 187500.0, -67843.17706145968, 74771.01084840427, 0.04, 0.9460000000000001, 0.34, 192.0, 0.0, 0.0, 0.0, 0.0, 0.0, 0.0, 0.0, 0.0, 0.0, 1.7307453561135523E9, 0.0, 2024-11-04 15:35:56.113
141.0, -32188.27780345414, 33471.78202531124, -116505.13756336422, -109476.40800194837, -28571.586736629815, 187500.0, -67930.30416134646, 74804.4043546205, 0.04, 0.9460000000000001, 0.34, 192.0, 0.0, 0.0, 0.0, 0.0, 0.0, 0.0, 0.0, 0.0, 0.0, 1.7307453561175792E9, 0.0, 2024-11-04 15:35:56.117
142.0, -32973.49458616908, 33740.9640837865, -116683.9962224956, -109423.45671933374, -29181.163511414947, 187500.0, -68150.71471342024, 74817.39071814904, 0.04, 0.9460000000000001, 0.34, 192.0, 0.0, 0.0, 0.0, 0.0, 0.0, 0.0, 0.0, 0.0, 0.0, 1.7307453561226072E9, 0.0, 2024-11-04 15:35:56.122
143.0, -32711.12980975268, 34067.970105167646, -116690.56763536546, -109487.80739162058, -29294.956242436918, 187500.0, -68477.67603131247, 74439.55682987653, 0.04, 0.9460000000000001, 0.34, 192.0, 0.0, 0.0, 0.0, 0.0, 0.0, 0.0, 0.0, 0.0, 0.0, 1.7307453561254315E9, 0.0, 2024-11-04 15:35:56.125
144.0, -32052.088624487955, 34086.477349576635, -116784.93670045576, -109847.87164305111, -28922.263255389127, 187500.0, -68671.84563539573, 74042.478089628, 0.04, 0.9460000000000001, 0.34, 192.0, 0.0, 0.0, 0.0, 0.0, 0.0, 0.0, 0.0, 0.0, 0.0, 1.7307453561296268E9, 0.0, 2024-11-04 15:35:56.129
145.0, -32397.758352489276, 33987.548528617444, -117055.7280845318, -110121.63580913971, -29007.69162269731, 187500.0, -68734.20700242603, 74034.74438604646, 0.04, 0.9460000000000001, 0.34, 192.0, 0.0, 0.0, 0.0, 0.0, 0.0, 0.0, 0.0, 0.0, 0.0, 1.7307453561338441E9, 0.0, 2024-11-04 15:35:56.133
146.0, -33253.18196453834, 34204.60631902293, -117270.34953479166, -110093.9867012485, -29645.43159549613, 187500.0, -68921.98400759506, 74099.11741007774, 0.04, 0.9460000000000001, 0.34, 192.0, 0.0, 0.0, 0.0, 0.0, 0.0, 0.0, 0.0, 0.0, 0.0, 1.7307453561376045E9, 0.0, 2024-11-04 15:35:56.137
147.0, -33188.56307131804, 34564.312942542194, -117290.06377340124, -110100.22283795153, -29893.11127580539, 187500.0, -69252.36514238897, 73774.59243233115, 0.04, 0.9460000000000001, 0.336, 192.0, 1.0, 64.0, 29.0, 144.0, 10.0, 128.0, 0.0, 0.0, 0.0, 1.7307453561414957E9, 0.0, 2024-11-04 15:35:56.141
148.0, -32467.47344344538, 34653.07171977421, -117354.07916952124, -110420.90331565181, -29556.98574268648, 187500.0, -69487.52784580324, 73327.5128397361, 0.04, 0.9460000000000001, 0.336, 192.0, 0.0, 0.0, 0.0, 0.0, 0.0, 0.0, 0.0, 0.0, 0.0, 1.7307453561455932E9, 0.0, 2024-11-04 15:35:56.145
149.0, -32596.621822908146, 34544.30813125469, -117598.47314339557, -110733.17953743691, -29543.619399502208, 187500.0, -69562.18267228398, 73249.1923271647, 0.04, 0.9460000000000001, 0.336, 192.0, 0.0, 0.0, 0.0, 0.0, 0.0, 0.0, 0.0, 0.0, 0.0, 1.7307453561506453E9, 0.0, 2024-11-04 15:35:56.150
150.0, -33490.781008098245, 34688.29806903578, -117845.8622510269, -110749.96569752286, -30128.67631061987, 187500.0, -69709.07833684425, 73342.48850852114, 0.04, 0.9460000000000001, 0.336, 192.0, 0.0, 0.0, 0.0, 0.0, 0.0, 0.0, 0.0, 0.0, 0.0, 1.730745356153587E9, 0.0, 2024-11-04 15:35:56.153
151.0, -33667.11392010617, 35029.005709768026, -117893.67263241681, -110721.9813134648, -30491.400419640595, 187500.0, -70013.06206143643, 73097.13340963524, 0.04, 0.9460000000000001, 0.336, 192.0, 0.0, 0.0, 0.0, 0.0, 0.0, 0.0, 0.0, 0.0, 0.0, 1.7307453561576877E9, 0.0, 2024-11-04 15:35:56.157
152.0, -32959.77061507352, 35169.10644401389, -117931.60354275747, -110998.85237203269, -30222.575989076617, 187500.0, -70271.1353029174, 72641.35898844707, 0.04, 0.9460000000000001, 0.336, 192.0, 0.0, 0.0, 0.0, 0.0, 0.0, 0.0, 0.0, 0.0, 0.0, 1.7307453561615827E9, 0.0, 2024-11-04 15:35:56.161
153.0, -32890.50255900652, 35038.88518081727, -118156.77501640022, -111351.71936174863, -30071.679362258838, 187500.0, -70349.43346374434, 72495.13387622045, 0.04, 0.9460000000000001, 0.336, 192.0, 0.0, 0.0, 0.0, 0.0, 0.0, 0.0, 0.0, 0.0, 0.0, 1.7307453561654456E9, 0.0, 2024-11-04 15:35:56.165
154.0, -33764.23224976448, 35103.61583275984, -118433.82488892376, -111420.94271432671, -30582.90846144062, 187500.0, -70456.29715398517, 72608.61368282005, 0.04, 0.9460000000000001, 0.336, 192.0, 0.0, 0.0, 0.0, 0.0, 0.0, 0.0, 0.0, 0.0, 0.0, 1.730745356169624E9, 0.0, 2024-11-04 15:35:56.169
155.0, -34154.53841144305, 35430.420688440885, -118514.84996257424, -111362.04586768697, -31075.00446736866, 187500.0, -70738.17500331104, 72447.65877099738, 0.04, 0.9460000000000001, 0.336, 192.0, 0.0, 0.0, 0.0, 0.0, 0.0, 0.0, 0.0, 0.0, 0.0, 1.730745356173634E9, 0.0, 2024-11-04 15:35:56.173
156.0, -33525.605025959616, 35613.32501331866, -118537.51463145192, -111587.57496924103, -30878.35381965087, 187500.0, -71017.16947760219, 71983.86007354976, 0.04, 0.9460000000000001, 0.336, 192.0, 0.0, 0.0, 0.0, 0.0, 0.0, 0.0, 0.0, 0.0, 0.0, 1.7307453561785915E9, 0.0, 2024-11-04 15:35:56.178
157.0, -33266.28008678914, 35485.093055378566, -118729.9184477232, -111967.50992149234, -30626.650825339657, 187500.0, -71110.89034210329, 71761.50491970837, 0.042, 0.9520000000000001, 0.338, 192.0, 1.0, 80.0, 29.0, 192.0, 10.0, 144.0, 0.0, 0.0, 0.0, 1.7307453561816723E9, 0.0, 2024-11-04 15:35:56.181
158.0, -34057.17421259573, 35481.71794196581, -119019.15002097489, -112094.11020208719, -31065.616734697433, 187500.0, -71190.57431108646, 71873.57656640728, 0.042, 0.9520000000000001, 0.338, 192.0, 0.0, 0.0, 0.0, 0.0, 0.0, 0.0, 0.0, 0.0, 0.0, 1.7307453561854985E9, 0.0, 2024-11-04 15:35:56.185
159.0, -34646.455603415445, 35774.101111185686, -119140.76586255622, -112029.0889774667, -31620.74465998944, 187500.0, -71439.12570942947, 71789.37754504413, 0.042, 0.9520000000000001, 0.338, 192.0, 0.0, 0.0, 0.0, 0.0, 0.0, 0.0, 0.0, 0.0, 0.0, 1.7307453561894455E9, 0.0, 2024-11-04 15:35:56.189
160.0, -34139.09335602443, 36001.03837264042, -119151.69586559485, -112194.46953469153, -31518.664243062052, 187500.0, -71728.29022744778, 71348.84701357449, 0.042, 0.9520000000000001, 0.338, 192.0, 0.0, 0.0, 0.0, 0.0, 0.0, 0.0, 0.0, 0.0, 0.0, 1.7307453561936336E9, 0.0, 2024-11-04 15:35:56.193
161.0, -33703.5025600794, 35908.457447106535, -119308.96273958239, -112576.61730964392, -31218.815591194107, 187500.0, -71851.47069114097, 71061.53769034597, 0.042, 0.9520000000000001, 0.338, 192.0, 0.0, 0.0, 0.0, 0.0, 0.0, 0.0, 0.0, 0.0, 0.0, 1.7307453561974652E9, 0.0, 2024-11-04 15:35:56.197
162.0, -34371.17151870388, 35839.8599433732, -119603.20110359206, -112763.85787294601, -31522.53109485282, 187500.0, -71905.29369178935, 71146.31785706495, 0.042, 0.9520000000000001, 0.338, 192.0, 0.0, 0.0, 0.0, 0.0, 0.0, 0.0, 0.0, 0.0, 0.0, 1.730745356201536E9, 0.0, 2024-11-04 15:35:56.201
163.0, -35126.23579814861, 36081.974039313085, -119768.2687363945, -112706.65975888488, -32121.7813636996, 187500.0, -72115.31068269142, 71136.43838601571, 0.042, 0.9520000000000001, 0.338, 192.0, 0.0, 0.0, 0.0, 0.0, 0.0, 0.0, 0.0, 0.0, 0.0, 1.730745356205562E9, 0.0, 2024-11-04 15:35:56.205
164.0, -34780.74488410293, 36349.41266172083, -119780.85276852283, -112809.52248686821, -32171.17871894583, 187500.0, -72418.2885787831, 70738.48792773341, 0.042, 0.9520000000000001, 0.338, 192.0, 0.0, 0.0, 0.0, 0.0, 0.0, 0.0, 0.0, 0.0, 0.0, 1.73074535620876E9, 0.0, 2024-11-04 15:35:56.208
165.0, -34196.98437416367, 36323.03760326357, -119902.82623801545, -113176.80635175781, -31836.170773049686, 187500.0, -72583.08799065209, 70378.66954549188, 0.042, 0.9520000000000001, 0.338, 192.0, 0.0, 0.0, 0.0, 0.0, 0.0, 0.0, 0.0, 0.0, 0.0, 1.7307453562138045E9, 0.0, 2024-11-04 15:35:56.213
166.0, -34721.02102291835, 36166.17306067623, -120196.08112526908, -113431.41507284822, -31981.0994840979, 187500.0, -72606.62437756352, 70427.01636874871, 0.042, 0.9520000000000001, 0.338, 192.0, 0.0, 0.0, 0.0, 0.0, 0.0, 0.0, 0.0, 0.0, 0.0, 1.73074535621761E9, 0.0, 2024-11-04 15:35:56.217
167.0, -35605.47955101485, 36312.33111766948, -120407.77449700529, -113406.89520918074, -32597.471189197448, 187500.0, -72762.23722246138, 70493.1328288475, 0.042, 0.9560000000000001, 0.34, 192.0, 1.0, 80.0, 29.0, 224.0, 10.0, 160.0, 0.0, 0.0, 0.0, 1.7307453562216537E9, 0.0, 2024-11-04 15:35:56.221
168.0, -35429.45956342931, 36640.901761162495, -120428.0251774818, -113445.89900325525, -32789.606784535266, 187500.0, -73078.96144139307, 70139.81880424247, 0.042, 0.9560000000000001, 0.34, 192.0, 0.0, 0.0, 0.0, 0.0, 0.0, 0.0, 0.0, 0.0, 0.0, 1.7307453562255492E9, 0.0, 2024-11-04 15:35:56.225
169.0, -34744.51270634088, 36693.71893331038, -120516.06869889125, -113786.58429224305, -32455.314094461693, 187500.0, -73286.13976074931, 69720.6565404721, 0.042, 0.9560000000000001, 0.34, 192.0, 0.0, 0.0, 0.0, 0.0, 0.0, 0.0, 0.0, 0.0, 0.0, 1.7307453562295938E9, 0.0, 2024-11-04 15:35:56.229
170.0, -35071.25050678856, 36501.38217227247, -120791.15161790272, -114093.07141221422, -32486.517129721302, 187500.0, -73305.83164761444, 69716.23089506995, 0.042, 0.9560000000000001, 0.34, 192.0, 0.0, 0.0, 0.0, 0.0, 0.0, 0.0, 0.0, 0.0, 0.0, 1.7307453562325363E9, 0.0, 2024-11-04 15:35:56.232
171.0, -36022.69721301761, 36580.37323717752, -121039.43479531226, -114106.66127284305, -33070.4564536162, 187500.0, -73422.5301054156, 69824.14511730017, 0.042, 0.9560000000000001, 0.34, 192.0, 0.0, 0.0, 0.0, 0.0, 0.0, 0.0, 0.0, 0.0, 0.0, 1.7307453562368047E9, 0.0, 2024-11-04 15:35:56.236
172.0, -36072.83217583087, 36906.0605056358, -121084.22769120071, -114104.85078154216, -33376.2283177648, 187500.0, -73728.81605968668, 69535.33822719315, 0.042, 0.9560000000000001, 0.34, 192.0, 0.0, 0.0, 0.0, 0.0, 0.0, 0.0, 0.0, 0.0, 0.0, 1.7307453562415943E9, 0.0, 2024-11-04 15:35:56.241
173.0, -35346.84751592249, 37026.022318127434, -121142.90102039589, -114404.99000608803, -33099.67018361929, 187500.0, -73974.64054520614, 69086.53755027504, 0.042, 0.9560000000000001, 0.34, 192.0, 0.0, 0.0, 0.0, 0.0, 0.0, 0.0, 0.0, 0.0, 0.0, 1.7307453562456987E9, 0.0, 2024-11-04 15:35:56.245
174.0, -35446.357482237516, 36841.77688858234, -121395.74395367432, -114748.69278057729, -33007.11160982986, 187500.0, -74015.0748509258, 69003.16554345674, 0.042, 0.9560000000000001, 0.34, 192.0, 0.0, 0.0, 0.0, 0.0, 0.0, 0.0, 0.0, 0.0, 0.0, 1.7307453562496903E9, 0.0, 2024-11-04 15:35:56.249
175.0, -36410.20940663927, 36851.07521427575, -121677.77826521138, -114810.78592667413, -33526.63320620456, 187500.0, -74095.09409607579, 69136.9183822773, 0.042, 0.9560000000000001, 0.34, 192.0, 0.0, 0.0, 0.0, 0.0, 0.0, 0.0, 0.0, 0.0, 0.0, 1.7307453562537875E9, 0.0, 2024-11-04 15:35:56.253
176.0, -36682.61011631609, 37167.57591576289, -121749.57206840183, -114771.31274596606, -33962.872202738785, 187500.0, -74378.1565878578, 68937.38435952477, 0.042, 0.9560000000000001, 0.34, 192.0, 0.0, 0.0, 0.0, 0.0, 0.0, 0.0, 0.0, 0.0, 0.0, 1.7307453562577612E9, 0.0, 2024-11-04 15:35:56.257
177.0, -35989.95190739058, 37339.997272491135, -121787.48062699803, -115023.28396121073, -33743.087499509755, 187500.0, -74649.08208240058, 68473.3621446326, 0.04, 0.9540000000000001, 0.336, 192.0, 1.0, 64.0, 29.0, 208.0, 10.0, 128.0, 0.0, 0.0, 0.0, 1.7307453562618632E9, 0.0, 2024-11-04 15:35:56.261
178.0, -35871.35355131073, 37174.81788096642, -122009.7463738616, -115394.38997440219, -33538.79255518825, 187500.0, -74712.96336805384, 68307.35573856304, 0.04, 0.9540000000000001, 0.336, 192.0, 0.0, 0.0, 0.0, 0.0, 0.0, 0.0, 0.0, 0.0, 0.0, 1.7307453562646592E9, 0.0, 2024-11-04 15:35:56.264
179.0, -36771.279486570296, 37136.618749692294, -122308.65625246243, -115504.98640596705, -34003.418267180714, 187500.0, -74769.75915071477, 68447.92585944246, 0.04, 0.9540000000000001, 0.336, 192.0, 0.0, 0.0, 0.0, 0.0, 0.0, 0.0, 0.0, 0.0, 0.0, 1.7307453562688231E9, 0.0, 2024-11-04 15:35:56.268
180.0, -37269.455166990185, 37412.99806988217, -122421.71137591737, -115454.42676000916, -34517.262520463766, 187500.0, -75020.90335141461, 68328.41108183993, 0.04, 0.9540000000000001, 0.336, 192.0, 0.0, 0.0, 0.0, 0.0, 0.0, 0.0, 0.0, 0.0, 0.0, 1.7307453562739477E9, 0.0, 2024-11-04 15:35:56.273
181.0, -36664.25933411829, 37641.96934008233, -122445.35952155109, -115649.51278561506, -34380.29103044165, 187500.0, -75315.34288112436, 67866.2217099931, 0.04, 0.9540000000000001, 0.336, 192.0, 0.0, 0.0, 0.0, 0.0, 0.0, 0.0, 0.0, 0.0, 0.0, 1.7307453562777789E9, 0.0, 2024-11-04 15:35:56.277
182.0, -36332.29122546807, 37525.51675147018, -122631.05781448577, -116028.39720587697, -34120.2061319597, 187500.0, -75417.24448409611, 67625.1134425537, 0.04, 0.9540000000000001, 0.336, 192.0, 0.0, 0.0, 0.0, 0.0, 0.0, 0.0, 0.0, 0.0, 0.0, 1.7307453562817907E9, 0.0, 2024-11-04 15:35:56.281
183.0, -37131.70136591213, 37417.46841877323, -122939.40012924673, -116198.53868467077, -34467.708703006356, 187500.0, -75446.97230422166, 67753.90419410517, 0.04, 0.9540000000000001, 0.336, 192.0, 0.0, 0.0, 0.0, 0.0, 0.0, 0.0, 0.0, 0.0, 0.0, 1.7307453562857265E9, 0.0, 2024-11-04 15:35:56.285
184.0, -37814.54715902176, 37648.33958725209, -123089.4026862863, -116146.10149217863, -35027.93282603417, 187500.0, -75658.24099281324, 67714.1851442081, 0.04, 0.9540000000000001, 0.336, 192.0, 0.0, 0.0, 0.0, 0.0, 0.0, 0.0, 0.0, 0.0, 0.0, 1.73074535628993E9, 0.0, 2024-11-04 15:35:56.289
185.0, -37336.24217942264, 37933.95017790201, -123102.61256725939, -116277.99913620939, -35026.412907411206, 187500.0, -75974.04879022227, 67279.89074944147, 0.04, 0.9540000000000001, 0.336, 192.0, 0.0, 0.0, 0.0, 0.0, 0.0, 0.0, 0.0, 0.0, 0.0, 1.7307453562927415E9, 0.0, 2024-11-04 15:35:56.292
186.0, -36836.18895246851, 37869.24187770389, -123250.93874346481, -116656.12359715982, -34712.34854606969, 187500.0, -76111.28850117786, 66963.16653050978, 0.04, 0.9540000000000001, 0.336, 192.0, 0.0, 0.0, 0.0, 0.0, 0.0, 0.0, 0.0, 0.0, 0.0, 1.7307453562967217E9, 0.0, 2024-11-04 15:35:56.296
187.0, -37486.69177135131, 37713.42786710595, -123559.75044485932, -116883.8878731594, -34927.88641785221, 187500.0, -76126.55474264083, 67049.66778155182, 0.042, 0.9560000000000001, 0.342, 192.0, 1.0, 80.0, 29.0, 224.0, 10.0, 176.0, 0.0, 0.0, 0.0, 1.7307453563018756E9, 0.0, 2024-11-04 15:35:56.301
188.0, -38313.30398479748, 37895.05814254977, -123758.72567400047, -116845.50992792964, -35540.883009539015, 187500.0, -76306.79920992842, 67079.93204354431, 0.042, 0.9560000000000001, 0.342, 192.0, 0.0, 0.0, 0.0, 0.0, 0.0, 0.0, 0.0, 0.0, 0.0, 1.7307453563057864E9, 0.0, 2024-11-04 15:35:56.305
189.0, -38021.16668476661, 38200.718247976096, -123779.55749983282, -116920.83530674402, -35659.12373770759, 187500.0, -76622.71876605973, 66696.15259124668, 0.042, 0.9560000000000001, 0.342, 192.0, 0.0, 0.0, 0.0, 0.0, 0.0, 0.0, 0.0, 0.0, 0.0, 1.73074535630988E9, 0.0, 2024-11-04 15:35:56.309
190.0, -37400.99518310966, 38193.27511707248, -123894.87014947775, -117282.46418028644, -35315.89034985189, 187500.0, -76797.88938735597, 66314.56360990567, 0.042, 0.9560000000000001, 0.342, 192.0, 0.0, 0.0, 0.0, 0.0, 0.0, 0.0, 0.0, 0.0, 0.0, 1.73074535631279E9, 0.0, 2024-11-04 15:35:56.312
191.0, -37851.98633098439, 38020.04909754385, -124189.62260360988, -117556.56362254187, -35424.87745581597, 187500.0, -76815.2790445422, 66348.27004054427, 0.042, 0.9560000000000001, 0.342, 192.0, 0.0, 0.0, 0.0, 0.0, 0.0, 0.0, 0.0, 0.0, 0.0, 1.7307453563168013E9, 0.0, 2024-11-04 15:35:56.316
192.0, -38769.570144363664, 38143.11780251477, -124421.43254535587, -117543.13022412422, -36032.621387555766, 187500.0, -76951.49057525284, 66436.29121020928, 0.042, 0.9560000000000001, 0.342, 192.0, 0.0, 0.0, 0.0, 0.0, 0.0, 0.0, 0.0, 0.0, 0.0, 1.7307453563206224E9, 0.0, 2024-11-04 15:35:56.320
193.0, -38694.24476554928, 38454.343492310465, -124458.75995859623, -117568.74532327, -36260.117442621886, 187500.0, -77256.54718357888, 66112.74970921871, 0.042, 0.9560000000000001, 0.342, 192.0, 0.0, 0.0, 0.0, 0.0, 0.0, 0.0, 0.0, 0.0, 0.0, 1.7307453563247306E9, 0.0, 2024-11-04 15:35:56.324
194.0, -37995.37277166519, 38519.27530995313, -124542.35548285909, -117896.55600745154, -35945.717805113534, 187500.0, -77473.69438096219, 65686.72545990055, 0.042, 0.9560000000000001, 0.342, 192.0, 0.0, 0.0, 0.0, 0.0, 0.0, 0.0, 0.0, 0.0, 0.0, 1.7307453563297236E9, 0.0, 2024-11-04 15:35:56.329
195.0, -38229.12731517879, 38337.44386880921, -124814.57737858026, -118214.08488918364, -35934.608988119246, 187500.0, -77505.1879888997, 65651.7896833169, 0.042, 0.9560000000000001, 0.342, 192.0, 0.0, 0.0, 0.0, 0.0, 0.0, 0.0, 0.0, 0.0, 0.0, 1.7307453563339465E9, 0.0, 2024-11-04 15:35:56.333
196.0, -39194.16388203667, 38390.17163397928, -125084.16176845573, -118244.4609098984, -36495.23544254726, 187500.0, -77607.17899884928, 65771.63973708627, 0.042, 0.9560000000000001, 0.342, 192.0, 0.0, 0.0, 0.0, 0.0, 0.0, 0.0, 0.0, 0.0, 0.0, 1.7307453563379939E9, 0.0, 2024-11-04 15:35:56.337
197.0, -39345.03815711, 38698.536300484695, -125145.38319651881, -118229.79816553571, -36850.0470340308, 187500.0, -77898.31047037966, 65523.580077121274, 0.052000000000000005, 0.9580000000000001, 0.34400000000000003, 192.0, 1.0, 160.0, 29.0, 240.0, 10.0, 192.0, 0.0, 0.0, 0.0, 1.7307453563407578E9, 0.0, 2024-11-04 15:35:56.340
198.0, -38649.22835221629, 38804.14829303602, -125203.67654605825, -118518.94033180957, -36575.880536542005, 187500.0, -78138.83759246321, 65078.24392059373, 0.052000000000000005, 0.9580000000000001, 0.34400000000000003, 192.0, 0.0, 0.0, 0.0, 0.0, 0.0, 0.0, 0.0, 0.0, 0.0, 1.7307453563447282E9, 0.0, 2024-11-04 15:35:56.344
199.0, -38661.72297736681, 38629.24589267324, -125451.3115228786, -118872.56728083699, -36440.22779944275, 187500.0, -78186.53621513084, 64964.27237561612, 0.052000000000000005, 0.9580000000000001, 0.34400000000000003, 192.0, 0.0, 0.0, 0.0, 0.0, 0.0, 0.0, 0.0, 0.0, 0.0, 1.7307453563487923E9, 0.0, 2024-11-04 15:35:56.348
200.0, -39582.681904158824, 38658.43727093188, -125740.31957868572, -118941.16478457031, -36965.09146274227, 187500.0, -78271.6740097611, 65098.248731881235, 0.052000000000000005, 0.9580000000000001, 0.34400000000000003, 192.0, 0.0, 0.0, 0.0, 0.0, 0.0, 0.0, 0.0, 0.0, 0.0, 1.7307453563528204E9, 0.0, 2024-11-04 15:35:56.352
201.0, -39962.81802211023, 38937.699966156484, -125832.43111758603, -118901.98217654017, -37420.105924618954, 187500.0, -78531.82596347643, 64939.841918926475, 0.052000000000000005, 0.9580000000000001, 0.34400000000000003, 192.0, 0.0, 0.0, 0.0, 0.0, 0.0, 0.0, 0.0, 0.0, 0.0, 1.7307453563578482E9, 0.0, 2024-11-04 15:35:56.357
202.0, -39321.16649403173, 39097.78315994539, -125872.55249888332, -119143.15749921293, -37208.05492497145, 187500.0, -78796.76119050517, 64483.955739016026, 0.052000000000000005, 0.9580000000000001, 0.34400000000000003, 192.0, 0.0, 0.0, 0.0, 0.0, 0.0, 0.0, 0.0, 0.0, 0.0, 1.7307453563618288E9, 0.0, 2024-11-04 15:35:56.361
203.0, -39108.08731413929, 38962.800975179794, -126085.78814098694, -119516.83396301675, -36994.17108227862, 187500.0, -78882.74835142474, 64284.846399408154, 0.052000000000000005, 0.9580000000000001, 0.34400000000000003, 192.0, 0.0, 0.0, 0.0, 0.0, 0.0, 0.0, 0.0, 0.0, 0.0, 1.7307453563658202E9, 0.0, 2024-11-04 15:35:56.365
204.0, -39976.05025482777, 38892.7282563124, -126394.80100808156, -119651.36911289324, -37418.004860640154, 187500.0, -78927.56359905763, 64425.572982498765, 0.052000000000000005, 0.9580000000000001, 0.34400000000000003, 192.0, 0.0, 0.0, 0.0, 0.0, 0.0, 0.0, 0.0, 0.0, 0.0, 1.730745356368801E9, 0.0, 2024-11-04 15:35:56.368
205.0, -40563.34234039096, 39129.34382311629, -126528.35268120203, -119602.64230998067, -37936.36416630318, 187500.0, -79151.39396803308, 64345.821958282235, 0.052000000000000005, 0.9580000000000001, 0.34400000000000003, 192.0, 0.0, 0.0, 0.0, 0.0, 0.0, 0.0, 0.0, 0.0, 0.0, 1.7307453563728378E9, 0.0, 2024-11-04 15:35:56.372
206.0, -40000.10073186168, 39381.51620406106, -126551.68790241337, -119771.95677422962, -37854.10974670765, 187500.0, -79454.79654726942, 63895.523714485615, 0.052000000000000005, 0.9580000000000001, 0.34400000000000003, 192.0, 0.0, 0.0, 0.0, 0.0, 0.0, 0.0, 0.0, 0.0, 0.0, 1.7307453563769643E9, 0.0, 2024-11-04 15:35:56.376
207.0, -39593.522500219646, 39288.510595382526, -126726.54559928723, -120150.95295321381, -37577.596316051044, 187500.0, -79572.8361097379, 63627.72746416658, 0.046, 0.9560000000000001, 0.34, 192.0, 1.0, 112.0, 29.0, 224.0, 10.0, 160.0, 0.0, 0.0, 0.0, 1.7307453563808985E9, 0.0, 2024-11-04 15:35:56.380
208.0, -40346.82099185241, 39147.0911082138, -127039.87235306173, -120346.73188289785, -37862.58105785621, 187500.0, -79586.91770874473, 63748.650401669795, 0.046, 0.9560000000000001, 0.34, 192.0, 0.0, 0.0, 0.0, 0.0, 0.0, 0.0, 0.0, 0.0, 0.0, 1.7307453563857129E9, 0.0, 2024-11-04 15:35:56.385
209.0, -41095.939707272024, 39352.16836359124, -127213.79127666847, -120300.12849570853, -38444.79929742805, 187500.0, -79780.19324304977, 63739.419131209754, 0.046, 0.9560000000000001, 0.34, 192.0, 0.0, 0.0, 0.0, 0.0, 0.0, 0.0, 0.0, 0.0, 0.0, 1.7307453563898184E9, 0.0, 2024-11-04 15:35:56.389
210.0, -40687.595687818015, 39640.39410834242, -127235.36071006785, -120411.55194181824, -38495.64951606387, 187500.0, -80094.99521195832, 63327.90116404309, 0.046, 0.9560000000000001, 0.34, 192.0, 0.0, 0.0, 0.0, 0.0, 0.0, 0.0, 0.0, 0.0, 0.0, 1.7307453563938756E9, 0.0, 2024-11-04 15:35:56.393
211.0, -40137.85453293974, 39588.918040861856, -127377.49545305913, -120787.64239402323, -38161.02154982347, 187500.0, -80245.53421086482, 62988.177000066884, 0.046, 0.9560000000000001, 0.34, 192.0, 0.0, 0.0, 0.0, 0.0, 0.0, 0.0, 0.0, 0.0, 0.0, 1.7307453563969734E9, 0.0, 2024-11-04 15:35:56.396
212.0, -40720.1621794894, 39416.31787017797, -127688.27410796573, -121036.39495806635, -38333.10763038488, 187500.0, -80258.9899610269, 63057.69092532289, 0.046, 0.9560000000000001, 0.34, 192.0, 0.0, 0.0, 0.0, 0.0, 0.0, 0.0, 0.0, 0.0, 0.0, 1.7307453564008958E9, 0.0, 2024-11-04 15:35:56.400
213.0, -41591.030846957074, 39572.06482554255, -127903.32024137024, -121004.83429489545, -38955.313140787264, 187500.0, -80421.66595717263, 63116.34190277361, 0.046, 0.9560000000000001, 0.34, 192.0, 0.0, 0.0, 0.0, 0.0, 0.0, 0.0, 0.0, 0.0, 0.0, 1.730745356404912E9, 0.0, 2024-11-04 15:35:56.404
214.0, -41389.082835803376, 39868.337198297646, -127932.82454405124, -121061.42891185629, -39108.60140426176, 187500.0, -80730.5000103116, 62757.976383921676, 0.046, 0.9560000000000001, 0.34, 192.0, 0.0, 0.0, 0.0, 0.0, 0.0, 0.0, 0.0, 0.0, 0.0, 1.7307453564088633E9, 0.0, 2024-11-04 15:35:56.408
215.0, -40737.864761098004, 39873.90278266702, -128041.45402210404, -121414.87704692806, -38762.86462102707, 187500.0, -80916.77944860214, 62362.551672762835, 0.046, 0.9560000000000001, 0.34, 192.0, 0.0, 0.0, 0.0, 0.0, 0.0, 0.0, 0.0, 0.0, 0.0, 1.7307453564129384E9, 0.0, 2024-11-04 15:35:56.412
216.0, -41097.16905321706, 39700.207376504826, -128329.7468220886, -121705.91911148062, -38834.74783119534, 187500.0, -80940.49464946923, 62375.31451884682, 0.046, 0.9560000000000001, 0.34, 192.0, 0.0, 0.0, 0.0, 0.0, 0.0, 0.0, 0.0, 0.0, 0.0, 1.7307453564178572E9, 0.0, 2024-11-04 15:35:56.417
217.0, -42044.50303846634, 39790.48607235981, -128581.11454023297, -121710.21064641603, -39422.576358625454, 187500.0, -81059.71885439382, 62480.41242127567, 0.048, 0.9540000000000001, 0.342, 192.0, 1.0, 128.0, 29.0, 208.0, 10.0, 176.0, 0.0, 0.0, 0.0, 1.7307453564218688E9, 0.0, 2024-11-04 15:35:56.421
218.0, -42063.59142823117, 40090.64764865013, -128632.2106280578, -121722.59351284428, -39692.60778339002, 187500.0, -81352.23613408043, 62190.62205441261, 0.048, 0.9540000000000001, 0.342, 192.0, 0.0, 0.0, 0.0, 0.0, 0.0, 0.0, 0.0, 0.0, 0.0, 1.7307453564248807E9, 0.0, 2024-11-04 15:35:56.424
219.0, -41347.84386728333, 40181.9321730056, -128709.52531212871, -122036.74728116361, -39407.064247973474, 187500.0, -81584.76133164899, 61756.26060441263, 0.048, 0.9540000000000001, 0.342, 192.0, 0.0, 0.0, 0.0, 0.0, 0.0, 0.0, 0.0, 0.0, 0.0, 1.7307453564288912E9, 0.0, 2024-11-04 15:35:56.428
220.0, -41499.947488301696, 39990.601240468175, -128977.81330082576, -122373.878642783, -39337.25975003955, 187500.0, -81617.10430587582, 61693.69807168223, 0.048, 0.9540000000000001, 0.342, 192.0, 0.0, 0.0, 0.0, 0.0, 0.0, 0.0, 0.0, 0.0, 0.0, 1.7307453564328792E9, 0.0, 2024-11-04 15:35:56.432
221.0, -42473.142441885764, 40002.53707200731, -129262.93215309766, -122425.82409689715, -39868.046625619725, 187500.0, -81693.77078935753, 61831.22835531573, 0.048, 0.9540000000000001, 0.342, 192.0, 0.0, 0.0, 0.0, 0.0, 0.0, 0.0, 0.0, 0.0, 0.0, 1.730745356436746E9, 0.0, 2024-11-04 15:35:56.436
222.0, -42709.802712178556, 40299.79292151844, -129339.30806390144, -122398.42085819494, -40276.323589840365, 187500.0, -81971.80413863709, 61621.70310279168, 0.048, 0.9540000000000001, 0.342, 192.0, 0.0, 0.0, 0.0, 0.0, 0.0, 0.0, 0.0, 0.0, 0.0, 1.730745356440778E9, 0.0, 2024-11-04 15:35:56.440
223.0, -42009.34374443814, 40452.835315803924, -129390.60531742637, -122662.32790497875, -40035.32708112324, 187500.0, -82234.99592959833, 61159.64784141158, 0.048, 0.9540000000000001, 0.342, 192.0, 0.0, 0.0, 0.0, 0.0, 0.0, 0.0, 0.0, 0.0, 0.0, 1.7307453564457421E9, 0.0, 2024-11-04 15:35:56.445
224.0, -41937.10290635859, 40279.49753755302, -129626.25975921868, -123028.02479601203, -39849.78525039974, 187500.0, -82288.41659884651, 61016.17199375296, 0.048, 0.9540000000000001, 0.342, 192.0, 0.0, 0.0, 0.0, 0.0, 0.0, 0.0, 0.0, 0.0, 0.0, 1.7307453564489527E9, 0.0, 2024-11-04 15:35:56.448
225.0, -42858.37475757298, 40241.16429581217, -129929.05884135472, -123127.53476232705, -40330.303052699936, 187500.0, -82342.61957915063, 61165.52635020332, 0.048, 0.9540000000000001, 0.342, 192.0, 0.0, 0.0, 0.0, 0.0, 0.0, 0.0, 0.0, 0.0, 0.0, 1.730745356453004E9, 0.0, 2024-11-04 15:35:56.453
226.0, -43318.351306718745, 40508.37940077536, -130040.57169444225, -123080.23847105962, -40814.50889283525, 187500.0, -82591.05921877138, 61035.66271491799, 0.048, 0.9540000000000001, 0.342, 192.0, 0.0, 0.0, 0.0, 0.0, 0.0, 0.0, 0.0, 0.0, 0.0, 1.7307453564568412E9, 0.0, 2024-11-04 15:35:56.456
227.0, -42694.000028848655, 40714.998926520224, -130074.68045648104, -123289.67431660586, -40652.72696646774, 187500.0, -82875.88749836535, 60577.004918695086, 0.058, 0.9520000000000001, 0.34, 192.0, 1.0, 208.0, 29.0, 192.0, 10.0, 160.0, 0.0, 0.0, 0.0, 1.7307453564609709E9, 0.0, 2024-11-04 15:35:56.460
228.0, -42406.44483643113, 40586.163471479835, -130275.42147343415, -123669.43045490152, -40414.14444615179, 187500.0, -82967.06026399854, 60356.504959643484, 0.058, 0.9520000000000001, 0.34, 192.0, 0.0, 0.0, 0.0, 0.0, 0.0, 0.0, 0.0, 0.0, 0.0, 1.7307453564647996E9, 0.0, 2024-11-04 15:35:56.464
229.0, -43240.70134648101, 40480.596182417416, -130591.072808632, -123830.4300702131, -40778.83550868458, 187500.0, -82992.96593582224, 60493.63291187679, 0.058, 0.9520000000000001, 0.34, 192.0, 0.0, 0.0, 0.0, 0.0, 0.0, 0.0, 0.0, 0.0, 0.0, 1.730745356469024E9, 0.0, 2024-11-04 15:35:56.469
230.0, -43899.69782825683, 40702.95133625881, -130744.33872036204, -123780.78684577785, -41323.279300126946, 187500.0, -83203.56407208015, 60444.68259151967, 0.058, 0.9520000000000001, 0.34, 192.0, 0.0, 0.0, 0.0, 0.0, 0.0, 0.0, 0.0, 0.0, 0.0, 1.730745356473914E9, 0.0, 2024-11-04 15:35:56.473
231.0, -43392.380284354724, 40966.254885942326, -130769.08210147406, -123926.52021962646, -41298.401808548195, 187500.0, -83509.82767460677, 60010.83523164216, 0.058, 0.9520000000000001, 0.34, 192.0, 0.0, 0.0, 0.0, 0.0, 0.0, 0.0, 0.0, 0.0, 0.0, 1.7307453564769983E9, 0.0, 2024-11-04 15:35:56.476
232.0, -42925.00530779425, 40885.0509983362, -130931.98161506435, -124303.81766603205, -40985.58914489617, 187500.0, -83636.18208601262, 59712.46179490827, 0.058, 0.9520000000000001, 0.34, 192.0, 0.0, 0.0, 0.0, 0.0, 0.0, 0.0, 0.0, 0.0, 0.0, 1.7307453564807596E9, 0.0, 2024-11-04 15:35:56.480
233.0, -43615.98713588562, 40730.98042380577, -131246.5824182728, -124519.2884825812, -41221.44475238857, 187500.0, -83645.7933361284, 59816.84444151455, 0.058, 0.9520000000000001, 0.34, 192.0, 0.0, 0.0, 0.0, 0.0, 0.0, 0.0, 0.0, 0.0, 0.0, 1.7307453564850304E9, 0.0, 2024-11-04 15:35:56.485
234.0, -44412.51390129494, 40926.58053953416, -131439.63443513328, -124474.16031052594, -41836.92238770991, 187500.0, -83829.90465520676, 59840.53729063718, 0.058, 0.9520000000000001, 0.34, 192.0, 0.0, 0.0, 0.0, 0.0, 0.0, 0.0, 0.0, 0.0, 0.0, 1.7307453564890432E9, 0.0, 2024-11-04 15:35:56.489
235.0, -44089.28532472674, 41204.658592302636, -131467.90939186924, -124566.18244244844, -41912.18071129092, 187500.0, -84133.9554350323, 59451.393419670276, 0.058, 0.9520000000000001, 0.34, 192.0, 0.0, 0.0, 0.0, 0.0, 0.0, 0.0, 0.0, 0.0, 0.0, 1.7307453564928758E9, 0.0, 2024-11-04 15:35:56.492
236.0, -43508.49759680004, 41144.39828925113, -131602.8692248904, -124943.05520570937, -41550.976520893164, 187500.0, -84283.75682637177, 59093.02790081834, 0.058, 0.9520000000000001, 0.34, 192.0, 0.0, 0.0, 0.0, 0.0, 0.0, 0.0, 0.0, 0.0, 0.0, 1.730745356496959E9, 0.0, 2024-11-04 15:35:56.496
237.0, -43983.89684961997, 40998.68726714698, -131905.89182447098, -125202.8495315134, -41712.13259841593, 187500.0, -84314.51282674227, 59137.95490717351, 0.05, 0.96, 0.336, 192.0, 1.0, 144.0, 30.0, 0.0, 10.0, 128.0, 0.0, 0.0, 0.0, 1.7307453565019877E9, 0.0, 2024-11-04 15:35:56.501
238.0, -44880.58178193352, 41152.24375155494, -132135.8912749161, -125179.31314460197, -42331.43238203912, 187500.0, -84471.10914839616, 59215.2248877555, 0.05, 0.96, 0.336, 192.0, 0.0, 0.0, 0.0, 0.0, 0.0, 0.0, 0.0, 0.0, 0.0, 1.7307453565048592E9, 0.0, 2024-11-04 15:35:56.504
239.0, -44786.05625463203, 41418.698897206654, -132178.42664461455, -125223.77076432358, -42503.04907596696, 187500.0, -84757.97143673556, 58892.46569782087, 0.05, 0.96, 0.336, 192.0, 0.0, 0.0, 0.0, 0.0, 0.0, 0.0, 0.0, 0.0, 0.0, 1.7307453565090368E9, 0.0, 2024-11-04 15:35:56.509
240.0, -44098.11426378659, 41458.19442965918, -132272.6168957492, -125557.95169567487, -42183.59794421172, 187500.0, -84961.3052560455, 58482.51235276608, 0.05, 0.96, 0.336, 192.0, 0.0, 0.0, 0.0, 0.0, 0.0, 0.0, 0.0, 0.0, 0.0, 1.7307453565128212E9, 0.0, 2024-11-04 15:35:56.512
241.0, -44374.94061886557, 41282.241497307004, -132553.5336200635, -125865.19877495752, -42199.84766243073, 187500.0, -84990.6083930264, 58462.440486245214, 0.05, 0.96, 0.336, 192.0, 0.0, 0.0, 0.0, 0.0, 0.0, 0.0, 0.0, 0.0, 0.0, 1.7307453565170255E9, 0.0, 2024-11-04 15:35:56.517
242.0, -45350.99659573992, 41328.44255309612, -132824.07913495053, -125891.48442643696, -42757.9930732242, 187500.0, -85087.90553664036, 58585.59859819396, 0.05, 0.96, 0.336, 192.0, 0.0, 0.0, 0.0, 0.0, 0.0, 0.0, 0.0, 0.0, 0.0, 1.7307453565208485E9, 0.0, 2024-11-04 15:35:56.520
243.0, -45455.66981502412, 41627.039507274574, -132886.39579849195, -125887.97520255747, -43090.69878944144, 187500.0, -85375.9524674359, 58328.62059219129, 0.05, 0.96, 0.336, 192.0, 0.0, 0.0, 0.0, 0.0, 0.0, 0.0, 0.0, 0.0, 0.0, 1.7307453565248516E9, 0.0, 2024-11-04 15:35:56.524
244.0, -44731.294480716526, 41753.95271229181, -132951.5734853236, -126178.6819909432, -42821.494379221724, 187500.0, -85624.72738322346, 57873.829647759165, 0.05, 0.96, 0.336, 192.0, 0.0, 0.0, 0.0, 0.0, 0.0, 0.0, 0.0, 0.0, 0.0, 1.7307453565298803E9, 0.0, 2024-11-04 15:35:56.529
245.0, -44794.88519369187, 41565.37104432238, -133208.70795353747, -126526.74335560124, -42699.029171351096, 187500.0, -85661.87598250818, 57780.220541980336, 0.05, 0.96, 0.336, 192.0, 0.0, 0.0, 0.0, 0.0, 0.0, 0.0, 0.0, 0.0, 0.0, 1.7307453565330348E9, 0.0, 2024-11-04 15:35:56.533
246.0, -45759.54178089402, 41547.89198015833, -133503.63922162526, -126598.53715879169, -43217.947270625504, 187500.0, -85725.55610246136, 57934.224061277404, 0.05, 0.96, 0.336, 192.0, 0.0, 0.0, 0.0, 0.0, 0.0, 0.0, 0.0, 0.0, 0.0, 1.7307453565360355E9, 0.0, 2024-11-04 15:35:56.536
247.0, -46085.20669760784, 41832.54144579666, -133593.64969654675, -126563.69078918587, -43654.38743285983, 187500.0, -85990.33486727893, 57759.20990219235, 0.046, 0.9500000000000001, 0.342, 192.0, 1.0, 112.0, 29.0, 176.0, 10.0, 176.0, 0.0, 0.0, 0.0, 1.730745356540975E9, 0.0, 2024-11-04 15:35:56.540
248.0, -45399.43282597457, 42014.30583170722, -133636.8332668344, -126804.7320013919, -43437.30729070989, 187500.0, -86262.93674265585, 57297.17699255669, 0.046, 0.9500000000000001, 0.342, 192.0, 0.0, 0.0, 0.0, 0.0, 0.0, 0.0, 0.0, 0.0, 0.0, 1.7307453565450735E9, 0.0, 2024-11-04 15:35:56.545
249.0, -45236.3768501731, 41860.83875427709, -133859.41193812038, -127174.85453782733, -43237.259177834894, 187500.0, -86333.05416501214, 57127.08021725181, 0.046, 0.9500000000000001, 0.342, 192.0, 0.0, 0.0, 0.0, 0.0, 0.0, 0.0, 0.0, 0.0, 0.0, 1.7307453565489347E9, 0.0, 2024-11-04 15:35:56.548
250.0, -46135.87810228802, 41786.586259196556, -134170.63762791606, -127300.27017596606, -43667.39614813282, 187500.0, -86369.75572940776, 57279.25089350354, 0.046, 0.9500000000000001, 0.342, 192.0, 0.0, 0.0, 0.0, 0.0, 0.0, 0.0, 0.0, 0.0, 0.0, 1.7307453565528755E9, 0.0, 2024-11-04 15:35:56.552
251.0, -46676.61150415081, 42035.02589881729, -134299.60719342317, -127251.99040794259, -44173.909029234535, 187500.0, -86602.79501709879, 57184.12186910175, 0.046, 0.9500000000000001, 0.342, 192.0, 0.0, 0.0, 0.0, 0.0, 0.0, 0.0, 0.0, 0.0, 0.0, 1.730745356556996E9, 0.0, 2024-11-04 15:35:56.556
252.0, -46090.7275784883, 42260.95733177153, -134331.57018799428, -127437.62164564391, -44069.57108611716, 187500.0, -86898.28507879796, 56735.16472997245, 0.046, 0.9500000000000001, 0.342, 192.0, 0.0, 0.0, 0.0, 0.0, 0.0, 0.0, 0.0, 0.0, 0.0, 1.7307453565599685E9, 0.0, 2024-11-04 15:35:56.559
253.0, -45728.45050435668, 42143.85654257018, -134521.11298097527, -127818.38361244007, -43796.49982410668, 187500.0, -87002.64537365978, 56483.104107749954, 0.046, 0.9500000000000001, 0.342, 192.0, 0.0, 0.0, 0.0, 0.0, 0.0, 0.0, 0.0, 0.0, 0.0, 1.7307453565641181E9, 0.0, 2024-11-04 15:35:56.564
254.0, -46515.20955743904, 42012.74120959535, -134843.15691508734, -128001.98084139597, -44110.65359242602, 187500.0, -87021.53259772451, 56608.20682146631, 0.046, 0.9500000000000001, 0.342, 192.0, 0.0, 0.0, 0.0, 0.0, 0.0, 0.0, 0.0, 0.0, 0.0, 1.730745356568892E9, 0.0, 2024-11-04 15:35:56.568
255.0, -47234.91337715547, 42220.41126732961, -135012.29256538066, -127953.11992801666, -44688.31207612897, 187500.0, -87218.71968730923, 56593.789946292636, 0.046, 0.9500000000000001, 0.342, 192.0, 0.0, 0.0, 0.0, 0.0, 0.0, 0.0, 0.0, 0.0, 0.0, 1.7307453565728817E9, 0.0, 2024-11-04 15:35:56.572
0.0, -46788.996075272094, 42497.17056717522, -135033.79494354664, -128076.6803713656, -44700.15850069028, 187500.0, -87524.40214448002, 56177.64516802373, 0.046, 0.9500000000000001, 0.342, 192.0, 0.0, 0.0, 0.0, 0.0, 0.0, 0.0, 0.0, 0.0, 0.0, 1.7307453565770519E9, 0.0, 2024-11-04 15:35:56.577
1.0, -46268.22278120789, 42430.27179602049, -135185.85386107612, -128456.12358523889, -44363.78709838237, 187500.0, -87660.32310251273, 55853.88014958861, 0.048, 0.9540000000000001, 0.338, 192.0, 1.0, 128.0, 29.0, 208.0, 10.0, 144.0, 0.0, 0.0, 0.0, 1.7307453565811024E9, 0.0, 2024-11-04 15:35:56.581
2.0, -46889.19894566524, 42260.21972420451, -135500.54407126238, -128693.81203577663, -44568.41731887071, 187500.0, -87668.92852412803, 55944.181197188045, 0.048, 0.9540000000000001, 0.338, 192.0, 0.0, 0.0, 0.0, 0.0, 0.0, 0.0, 0.0, 0.0, 0.0, 1.7307453565840473E9, 0.0, 2024-11-04 15:35:56.584
3.0, -47742.18621756866, 42417.710115636604, -135711.36572496482, -128660.57499177159, -45180.5645442682, 187500.0, -87831.96214818503, 55996.43957572456, 0.048, 0.9540000000000001, 0.338, 192.0, 0.0, 0.0, 0.0, 0.0, 0.0, 0.0, 0.0, 0.0, 0.0, 1.7307453565883896E9, 0.0, 2024-11-04 15:35:56.588
4.0, -47493.29954305882, 42712.01553487963, -135744.06632710295, -128729.10544027155, -45301.66629572705, 187500.0, -88139.43274491224, 55624.68536194389, 0.048, 0.9540000000000001, 0.338, 192.0, 0.0, 0.0, 0.0, 0.0, 0.0, 0.0, 0.0, 0.0, 0.0, 1.7307453565923169E9, 0.0, 2024-11-04 15:35:56.592
5.0, -46852.36327080289, 42709.847415667464, -135862.3741105049, -129084.49817711095, -44966.32307366408, 187500.0, -88316.83854065402, 55240.70474394617, 0.048, 0.9540000000000001, 0.338, 192.0, 0.0, 0.0, 0.0, 0.0, 0.0, 0.0, 0.0, 0.0, 0.0, 1.7307453565971975E9, 0.0, 2024-11-04 15:35:56.597
6.0, -47271.12320317307, 42521.4892651426, -136161.21693387235, -129368.76766309353, -45055.2830165962, 187500.0, -88330.00371813819, 55273.51710480656, 0.048, 0.9540000000000001, 0.338, 192.0, 0.0, 0.0, 0.0, 0.0, 0.0, 0.0, 0.0, 0.0, 0.0, 1.730745356601009E9, 0.0, 2024-11-04 15:35:56.601
7.0, -48216.199662232364, 42612.058533675496, -136409.5448147708, -129366.17486073672, -45642.53039867048, 187500.0, -88449.80906841863, 55378.16797234631, 0.048, 0.9540000000000001, 0.338, 192.0, 0.0, 0.0, 0.0, 0.0, 0.0, 0.0, 0.0, 0.0, 0.0, 1.7307453566051612E9, 0.0, 2024-11-04 15:35:56.605
8.0, -48181.84503100455, 42909.940232031375, -136456.08114672676, -129385.2408987571, -45890.947686546766, 187500.0, -88744.67328127305, 55078.67694838965, 0.048, 0.9540000000000001, 0.338, 192.0, 0.0, 0.0, 0.0, 0.0, 0.0, 0.0, 0.0, 0.0, 0.0, 1.7307453566091025E9, 0.0, 2024-11-04 15:35:56.609
9.0, -47471.01485383688, 42984.88563119002, -136539.94489192308, -129703.8650159675, -45587.96979045508, 187500.0, -88964.74855718, 54652.67505081595, 0.048, 0.9540000000000001, 0.338, 192.0, 0.0, 0.0, 0.0, 0.0, 0.0, 0.0, 0.0, 0.0, 0.0, 1.730745356613103E9, 0.0, 2024-11-04 15:35:56.613
10.0, -47672.33701614583, 42791.31952420706, -136815.96658420164, -130030.22283675944, -45537.36544100827, 187500.0, -88987.32381907986, 54609.67029448394, 0.048, 0.9540000000000001, 0.338, 192.0, 0.0, 0.0, 0.0, 0.0, 0.0, 0.0, 0.0, 0.0, 0.0, 1.7307453566161597E9, 0.0, 2024-11-04 15:35:56.616
11.0, -48647.85655115325, 42815.54881519661, -137098.4702823723, -130070.38892154563, -46089.18530812089, 187500.0, -89071.52284044301, 54749.83808396317, 0.05, 0.9500000000000001, 0.338, 192.0, 1.0, 144.0, 29.0, 176.0, 10.0, 144.0, 0.0, 0.0, 0.0, 1.730745356620044E9, 0.0, 2024-11-04 15:35:56.620
12.0, -48840.10390521335, 43107.84257743866, -137173.5274402532, -130051.0993660807, -46470.01433015041, 187500.0, -89351.836067657, 54526.23123243228, 0.05, 0.9500000000000001, 0.338, 192.0, 0.0, 0.0, 0.0, 0.0, 0.0, 0.0, 0.0, 0.0, 0.0, 1.7307453566240237E9, 0.0, 2024-11-04 15:35:56.624
13.0, -48135.19694032633, 43240.07549763626, -137232.0443072372, -130328.37275604878, -46206.06257987769, 187500.0, -89602.68969567891, 54071.529694977966, 0.05, 0.9500000000000001, 0.338, 192.0, 0.0, 0.0, 0.0, 0.0, 0.0, 0.0, 0.0, 0.0, 0.0, 1.7307453566289845E9, 0.0, 2024-11-04 15:35:56.628
14.0, -48113.76161739369, 43058.82520184818, -137478.62875206815, -130687.56528944556, -46053.33311001457, 187500.0, -89649.78482124626, 53951.34436504178, 0.05, 0.9500000000000001, 0.338, 192.0, 0.0, 0.0, 0.0, 0.0, 0.0, 0.0, 0.0, 0.0, 0.0, 1.7307453566329715E9, 0.0, 2024-11-04 15:35:56.632
15.0, -49047.282224569586, 43040.09443999463, -137780.9137440817, -130771.3172759196, -46560.51654344994, 187500.0, -89713.42023771051, 54105.25847736102, 0.05, 0.9500000000000001, 0.338, 192.0, 0.0, 0.0, 0.0, 0.0, 0.0, 0.0, 0.0, 0.0, 0.0, 1.7307453566370635E9, 0.0, 2024-11-04 15:35:56.637
16.0, -49458.286101613776, 43315.199710750545, -137885.27403894355, -130727.64196725393, -47021.11894144046, 187500.0, -89965.57026691083, 53962.83316169181, 0.05, 0.9500000000000001, 0.338, 192.0, 0.0, 0.0, 0.0, 0.0, 0.0, 0.0, 0.0, 0.0, 0.0, 1.730745356640154E9, 0.0, 2024-11-04 15:35:56.640
17.0, -48835.99118423357, 43467.70566316911, -137927.18355979724, -130960.97182762288, -46814.588822673424, 187500.0, -90223.55410141399, 53516.75939759724, 0.05, 0.9500000000000001, 0.338, 192.0, 0.0, 0.0, 0.0, 0.0, 0.0, 0.0, 0.0, 0.0, 0.0, 1.7307453566440368E9, 0.0, 2024-11-04 15:35:56.644
18.0, -48595.35230342774, 43317.43488519608, -138139.2569111892, -131338.24692228402, -46585.639904217715, 187500.0, -90302.47811108567, 53319.34879056797, 0.05, 0.9500000000000001, 0.338, 192.0, 0.0, 0.0, 0.0, 0.0, 0.0, 0.0, 0.0, 0.0, 0.0, 1.7307453566480744E9, 0.0, 2024-11-04 15:35:56.648
19.0, -49424.0655808527, 43274.720701541984, -138451.80135390777, -131470.4351389927, -47002.18701388681, 187500.0, -90357.50810593464, 53451.089972387555, 0.05, 0.9500000000000001, 0.338, 192.0, 0.0, 0.0, 0.0, 0.0, 0.0, 0.0, 0.0, 0.0, 0.0, 1.7307453566530726E9, 0.0, 2024-11-04 15:35:56.653
20.0, -50042.24777725313, 43507.91645144421, -138598.9652394015, -131420.07665873488, -47535.432581357076, 187500.0, -90577.29280916367, 53389.13093675744, 0.05, 0.9500000000000001, 0.338, 192.0, 0.0, 0.0, 0.0, 0.0, 0.0, 0.0, 0.0, 0.0, 0.0, 1.7307453566571467E9, 0.0, 2024-11-04 15:35:56.657
21.0, -49527.57650942523, 43716.12295104539, -138631.19645490605, -131591.2016142847, -47455.74861237391, 187500.0, -90859.41652767856, 52961.63147230524, 0.048, 0.9520000000000001, 0.34, 192.0, 1.0, 128.0, 29.0, 192.0, 10.0, 160.0, 0.0, 0.0, 0.0, 1.7307453566611683E9, 0.0, 2024-11-04 15:35:56.661
22.0, -49095.07025421504, 43622.91617666676, -138808.64695413673, -131971.87417410305, -47153.82124827162, 187500.0, -90977.94782852505, 52678.56898052323, 0.048, 0.9520000000000001, 0.34, 192.0, 0.0, 0.0, 0.0, 0.0, 0.0, 0.0, 0.0, 0.0, 0.0, 1.730745356665215E9, 0.0, 2024-11-04 15:35:56.665
23.0, -49816.495158254525, 43484.5141749995, -139128.1874928698, -132173.06222594526, -47428.65829809407, 187500.0, -90994.89045082217, 52794.32866505726, 0.048, 0.9520000000000001, 0.34, 192.0, 0.0, 0.0, 0.0, 0.0, 0.0, 0.0, 0.0, 0.0, 0.0, 1.7307453566682496E9, 0.0, 2024-11-04 15:35:56.668
24.0, -50595.72167345544, 43663.775165531064, -139314.75750383825, -132128.89517890158, -48022.03005814911, 187500.0, -91173.25737157553, 52815.00402867843, 0.048, 0.9520000000000001, 0.34, 192.0, 0.0, 0.0, 0.0, 0.0, 0.0, 0.0, 0.0, 0.0, 0.0, 1.730745356672212E9, 0.0, 2024-11-04 15:35:56.672
25.0, -50221.553471273604, 43943.73076483378, -139340.9313965954, -132230.43915396204, -48069.527515116635, 187500.0, -91477.95635199027, 52413.67845698338, 0.048, 0.9520000000000001, 0.34, 192.0, 0.0, 0.0, 0.0, 0.0, 0.0, 0.0, 0.0, 0.0, 0.0, 1.7307453566760497E9, 0.0, 2024-11-04 15:35:56.676
26.0, -49639.67050786859, 43912.75124701873, -139479.19928779596, -132598.57238514096, -47733.42433374219, 187500.0, -91636.05024052266, 52060.990281223094, 0.048, 0.9520000000000001, 0.34, 192.0, 0.0, 0.0, 0.0, 0.0, 0.0, 0.0, 0.0, 0.0, 0.0, 1.730745356680411E9, 0.0, 2024-11-04 15:35:56.680
27.0, -50190.305732525085, 43727.052954084036, -139789.21798339105, -132855.99742603273, -47893.842803697924, 187500.0, -91642.1299150145, 52135.801569915006, 0.048, 0.9520000000000001, 0.34, 192.0, 0.0, 0.0, 0.0, 0.0, 0.0, 0.0, 0.0, 0.0, 0.0, 1.7307453566851528E9, 0.0, 2024-11-04 15:35:56.685
28.0, -51092.77976665256, 43851.283949766635, -140017.00461113508, -132835.0091379892, -48492.757796377875, 187500.0, -91787.75153014083, 52211.41752140731, 0.048, 0.9520000000000001, 0.34, 192.0, 0.0, 0.0, 0.0, 0.0, 0.0, 0.0, 0.0, 0.0, 0.0, 1.7307453566891737E9, 0.0, 2024-11-04 15:35:56.689
29.0, -50920.716037835606, 44154.50771504733, -140053.48265808614, -132882.6630571679, -48665.581484506314, 187500.0, -92094.75274023447, 51865.1442963057, 0.048, 0.9520000000000001, 0.34, 192.0, 0.0, 0.0, 0.0, 0.0, 0.0, 0.0, 0.0, 0.0, 0.0, 1.7307453566919775E9, 0.0, 2024-11-04 15:35:56.691
30.0, -50241.22300639427, 44187.45418637445, -140156.09951688047, -133224.42122988956, -48347.22558822937, 187500.0, -92292.65508564176, 51464.17635252194, 0.048, 0.9520000000000001, 0.34, 192.0, 0.0, 0.0, 0.0, 0.0, 0.0, 0.0, 0.0, 0.0, 0.0, 1.7307453566962423E9, 0.0, 2024-11-04 15:35:56.696
31.0, -50580.746004670385, 43991.719960179325, -140446.2475116548, -133528.1143818038, -48372.594818186146, 187500.0, -92307.02725732652, 51470.054861313685, 0.048, 0.9520000000000001, 0.34, 192.0, 0.0, 0.0, 0.0, 0.0, 0.0, 0.0, 0.0, 0.0, 0.0, 1.7307453567002282E9, 0.0, 2024-11-04 15:35:56.700
32.0, -51547.43660061796, 44054.05897546518, -140707.91938399308, -133540.98898661006, -48944.17362739726, 187500.0, -92412.59454638894, 51594.35291222965, 0.05, 0.9480000000000001, 0.34400000000000003, 192.0, 1.0, 144.0, 29.0, 160.0, 10.0, 192.0, 0.0, 0.0, 0.0, 1.7307453567040107E9, 0.0, 2024-11-04 15:35:56.704
33.0, -51595.02346456331, 44360.277874502885, -140761.63062591918, -133540.2737307875, -49258.26034048323, 187500.0, -92708.17401506592, 51325.0143915432, 0.05, 0.9480000000000001, 0.34400000000000003, 192.0, 0.0, 0.0, 0.0, 0.0, 0.0, 0.0, 0.0, 0.0, 0.0, 1.7307453567081697E9, 0.0, 2024-11-04 15:35:56.708
34.0, -50883.76860425098, 44444.722765055034, -140834.25144365447, -133847.90078972589, -48952.44377284572, 187500.0, -92932.54082590829, 50888.93185722016, 0.05, 0.9480000000000001, 0.34400000000000003, 192.0, 0.0, 0.0, 0.0, 0.0, 0.0, 0.0, 0.0, 0.0, 0.0, 1.7307453567131767E9, 0.0, 2024-11-04 15:35:56.713
35.0, -50995.75084397207, 44255.09056509621, -141101.10892070638, -134189.0778170917, -48857.270044955025, 187500.0, -92963.72150942344, 50815.48402494002, 0.05, 0.9480000000000001, 0.34400000000000003, 192.0, 0.0, 0.0, 0.0, 0.0, 0.0, 0.0, 0.0, 0.0, 0.0, 1.7307453567171066E9, 0.0, 2024-11-04 15:35:56.717
36.0, -51960.675652107675, 44264.90298091209, -141394.6767323824, -134245.20304741897, -49406.966496344394, 187500.0, -93044.07603074027, 50964.056070334445, 0.05, 0.9480000000000001, 0.34400000000000003, 192.0, 0.0, 0.0, 0.0, 0.0, 0.0, 0.0, 0.0, 0.0, 0.0, 1.730745356720096E9, 0.0, 2024-11-04 15:35:56.720
37.0, -52242.218225266726, 44548.09958316083, -141481.9379427359, -134216.45870404944, -49811.890698896736, 187500.0, -93314.10745550484, 50770.91464649614, 0.05, 0.9480000000000001, 0.34400000000000003, 192.0, 0.0, 0.0, 0.0, 0.0, 0.0, 0.0, 0.0, 0.0, 0.0, 1.7307453567240367E9, 0.0, 2024-11-04 15:35:56.724
38.0, -51550.789362286254, 44704.67355307026, -141531.1564840265, -134472.20736410707, -49569.84365819021, 187500.0, -93574.48292666471, 50312.27920201769, 0.05, 0.9480000000000001, 0.34400000000000003, 192.0, 0.0, 0.0, 0.0, 0.0, 0.0, 0.0, 0.0, 0.0, 0.0, 1.730745356728063E9, 0.0, 2024-11-04 15:35:56.728
39.0, -51432.61568935105, 44543.13749589175, -141762.07235599429, -134834.99852836115, -49397.668170650984, 187500.0, -93635.34672681651, 50162.25429323367, 0.05, 0.9480000000000001, 0.34400000000000003, 192.0, 0.0, 0.0, 0.0, 0.0, 0.0, 0.0, 0.0, 0.0, 0.0, 1.7307453567321284E9, 0.0, 2024-11-04 15:35:56.732
40.0, -52351.473552164265, 44476.17166950365, -142070.63818819978, -134945.72907039276, -49841.730277744566, 187500.0, -93674.17170693538, 50319.16353930993, 0.05, 0.9480000000000001, 0.34400000000000003, 192.0, 0.0, 0.0, 0.0, 0.0, 0.0, 0.0, 0.0, 0.0, 0.0, 1.7307453567360227E9, 0.0, 2024-11-04 15:35:56.736
41.0, -52848.1740174501, 44726.35474519191, -142192.45519548122, -134898.4998343587, -50326.33844928008, 187500.0, -93910.67551501698, 50207.136596099925, 0.05, 0.9480000000000001, 0.34400000000000003, 192.0, 0.0, 0.0, 0.0, 0.0, 0.0, 0.0, 0.0, 0.0, 0.0, 1.7307453567411492E9, 0.0, 2024-11-04 15:35:56.741
42.0, -52225.208547736234, 44953.49317234674, -142225.20050110825, -135091.9765343638, -50206.48839551072, 187500.0, -94202.56694585884, 49753.70910807957, 0.05, 0.9420000000000001, 0.34600000000000003, 192.0, 1.0, 144.0, 29.0, 112.0, 10.0, 208.0, 0.0, 0.0, 0.0, 1.7307453567452917E9, 0.0, 2024-11-04 15:35:56.745
43.0, -51908.260811359985, 44825.61884231793, -142424.13102676047, -135472.49263197096, -49941.016726615046, 187500.0, -94294.94670569262, 49520.87098608864, 0.05, 0.9420000000000001, 0.34600000000000003, 192.0, 0.0, 0.0, 0.0, 0.0, 0.0, 0.0, 0.0, 0.0, 0.0, 1.7307453567483008E9, 0.0, 2024-11-04 15:35:56.748
44.0, -52727.60870785818, 44701.34314314641, -142748.11956264015, -135643.2152561206, -50278.93039929037, 187500.0, -94314.23626115755, 49658.848304611245, 0.05, 0.9420000000000001, 0.34600000000000003, 192.0, 0.0, 0.0, 0.0, 0.0, 0.0, 0.0, 0.0, 0.0, 0.0, 1.7307453567521937E9, 0.0, 2024-11-04 15:35:56.752
45.0, -53406.74411138822, 44920.256128341694, -142910.59439308578, -135591.02393281745, -50854.26430156998, 187500.0, -94520.85578690241, 49631.28860369785, 0.05, 0.9420000000000001, 0.34600000000000003, 192.0, 0.0, 0.0, 0.0, 0.0, 0.0, 0.0, 0.0, 0.0, 0.0, 1.7307453567560704E9, 0.0, 2024-11-04 15:35:56.756
46.0, -52928.72970446703, 45179.1116808786, -142937.1929689876, -135729.87296937383, -50830.07971406934, 187500.0, -94822.85020623806, 49204.4149880904, 0.05, 0.9420000000000001, 0.34600000000000003, 192.0, 0.0, 0.0, 0.0, 0.0, 0.0, 0.0, 0.0, 0.0, 0.0, 1.730745356760139E9, 0.0, 2024-11-04 15:35:56.760
47.0, -52439.47237008481, 45098.377179906034, -143098.93019186618, -136110.18790128088, -50498.4692333304, 187500.0, -94950.56807405569, 48896.139728562805, 0.05, 0.9420000000000001, 0.34600000000000003, 192.0, 0.0, 0.0, 0.0, 0.0, 0.0, 0.0, 0.0, 0.0, 0.0, 1.7307453567641163E9, 0.0, 2024-11-04 15:35:56.764
48.0, -53092.12095643532, 44947.14527692143, -143413.1510154189, -136330.10671497663, -50740.136294381184, 187500.0, -94961.87805675007, 49000.52237516909, 0.05, 0.9420000000000001, 0.34600000000000003, 192.0, 0.0, 0.0, 0.0, 0.0, 0.0, 0.0, 0.0, 0.0, 0.0, 1.7307453567681065E9, 0.0, 2024-11-04 15:35:56.768
49.0, -53923.78466412838, 45110.268307956256, -143615.56841320617, -136291.43819706896, -51338.02310681619, 187500.0, -95126.76687559688, 49042.2754338116, 0.05, 0.9420000000000001, 0.34600000000000003, 192.0, 0.0, 0.0, 0.0, 0.0, 0.0, 0.0, 0.0, 0.0, 0.0, 1.7307453567731369E9, 0.0, 2024-11-04 15:35:56.773
50.0, -53635.3130501882, 45385.015950800895, -143648.49253278883, -136377.1347853106, -51419.96460198935, 187500.0, -95425.00620186403, 48663.905103672165, 0.05, 0.9420000000000001, 0.34600000000000003, 192.0, 0.0, 0.0, 0.0, 0.0, 0.0, 0.0, 0.0, 0.0, 0.0, 1.7307453567761967E9, 0.0, 2024-11-04 15:35:56.776
51.0, -53009.620667650786, 45373.10247100621, -143773.4834877829, -136737.3331472079, -51091.30455151851, 187500.0, -95597.1146341699, 48295.615410282066, 0.05, 0.9420000000000001, 0.34600000000000003, 192.0, 0.0, 0.0, 0.0, 0.0, 0.0, 0.0, 0.0, 0.0, 0.0, 1.7307453567803354E9, 0.0, 2024-11-04 15:35:56.780
52.0, -53471.832391242075, 45195.361399097616, -144078.87537227577, -137008.7950836176, -51209.23235526471, 187500.0, -95615.19719543424, 48339.00014626982, 0.044, 0.9500000000000001, 0.34, 192.0, 1.0, 96.0, 29.0, 176.0, 10.0, 160.0, 0.0, 0.0, 0.0, 1.730745356784161E9, 0.0, 2024-11-04 15:35:56.784
53.0, -54398.64747508139, 45309.84703419769, -144321.79413101604, -136995.92047881134, -51805.39808337666, 187500.0, -95750.78287730014, 48429.12237991362, 0.044, 0.9500000000000001, 0.34, 192.0, 0.0, 0.0, 0.0, 0.0, 0.0, 0.0, 0.0, 0.0, 0.0, 1.7307453567881708E9, 0.0, 2024-11-04 15:35:56.788
54.0, -54320.93045961028, 45597.13400568176, -144365.20121874826, -137027.36938325994, -52024.66869648322, 187500.0, -96041.17674126348, 48120.3106785191, 0.044, 0.9500000000000001, 0.34, 192.0, 0.0, 0.0, 0.0, 0.0, 0.0, 0.0, 0.0, 0.0, 0.0, 1.7307453567921488E9, 0.0, 2024-11-04 15:35:56.792
55.0, -53642.353849691615, 45613.339020411855, -144458.87737976044, -137367.2276577029, -51682.55289585029, 187500.0, -96231.05481041131, 47714.55946142191, 0.044, 0.9500000000000001, 0.34, 192.0, 0.0, 0.0, 0.0, 0.0, 0.0, 0.0, 0.0, 0.0, 0.0, 1.730745356797228E9, 0.0, 2024-11-04 15:35:56.797
56.0, -53877.67301531709, 45441.38705031718, -144737.49187439584, -137679.01214110997, -51671.689948045016, 187500.0, -96261.58729333727, 47685.032806996445, 0.044, 0.9500000000000001, 0.34, 192.0, 0.0, 0.0, 0.0, 0.0, 0.0, 0.0, 0.0, 0.0, 0.0, 1.730745356800172E9, 0.0, 2024-11-04 15:35:56.800
57.0, -54826.973954078436, 45524.401429224185, -145007.32213346031, -137695.3065628179, -52265.95577787826, 187500.0, -96375.8941144817, 47812.30363992496, 0.044, 0.9500000000000001, 0.34, 192.0, 0.0, 0.0, 0.0, 0.0, 0.0, 0.0, 0.0, 0.0, 0.0, 1.7307453568031433E9, 0.0, 2024-11-04 15:35:56.803
58.0, -54985.872505411215, 45790.36483649789, -145075.15967788215, -137689.36099879278, -52591.687749825454, 187500.0, -96646.73020204666, 47581.54423016837, 0.044, 0.9500000000000001, 0.34, 192.0, 0.0, 0.0, 0.0, 0.0, 0.0, 0.0, 0.0, 0.0, 0.0, 1.7307453568082356E9, 0.0, 2024-11-04 15:35:56.808
59.0, -54280.898485290825, 45892.624067380915, -145142.34902171482, -137980.20189764522, -52298.52226954964, 187500.0, -96884.12807990648, 47134.33052710659, 0.044, 0.9500000000000001, 0.34, 192.0, 0.0, 0.0, 0.0, 0.0, 0.0, 0.0, 0.0, 0.0, 0.0, 1.7307453568124142E9, 0.0, 2024-11-04 15:35:56.812
60.0, -54295.874154075886, 45726.61766131135, -145396.75657710512, -138328.86675940358, -52188.2164106627, 187500.0, -96936.25234797626, 47028.718534555264, 0.044, 0.9500000000000001, 0.34, 192.0, 0.0, 0.0, 0.0, 0.0, 0.0, 0.0, 0.0, 0.0, 0.0, 1.730745356816275E9, 0.0, 2024-11-04 15:35:56.816
61.0, -55255.97098540914, 45698.99090516459, -145697.9910371293, -138408.9754115314, -52692.80704174126, 187500.0, -96995.28330508272, 47185.51602190924, 0.044, 0.9500000000000001, 0.34, 192.0, 0.0, 0.0, 0.0, 0.0, 0.0, 0.0, 0.0, 0.0, 0.0, 1.7307453568203657E9, 0.0, 2024-11-04 15:35:56.820
62.0, -55631.30147830266, 45957.019443156656, -145799.13268078957, -138375.6489605485, -53120.619430615836, 187500.0, -97245.64519472662, 47027.86916826596, 0.044, 0.9520000000000001, 0.336, 192.0, 1.0, 96.0, 29.0, 192.0, 10.0, 128.0, 0.0, 0.0, 0.0, 1.7307453568241837E9, 0.0, 2024-11-04 15:35:56.824
63.0, -54951.22730150549, 46149.55736989467, -145841.64569874355, -138605.7601697159, -52932.842425446805, 187500.0, -97525.33257309587, 46568.27259877594, 0.044, 0.9520000000000001, 0.336, 192.0, 0.0, 0.0, 0.0, 0.0, 0.0, 0.0, 0.0, 0.0, 0.0, 1.7307453568283288E9, 0.0, 2024-11-04 15:35:56.828
64.0, -54746.708839739425, 46005.99211525823, -146057.18357052607, -138973.24520030562, -52719.137396709615, 187500.0, -97599.24979200958, 46386.64232333211, 0.044, 0.9520000000000001, 0.336, 192.0, 0.0, 0.0, 0.0, 0.0, 0.0, 0.0, 0.0, 0.0, 0.0, 1.7307453568312323E9, 0.0, 2024-11-04 15:35:56.831
65.0, -55640.085713873596, 45908.31499198854, -146373.12547840184, -139108.56266123804, -53114.42799740172, 187500.0, -97625.82601616693, 46541.07052577383, 0.044, 0.9520000000000001, 0.336, 192.0, 0.0, 0.0, 0.0, 0.0, 0.0, 0.0, 0.0, 0.0, 0.0, 1.7307453568361924E9, 0.0, 2024-11-04 15:35:56.836
66.0, -56214.100863230335, 46142.60597736907, -146510.2310788907, -139057.8689048134, -53639.93986129044, 187500.0, -97851.0421932986, 46466.169830104096, 0.044, 0.9520000000000001, 0.336, 192.0, 0.0, 0.0, 0.0, 0.0, 0.0, 0.0, 0.0, 0.0, 0.0, 1.7307453568403213E9, 0.0, 2024-11-04 15:35:56.840
67.0, -55639.90689991795, 46385.41297738707, -146538.48368388222, -139230.9608138753, -53558.400697517485, 187500.0, -98150.77908644428, 46022.867682321994, 0.044, 0.9520000000000001, 0.336, 192.0, 0.0, 0.0, 0.0, 0.0, 0.0, 0.0, 0.0, 0.0, 0.0, 1.730745356844434E9, 0.0, 2024-11-04 15:35:56.844
68.0, -55249.19840683918, 46278.459880168426, -146723.7349419278, -139614.18147256155, -53262.15067650684, 187500.0, -98259.5426749638, 45757.9995105266, 0.044, 0.9520000000000001, 0.336, 192.0, 0.0, 0.0, 0.0, 0.0, 0.0, 0.0, 0.0, 0.0, 0.0, 1.7307453568482535E9, 0.0, 2024-11-04 15:35:56.848
69.0, -56011.594058465256, 46137.71094533336, -147045.8012277843, -139805.4006463767, -53562.17814233043, 187500.0, -98273.445460015, 45886.92437254481, 0.044, 0.9520000000000001, 0.336, 192.0, 0.0, 0.0, 0.0, 0.0, 0.0, 0.0, 0.0, 0.0, 0.0, 1.730745356852173E9, 0.0, 2024-11-04 15:35:56.852
70.0, -56750.98976504681, 46338.25079658637, -147223.43054097064, -139755.489201008, -54152.24184420608, 187500.0, -98468.01739549845, 45886.52204114462, 0.044, 0.9520000000000001, 0.336, 192.0, 0.0, 0.0, 0.0, 0.0, 0.0, 0.0, 0.0, 0.0, 0.0, 1.7307453568562598E9, 0.0, 2024-11-04 15:35:56.856
71.0, -56342.8469112929, 46599.74385496901, -147251.07964886187, -139871.51710647548, -54161.070783265925, 187500.0, -98767.57547468848, 45477.59687633478, 0.044, 0.9520000000000001, 0.336, 192.0, 0.0, 0.0, 0.0, 0.0, 0.0, 0.0, 0.0, 0.0, 0.0, 1.7307453568593712E9, 0.0, 2024-11-04 15:35:56.859
72.0, -55793.463384325914, 46542.18811299659, -147398.37764482232, -140244.6571284124, -53825.45934026949, 187500.0, -98908.50322347919, 45147.238093285334, 0.042, 0.9460000000000001, 0.332, 192.0, 1.0, 80.0, 29.0, 144.0, 10.0, 96.0, 0.0, 0.0, 0.0, 1.7307453568642168E9, 0.0, 2024-11-04 15:35:56.864
73.0, -56374.966368075184, 46376.248762160394, -147711.07854975207, -140486.63711388555, -54019.383075163736, 187500.0, -98922.38365678593, 45229.55956811423, 0.042, 0.9460000000000001, 0.332, 192.0, 0.0, 0.0, 0.0, 0.0, 0.0, 0.0, 0.0, 0.0, 0.0, 1.7307453568682437E9, 0.0, 2024-11-04 15:35:56.868
74.0, -57250.10421873382, 46514.06961847182, -147930.23740413637, -140459.52444786124, -54610.117329373046, 187500.0, -99071.64860625847, 45294.558440990266, 0.042, 0.9460000000000001, 0.332, 192.0, 0.0, 0.0, 0.0, 0.0, 0.0, 0.0, 0.0, 0.0, 0.0, 1.7307453568723383E9, 0.0, 2024-11-04 15:35:56.872
75.0, -57032.84526262823, 46804.35172371289, -147967.40835516553, -140520.94704162443, -54752.34147934216, 187500.0, -99373.73243257195, 44940.104477418005, 0.042, 0.9460000000000001, 0.332, 192.0, 0.0, 0.0, 0.0, 0.0, 0.0, 0.0, 0.0, 0.0, 0.0, 1.7307453568763008E9, 0.0, 2024-11-04 15:35:56.876
76.0, -56371.79242036253, 46815.773465129554, -148082.13985945462, -140872.33881620632, -54428.062370784566, 187500.0, -99561.26356855198, 44551.00530994002, 0.042, 0.9460000000000001, 0.332, 192.0, 0.0, 0.0, 0.0, 0.0, 0.0, 0.0, 0.0, 0.0, 0.0, 1.7307453568804889E9, 0.0, 2024-11-04 15:35:56.880
77.0, -56754.96837555985, 46625.202491903605, -148380.24507525505, -141165.5713517155, -54480.81248769909, 187500.0, -99574.87578092526, 44569.35609213783, 0.042, 0.9460000000000001, 0.332, 192.0, 0.0, 0.0, 0.0, 0.0, 0.0, 0.0, 0.0, 0.0, 0.0, 1.7307453568844807E9, 0.0, 2024-11-04 15:35:56.884
78.0, -57709.14199461246, 46700.61727769581, -148637.42424695782, -141170.06405235102, -55062.65074761519, 187500.0, -99687.48386949109, 44685.33929411641, 0.042, 0.9460000000000001, 0.332, 192.0, 0.0, 0.0, 0.0, 0.0, 0.0, 0.0, 0.0, 0.0, 0.0, 1.7307453568874297E9, 0.0, 2024-11-04 15:35:56.887
79.0, -57707.10798586703, 46999.3930458299, -148689.1908871163, -141180.30115131155, -55343.880396351866, 187500.0, -99981.65517826739, 44402.25445058995, 0.042, 0.9460000000000001, 0.332, 192.0, 0.0, 0.0, 0.0, 0.0, 0.0, 0.0, 0.0, 0.0, 0.0, 1.7307453568924003E9, 0.0, 2024-11-04 15:35:56.892
80.0, -56995.11551798767, 47073.19850602133, -148769.27718749968, -141493.73966380832, -55027.402046609175, 187500.0, -100200.7022739294, 43973.01155007024, 0.042, 0.9460000000000001, 0.332, 192.0, 0.0, 0.0, 0.0, 0.0, 0.0, 0.0, 0.0, 0.0, 0.0, 1.7307453568964155E9, 0.0, 2024-11-04 15:35:56.896
81.0, -57152.27063325294, 46886.06970144149, -149041.1191035651, -141824.1655020911, -54963.274891766894, 187500.0, -100229.13369287655, 43918.71916278829, 0.042, 0.9460000000000001, 0.332, 192.0, 0.0, 0.0, 0.0, 0.0, 0.0, 0.0, 0.0, 0.0, 0.0, 1.7307453569004076E9, 0.0, 2024-11-04 15:35:56.900
82.0, -58122.53750831336, 46900.95596324873, -149327.93668841562, -141871.97588348103, -55517.62050600297, 187500.0, -100308.99647581537, 44067.53707737173, 0.046, 0.9460000000000001, 0.336, 192.0, 1.0, 112.0, 29.0, 144.0, 10.0, 128.0, 0.0, 0.0, 0.0, 1.7307453569044263E9, 0.0, 2024-11-04 15:35:56.904
83.0, -58357.63315649428, 47177.11176599405, -149410.07934928886, -141851.8369617268, -55891.52048725134, 187500.0, -100578.06677556835, 43859.48703998173, 0.046, 0.9460000000000001, 0.336, 192.0, 0.0, 0.0, 0.0, 0.0, 0.0, 0.0, 0.0, 0.0, 0.0, 1.7307453569085221E9, 0.0, 2024-11-04 15:35:56.908
84.0, -57650.33455495055, 47324.588575910166, -149467.81390521693, -142118.4485695897, -55641.91855691893, 187500.0, -100836.56470019398, 43404.137301938215, 0.046, 0.9460000000000001, 0.336, 192.0, 0.0, 0.0, 0.0, 0.0, 0.0, 0.0, 0.0, 0.0, 0.0, 1.73074535691227E9, 0.0, 2024-11-04 15:35:56.912
85.0, -57576.90907441486, 47163.09722222057, -149707.24579182218, -142476.23294308578, -55492.74301442421, 187500.0, -100894.05338693302, 43275.19008817555, 0.046, 0.9460000000000001, 0.336, 192.0, 0.0, 0.0, 0.0, 0.0, 0.0, 0.0, 0.0, 0.0, 0.0, 1.730745356915366E9, 0.0, 2024-11-04 15:35:56.915
86.0, -58519.03510320606, 47104.2674308142, -150016.660990317, -142577.3522350016, -55950.3055751688, 187500.0, -100937.39341943186, 43435.27328196446, 0.046, 0.9460000000000001, 0.336, 192.0, 0.0, 0.0, 0.0, 0.0, 0.0, 0.0, 0.0, 0.0, 0.0, 1.7307453569204352E9, 0.0, 2024-11-04 15:35:56.920
87.0, -58973.669585427, 47354.56226522473, -150132.4430265955, -142533.2969466802, -56416.294743573046, 187500.0, -101177.71937581533, 43309.76823684791, 0.046, 0.9460000000000001, 0.336, 192.0, 0.0, 0.0, 0.0, 0.0, 0.0, 0.0, 0.0, 0.0, 0.0, 1.7307453569242592E9, 0.0, 2024-11-04 15:35:56.924
88.0, -58322.60797293282, 47569.206067229046, -150166.61884386765, -142737.3907253016, -56275.29993954897, 187500.0, -101465.76630661087, 42858.53121978417, 0.046, 0.9460000000000001, 0.336, 192.0, 0.0, 0.0, 0.0, 0.0, 0.0, 0.0, 0.0, 0.0, 0.0, 1.7307453569284134E9, 0.0, 2024-11-04 15:35:56.928
89.0, -58046.072190531755, 47426.95956551547, -150371.40552656716, -143113.83880541788, -56016.4220352676, 187500.0, -101547.93131922858, 42646.323757925486, 0.046, 0.9460000000000001, 0.336, 192.0, 0.0, 0.0, 0.0, 0.0, 0.0, 0.0, 0.0, 0.0, 0.0, 1.7307453569323847E9, 0.0, 2024-11-04 15:35:56.932
90.0, -58887.570665785155, 47322.353401464636, -150690.02964377758, -143267.6188072704, -56380.68841465574, 187500.0, -101574.23932245247, 42788.65966661688, 0.046, 0.9460000000000001, 0.336, 192.0, 0.0, 0.0, 0.0, 0.0, 0.0, 0.0, 0.0, 0.0, 0.0, 1.7307453569354873E9, 0.0, 2024-11-04 15:35:56.935
91.0, -59516.59345824641, 47565.696843349564, -150841.17213978435, -143208.78901586402, -56952.58014828923, 187500.0, -101797.35443560535, 42742.03392768311, 0.046, 0.9460000000000001, 0.336, 192.0, 0.0, 0.0, 0.0, 0.0, 0.0, 0.0, 0.0, 0.0, 0.0, 1.7307453569393036E9, 0.0, 2024-11-04 15:35:56.939
92.0, -59021.658780772545, 47781.301770365455, -150871.61521573248, -143368.089898597, -56876.07012701871, 187500.0, -102082.74150881071, 42318.33425978831, 0.052000000000000005, 0.9420000000000001, 0.34, 192.0, 1.0, 160.0, 29.0, 112.0, 10.0, 160.0, 0.0, 0.0, 0.0, 1.7307453569434433E9, 0.0, 2024-11-04 15:35:56.943
93.0, -58582.558760948035, 47659.68592878413, -151046.02587771724, -143755.8256096632, -56542.537396256615, 187500.0, -102190.87924848548, 42032.65661390503, 0.052000000000000005, 0.9420000000000001, 0.34, 192.0, 0.0, 0.0, 0.0, 0.0, 0.0, 0.0, 0.0, 0.0, 0.0, 1.7307453569483168E9, 0.0, 2024-11-04 15:35:56.948
94.0, -59244.21510031404, 47562.411136914634, -151360.8278466258, -143951.0680974803, -56845.2694231593, 187500.0, -102227.51375764773, 42135.362879677166, 0.052000000000000005, 0.9420000000000001, 0.34, 192.0, 0.0, 0.0, 0.0, 0.0, 0.0, 0.0, 0.0, 0.0, 0.0, 1.7307453569524477E9, 0.0, 2024-11-04 15:35:56.952
95.0, -60036.69619997695, 47750.99280488406, -151549.92360471768, -143902.9224399236, -57436.69658144672, 187500.0, -102406.70769294593, 42162.63200791264, 0.052000000000000005, 0.9420000000000001, 0.34, 192.0, 0.0, 0.0, 0.0, 0.0, 0.0, 0.0, 0.0, 0.0, 0.0, 1.7307453569564507E9, 0.0, 2024-11-04 15:35:56.956
96.0, -59716.842736821505, 47992.61516244592, -151579.0702794874, -144005.96398186256, -57468.30194810653, 187500.0, -102689.0325771609, 41784.08286381756, 0.052000000000000005, 0.9420000000000001, 0.34, 192.0, 0.0, 0.0, 0.0, 0.0, 0.0, 0.0, 0.0, 0.0, 0.0, 1.7307453569605806E9, 0.0, 2024-11-04 15:35:56.960
97.0, -59109.07645333725, 47971.26924649111, -151711.0126270071, -144369.51510542812, -57151.84595010829, 187500.0, -102854.03315472999, 41429.07010663392, 0.052000000000000005, 0.9420000000000001, 0.34, 192.0, 0.0, 0.0, 0.0, 0.0, 0.0, 0.0, 0.0, 0.0, 0.0, 1.7307453569636507E9, 0.0, 2024-11-04 15:35:56.963
98.0, -59615.87990711688, 47797.305619395454, -152018.50557547875, -144628.75063762077, -57290.53852445347, 187500.0, -102868.45002990366, 41489.15159572978, 0.052000000000000005, 0.9420000000000001, 0.34, 192.0, 0.0, 0.0, 0.0, 0.0, 0.0, 0.0, 0.0, 0.0, 0.0, 1.7307453569676225E9, 0.0, 2024-11-04 15:35:56.967
99.0, -60536.391799019795, 47897.1061583884, -152255.54582542728, -144615.69721885887, -57870.92392097997, 187500.0, -103000.57119137899, 41578.80444274002, 0.052000000000000005, 0.9420000000000001, 0.34, 192.0, 0.0, 0.0, 0.0, 0.0, 0.0, 0.0, 0.0, 0.0, 0.0, 1.7307453569715753E9, 0.0, 2024-11-04 15:35:56.971
100.0, -60396.46987872957, 48191.21041193133, -152296.58362824723, -144656.77972516773, -58077.27522579137, 187500.0, -103304.64432294898, 41252.468973692536, 0.052000000000000005, 0.9420000000000001, 0.34, 192.0, 0.0, 0.0, 0.0, 0.0, 0.0, 0.0, 0.0, 0.0, 0.0, 1.73074535697554E9, 0.0, 2024-11-04 15:35:56.975
101.0, -59700.32479766903, 48240.85363636656, -152394.79719338386, -144992.05589199733, -57753.68902131188, 187500.0, -103512.1802702165, 40842.64973910448, 0.052000000000000005, 0.9420000000000001, 0.34, 192.0, 0.0, 0.0, 0.0, 0.0, 0.0, 0.0, 0.0, 0.0, 0.0, 1.7307453569805791E9, 0.0, 2024-11-04 15:35:56.980
102.0, -60009.002388596826, 48037.60922403446, -152684.6322637358, -145302.67808469274, -57745.552986330156, 187500.0, -103524.83135757821, 40838.246445446784, 0.052000000000000005, 0.9440000000000001, 0.342, 192.0, 1.0, 160.0, 29.0, 128.0, 10.0, 176.0, 0.0, 0.0, 0.0, 1.7307453569844968E9, 0.0, 2024-11-04 15:35:56.984
103.0, -60982.28674915872, 48083.20678272328, -152954.52957803366, -145322.3476198134, -58314.740158884546, 187500.0, -103620.18389942455, 40971.976932522884, 0.052000000000000005, 0.9440000000000001, 0.342, 192.0, 0.0, 0.0, 0.0, 0.0, 0.0, 0.0, 0.0, 0.0, 0.0, 1.730745356988541E9, 0.0, 2024-11-04 15:35:56.988
104.0, -61064.42941003197, 48382.228420046384, -153014.43225317387, -145315.08330286545, -58638.03579068611, 187500.0, -103908.275533709, 40720.92213880088, 0.052000000000000005, 0.9440000000000001, 0.342, 192.0, 0.0, 0.0, 0.0, 0.0, 0.0, 0.0, 0.0, 0.0, 0.0, 1.730745356991644E9, 0.0, 2024-11-04 15:35:56.991
105.0, -60324.7878342614, 48510.21450879747, -153080.86163769505, -145600.62683828198, -58405.42118613973, 187500.0, -104160.00087976467, 40288.92997371316, 0.052000000000000005, 0.9440000000000001, 0.342, 192.0, 0.0, 0.0, 0.0, 0.0, 0.0, 0.0, 0.0, 0.0, 0.0, 1.7307453569954343E9, 0.0, 2024-11-04 15:35:56.995
106.0, -60412.518431248485, 48304.37729410855, -153342.71232398896, -145948.442333751, -58262.21355941458, 187500.0, -104182.19616200878, 40202.60753662676, 0.052000000000000005, 0.9440000000000001, 0.342, 192.0, 0.0, 0.0, 0.0, 0.0, 0.0, 0.0, 0.0, 0.0, 0.0, 1.7307453569996457E9, 0.0, 2024-11-04 15:35:56.999
107.0, -61379.3878411517, 48292.396759080504, -153642.09158922336, -146015.13993920566, -58773.487362085274, 187500.0, -104246.09979940651, 40357.25925651303, 0.052000000000000005, 0.9440000000000001, 0.342, 192.0, 0.0, 0.0, 0.0, 0.0, 0.0, 0.0, 0.0, 0.0, 0.0, 1.7307453570045955E9, 0.0, 2024-11-04 15:35:57.004
108.0, -61697.654330450816, 48564.59630305723, -153735.94656419117, -145982.99813067893, -59184.49123912946, 187500.0, -104506.45291882193, 40180.36755089373, 0.052000000000000005, 0.9440000000000001, 0.342, 192.0, 0.0, 0.0, 0.0, 0.0, 0.0, 0.0, 0.0, 0.0, 0.0, 1.730745357008603E9, 0.0, 2024-11-04 15:35:57.008
109.0, -61012.685121617935, 48724.5006828905, -153784.15927698129, -146229.62727899879, -58972.84257088215, 187500.0, -104770.04704118337, 39730.78456291969, 0.052000000000000005, 0.9440000000000001, 0.342, 192.0, 0.0, 0.0, 0.0, 0.0, 0.0, 0.0, 0.0, 0.0, 0.0, 1.7307453570124843E9, 0.0, 2024-11-04 15:35:57.012
110.0, -60861.72143956679, 48563.6128263012, -154011.99060821423, -146596.84408865502, -58769.75462076123, 187500.0, -104835.02356231495, 39568.0415115406, 0.052000000000000005, 0.9440000000000001, 0.342, 192.0, 0.0, 0.0, 0.0, 0.0, 0.0, 0.0, 0.0, 0.0, 0.0, 1.7307453570167217E9, 0.0, 2024-11-04 15:35:57.016
111.0, -61765.35776440594, 48490.47791844344, -154324.4679956994, -146715.64361043499, -59192.24729445545, 187500.0, -104871.36749879927, 39720.99449884826, 0.052000000000000005, 0.9440000000000001, 0.342, 192.0, 0.0, 0.0, 0.0, 0.0, 0.0, 0.0, 0.0, 0.0, 0.0, 1.7307453570195496E9, 0.0, 2024-11-04 15:35:57.019
112.0, -62284.78995380282, 48740.236310987035, -154449.9059855826, -146664.01108074322, -59709.712530340264, 187500.0, -105101.79163238904, 39631.632224515946, 0.05, 0.9480000000000001, 0.34600000000000003, 192.0, 1.0, 144.0, 29.0, 160.0, 10.0, 208.0, 0.0, 0.0, 0.0, 1.730745357023598E9, 0.0, 2024-11-04 15:35:57.023
113.0, -61684.73502215565, 48962.32324389496, -154481.33253828675, -146853.1738940685, -59590.77889809357, 187500.0, -105391.26907482972, 39185.91608833267, 0.05, 0.9480000000000001, 0.34600000000000003, 192.0, 0.0, 0.0, 0.0, 0.0, 0.0, 0.0, 0.0, 0.0, 0.0, 1.730745357027558E9, 0.0, 2024-11-04 15:35:57.027
114.0, -61337.210099364536, 48834.985355733086, -154674.6527760807, -147235.23226204305, -59298.507487595976, 187500.0, -105485.83930562012, 38943.019681336846, 0.05, 0.9480000000000001, 0.34600000000000003, 192.0, 0.0, 0.0, 0.0, 0.0, 0.0, 0.0, 0.0, 0.0, 0.0, 1.730745357031351E9, 0.0, 2024-11-04 15:35:57.031
115.0, -62126.69606527044, 48706.50752860398, -154995.17679156983, -147411.4534153287, -59633.51543349212, 187500.0, -105503.58659071763, 39083.76861617191, 0.05, 0.9480000000000001, 0.34600000000000003, 192.0, 0.0, 0.0, 0.0, 0.0, 0.0, 0.0, 0.0, 0.0, 0.0, 1.7307453570364969E9, 0.0, 2024-11-04 15:35:57.036
116.0, -62834.35229472546, 48913.10470260438, -155164.2230348853, -147360.5808449484, -60205.45187061452, 187500.0, -105704.81934604877, 39067.228325274984, 0.05, 0.9480000000000001, 0.34600000000000003, 192.0, 0.0, 0.0, 0.0, 0.0, 0.0, 0.0, 0.0, 0.0, 0.0, 1.7307453570406108E9, 0.0, 2024-11-04 15:35:57.040
117.0, -62381.237731127476, 49177.659949977395, -155188.51938110823, -147488.03049183256, -60190.49855357392, 187500.0, -106008.53484970747, 38647.48491614877, 0.05, 0.9480000000000001, 0.34600000000000003, 192.0, 0.0, 0.0, 0.0, 0.0, 0.0, 0.0, 0.0, 0.0, 0.0, 1.730745357044614E9, 0.0, 2024-11-04 15:35:57.044
118.0, -61858.162207384376, 49111.56584162305, -155340.93592654896, -147862.13163878105, -59874.42253523142, 187500.0, -106144.03112459554, 38334.82871470794, 0.05, 0.9480000000000001, 0.34600000000000003, 192.0, 0.0, 0.0, 0.0, 0.0, 0.0, 0.0, 0.0, 0.0, 0.0, 1.730745357047444E9, 0.0, 2024-11-04 15:35:57.047
119.0, -62481.328842798335, 48948.50986582159, -155655.78259894642, -148090.7676328144, -60084.66304357804, 187500.0, -106152.21186306619, 38432.50583797763, 0.05, 0.9480000000000001, 0.34600000000000003, 192.0, 0.0, 0.0, 0.0, 0.0, 0.0, 0.0, 0.0, 0.0, 0.0, 1.7307453570513794E9, 0.0, 2024-11-04 15:35:57.051
120.0, -63332.84089956772, 49096.23254492671, -155865.97840380413, -148057.08355392024, -60665.920158138295, 187500.0, -106305.3883678184, 38488.65342004936, 0.05, 0.9480000000000001, 0.34600000000000003, 192.0, 0.0, 0.0, 0.0, 0.0, 0.0, 0.0, 0.0, 0.0, 0.0, 1.7307453570553937E9, 0.0, 2024-11-04 15:35:57.055
121.0, -63063.412971903446, 49384.74886235582, -155897.62847395285, -148129.0561710663, -60791.17933406584, 187500.0, -106609.99794125534, 38124.76702031696, 0.05, 0.9480000000000001, 0.34600000000000003, 192.0, 0.0, 0.0, 0.0, 0.0, 0.0, 0.0, 0.0, 0.0, 0.0, 1.7307453570595615E9, 0.0, 2024-11-04 15:35:57.059
122.0, -62419.50391763496, 49381.68667336544, -156016.04801607705, -148484.9406462837, -60457.467789348106, 187500.0, -106786.710832919, 37748.87773381206, 0.048, 0.9440000000000001, 0.342, 192.0, 1.0, 128.0, 29.0, 128.0, 10.0, 176.0, 0.0, 0.0, 0.0, 1.7307453570644825E9, 0.0, 2024-11-04 15:35:57.064
123.0, -62851.719600167235, 49191.31686583959, -156317.7965662237, -148767.98078632128, -60532.92727862922, 187500.0, -106797.50672549091, 37783.992324351355, 0.048, 0.9440000000000001, 0.342, 192.0, 0.0, 0.0, 0.0, 0.0, 0.0, 0.0, 0.0, 0.0, 0.0, 1.7307453570686014E9, 0.0, 2024-11-04 15:35:57.068
124.0, -63788.54826552251, 49287.40701525295, -156568.35962156768, -148761.5211321737, -61134.23390796589, 187500.0, -106922.16240431815, 37891.77243611484, 0.048, 0.9440000000000001, 0.342, 192.0, 0.0, 0.0, 0.0, 0.0, 0.0, 0.0, 0.0, 0.0, 0.0, 1.730745357071476E9, 0.0, 2024-11-04 15:35:57.071
125.0, -63737.809805608966, 49580.72895773995, -156617.60051460273, -148783.89522837344, -61377.756163806465, 187500.0, -107218.59123928443, 37592.14730169145, 0.048, 0.9440000000000001, 0.342, 192.0, 0.0, 0.0, 0.0, 0.0, 0.0, 0.0, 0.0, 0.0, 0.0, 1.7307453570755749E9, 0.0, 2024-11-04 15:35:57.075
126.0, -63033.86396573353, 49634.99899327743, -156706.49340230148, -149110.40951137658, -61045.676296433965, 187500.0, -107429.6587621759, 37170.25812509753, 0.048, 0.9440000000000001, 0.342, 192.0, 0.0, 0.0, 0.0, 0.0, 0.0, 0.0, 0.0, 0.0, 0.0, 1.73074535707949E9, 0.0, 2024-11-04 15:35:57.079
127.0, -63238.06950307721, 49449.680679998484, -156983.56562656947, -149431.84994838835, -61019.390644954525, 187500.0, -107457.12905611147, 37138.18337180417, 0.048, 0.9440000000000001, 0.342, 192.0, 0.0, 0.0, 0.0, 0.0, 0.0, 0.0, 0.0, 0.0, 0.0, 1.730745357083656E9, 0.0, 2024-11-04 15:35:57.083
128.0, -64198.34514836612, 49496.90991603255, -157260.54844385965, -149463.81294295943, -61587.46023028615, 187500.0, -107548.95002233387, 37279.49110025062, 0.048, 0.9440000000000001, 0.342, 192.0, 0.0, 0.0, 0.0, 0.0, 0.0, 0.0, 0.0, 0.0, 0.0, 1.7307453570876148E9, 0.0, 2024-11-04 15:35:57.087
129.0, -64383.32818547824, 49777.8489920913, -157332.4316540279, -149450.6701172197, -61927.89965008493, 187500.0, -107820.03197908783, 37055.01253068597, 0.048, 0.9440000000000001, 0.342, 192.0, 0.0, 0.0, 0.0, 0.0, 0.0, 0.0, 0.0, 0.0, 0.0, 1.73074535709257E9, 0.0, 2024-11-04 15:35:57.092
130.0, -63694.17920043221, 49862.562103576915, -157397.16230597047, -149739.7452282602, -61641.05971348998, 187500.0, -108048.1985864876, 36620.04758358569, 0.048, 0.9440000000000001, 0.342, 192.0, 0.0, 0.0, 0.0, 0.0, 0.0, 0.0, 0.0, 0.0, 0.0, 1.730745357096547E9, 0.0, 2024-11-04 15:35:57.096
131.0, -63665.9265954407, 49694.6781509731, -157645.19961419102, -150093.43923252096, -61514.839412550864, 187500.0, -108101.64160748025, 36505.9195763969, 0.048, 0.9440000000000001, 0.342, 192.0, 0.0, 0.0, 0.0, 0.0, 0.0, 0.0, 0.0, 0.0, 0.0, 1.7307453570998204E9, 0.0, 2024-11-04 15:35:57.099
132.0, -64586.796115254896, 49703.14946212166, -157947.1269782933, -150171.82680032574, -62024.59329659859, 187500.0, -108176.76582059453, 36649.52953452224, 0.052000000000000005, 0.9440000000000001, 0.338, 192.0, 1.0, 160.0, 29.0, 128.0, 10.0, 144.0, 0.0, 0.0, 0.0, 1.730745357103675E9, 0.0, 2024-11-04 15:35:57.103
133.0, -65000.14692546689, 49947.90106390728, -158054.79533133452, -150136.22047140842, -62470.04121184841, 187500.0, -108418.41052990087, 36513.13918985596, 0.052000000000000005, 0.9440000000000001, 0.338, 192.0, 0.0, 0.0, 0.0, 0.0, 0.0, 0.0, 0.0, 0.0, 0.0, 1.730745357107628E9, 0.0, 2024-11-04 15:35:57.107
134.0, -64346.82778678272, 50120.456531102245, -158097.0624800995, -150364.7447067195, -62284.43232589154, 187500.0, -108688.62076862107, 36064.18205072666, 0.052000000000000005, 0.9440000000000001, 0.338, 192.0, 0.0, 0.0, 0.0, 0.0, 0.0, 0.0, 0.0, 0.0, 0.0, 1.7307453571115043E9, 0.0, 2024-11-04 15:35:57.111
135.0, -64106.099498999065, 49986.48017483714, -158310.38752918097, -150736.56597573354, -62047.5932416431, 187500.0, -108769.15410389354, 35865.72091170799, 0.052000000000000005, 0.9440000000000001, 0.338, 192.0, 0.0, 0.0, 0.0, 0.0, 0.0, 0.0, 0.0, 0.0, 0.0, 1.7307453571154506E9, 0.0, 2024-11-04 15:35:57.115
136.0, -64972.698983275775, 49887.529002133495, -158626.30708531226, -150877.82900069107, -62433.987848041994, 187500.0, -108791.68466230448, 36023.01013743998, 0.052000000000000005, 0.9440000000000001, 0.338, 192.0, 0.0, 0.0, 0.0, 0.0, 0.0, 0.0, 0.0, 0.0, 0.0, 1.7307453571195655E9, 0.0, 2024-11-04 15:35:57.119
137.0, -65576.24078705798, 50109.34771410796, -158769.51471203743, -150828.2528314892, -62968.48511320176, 187500.0, -109005.12147010822, 35969.209488536064, 0.052000000000000005, 0.9440000000000001, 0.338, 192.0, 0.0, 0.0, 0.0, 0.0, 0.0, 0.0, 0.0, 0.0, 0.0, 1.7307453571246629E9, 0.0, 2024-11-04 15:35:57.124
138.0, -65020.375254198945, 50360.40250782997, -158798.70609029607, -150991.86760090204, -62890.5445802861, 187500.0, -109305.21599116517, 35527.382555888005, 0.052000000000000005, 0.9440000000000001, 0.338, 192.0, 0.0, 0.0, 0.0, 0.0, 0.0, 0.0, 0.0, 0.0, 0.0, 1.7307453571275837E9, 0.0, 2024-11-04 15:35:57.127
139.0, -64594.7980397699, 50263.4629921273, -158976.00012731555, -151370.84142814178, -62591.70175691864, 187500.0, -109418.76285299813, 35255.33947412246, 0.052000000000000005, 0.9440000000000001, 0.338, 192.0, 0.0, 0.0, 0.0, 0.0, 0.0, 0.0, 0.0, 0.0, 0.0, 1.7307453571325548E9, 0.0, 2024-11-04 15:35:57.132
140.0, -65333.83611844017, 50109.0794931745, -159297.46291607176, -151572.1188869618, -62875.88183592342, 187500.0, -109427.90471648035, 35384.73372277424, 0.052000000000000005, 0.9440000000000001, 0.338, 192.0, 0.0, 0.0, 0.0, 0.0, 0.0, 0.0, 0.0, 0.0, 0.0, 1.7307453571356704E9, 0.0, 2024-11-04 15:35:57.135
141.0, -66105.7536132042, 50289.39101569546, -159484.5917206516, -151529.2258893521, -63447.907680023636, 187500.0, -109608.70797737932, 35399.48587411474, 0.052000000000000005, 0.9440000000000001, 0.338, 192.0, 0.0, 0.0, 0.0, 0.0, 0.0, 0.0, 0.0, 0.0, 0.0, 1.730745357139696E9, 0.0, 2024-11-04 15:35:57.139
142.0, -65714.37456779178, 50571.179458043516, -159512.91138087647, -151634.45790224767, -63489.705442155064, 187500.0, -109916.37973980662, 35001.35660187681, 0.05, 0.9480000000000001, 0.338, 192.0, 1.0, 144.0, 29.0, 160.0, 10.0, 144.0, 0.0, 0.0, 0.0, 1.7307453571438212E9, 0.0, 2024-11-04 15:35:57.143
