%OpenBCI Raw EXG Data
%Number of channels = 8
%Sample Rate = 250 Hz
%Board = OpenBCI_GUI$BoardCytonSerial
Sample Index, EXG Channel 0, EXG Channel 1, EXG Channel 2, EXG Channel 3, EXG Channel 4, EXG Channel 5, EXG Channel 6, EXG Channel 7, Accel Channel 0, Accel Channel 1, Accel Channel 2, Not Used, Digital Channel 0 (D11), Digital Channel 1 (D12), Digital Channel 2 (D13), Digital Channel 3 (D17), Not Used, Digital Channel 4 (D18), Analog Channel 0, Analog Channel 1, Analog Channel 2, Timestamp, Marker Channel, Timestamp (Formatted)
0.0, -171410.43203001405, 6277.599188995265, -171569.5988022803, -171585.87087224377, -171561.7980434654, -171499.3249177128, -171652.90375386522, -163939.83083246122, 0.108, 0.484, 0.066, 192.0, 3.0, 96.0, 15.0, 32.0, 2.0, 16.0, 0.0, 0.0, 0.0, 1.7395365943210557E9, 0.0, 2025-02-14 09:36:34.321
1.0, -171410.92376839207, 6399.215030576591, -171570.4034650807, -171586.6531832997, -171562.4909475435, -171499.99547004647, -171654.08839632134, -163967.23407116343, 0.108, 0.484, 0.066, 192.0, 0.0, 0.0, 0.0, 0.0, 0.0, 0.0, 0.0, 0.0, 0.0, 1.7395365943211017E9, 0.0, 2025-02-14 09:36:34.321
2.0, -171411.84018991474, 6553.933805696226, -171571.4539970701, -171587.7931222669, -171563.63088651074, -171501.15776075816, -171655.1612800552, -163957.17578615854, 0.108, 0.484, 0.066, 192.0, 0.0, 0.0, 0.0, 0.0, 0.0, 0.0, 0.0, 0.0, 0.0, 1.7395365943211248E9, 0.0, 2025-02-14 09:36:34.321
3.0, -171414.81297192728, 6568.708308781184, -171574.35972384928, -171590.74355253502, -171566.58131677881, -171504.10819102626, -171657.6646754342, -163949.5985447882, 0.108, 0.484, 0.066, 192.0, 0.0, 0.0, 0.0, 0.0, 0.0, 0.0, 0.0, 0.0, 0.0, 1.7395365943211458E9, 0.0, 2025-02-14 09:36:34.321
4.0, -171416.1093731057, 6479.904828060249, -171575.6561250277, -171591.97289848005, -171567.7883109794, -171505.29283348238, -171659.40811150172, -163964.9988967179, 0.108, 0.484, 0.066, 192.0, 0.0, 0.0, 0.0, 0.0, 0.0, 0.0, 0.0, 0.0, 0.0, 1.739536594321165E9, 0.0, 2025-02-14 09:36:34.321
5.0, -171417.18225683956, 6468.728955832596, -171576.77371225046, -171593.09048570282, -171568.9506016911, -171506.4327724496, -171661.03978884695, -164045.80045292384, 0.108, 0.484, 0.066, 192.0, 0.0, 0.0, 0.0, 0.0, 0.0, 0.0, 0.0, 0.0, 0.0, 1.7395365943211772E9, 0.0, 2025-02-14 09:36:34.321
6.0, -171419.79741094084, 6539.852206689383, -171579.500625074, -171595.9068055042, -171571.744569748, -171509.1820370176, -171663.90081213723, -164080.222139385, 0.108, 0.484, 0.066, 192.0, 0.0, 0.0, 0.0, 0.0, 0.0, 0.0, 0.0, 0.0, 0.0, 1.7395365943211892E9, 0.0, 2025-02-14 09:36:34.321
7.0, -171421.8090679418, 6511.040808086492, -171581.57933730833, -171597.89611076072, -171573.75622674898, -171511.19369401858, -171665.91246913822, -164059.83734844177, 0.17400000000000002, 0.73, 0.096, 192.0, 5.0, 112.0, 22.0, 208.0, 3.0, 0.0, 0.0, 0.0, 0.0, 1.739536594321201E9, 0.0, 2025-02-14 09:36:34.321
8.0, -171423.23957958695, 6364.301605737402, -171582.9427937201, -171599.32662240585, -171575.1867383941, -171512.6242056637, -171667.23122206106, -164090.36983136772, 0.17400000000000002, 0.73, 0.096, 192.0, 0.0, 0.0, 0.0, 0.0, 0.0, 0.0, 0.0, 0.0, 0.0, 1.7395365943212135E9, 0.0, 2025-02-14 09:36:34.321
9.0, -171426.83821044426, 6233.856825096229, -171586.38496236622, -171602.81349454087, -171578.67361052916, -171516.11107779873, -171670.7180941961, -164204.31902460087, 0.17400000000000002, 0.73, 0.096, 192.0, 0.0, 0.0, 0.0, 0.0, 0.0, 0.0, 0.0, 0.0, 0.0, 1.7395365943212292E9, 0.0, 2025-02-14 09:36:34.321
10.0, -171429.2074953565, 6211.572135874288, -171588.77659902294, -171605.11572421977, -171580.97584020803, -171518.54741794438, -171673.08737910836, -164280.80669412695, 0.17400000000000002, 0.73, 0.096, 192.0, 0.0, 0.0, 0.0, 0.0, 0.0, 0.0, 0.0, 0.0, 0.0, 1.739536594321241E9, 0.0, 2025-02-14 09:36:34.321
11.0, -171432.49320179145, 6231.129912272681, -171592.12936069124, -171608.46848588806, -171584.32860187633, -171521.87782786821, -171676.48484426556, -164256.10801650383, 0.17400000000000002, 0.73, 0.096, 192.0, 0.0, 0.0, 0.0, 0.0, 0.0, 0.0, 0.0, 0.0, 0.0, 1.7395365943212526E9, 0.0, 2025-02-14 09:36:34.321
12.0, -171435.37657682618, 6190.449737364022, -171594.99038398152, -171611.26245394498, -171587.16727342218, -171524.6941476696, -171679.3235158114, -164242.29463843044, 0.17400000000000002, 0.73, 0.096, 192.0, 0.0, 0.0, 0.0, 0.0, 0.0, 0.0, 0.0, 0.0, 0.0, 1.7395365943212645E9, 0.0, 2025-02-14 09:36:34.321
13.0, -171437.23177161597, 6174.244722633925, -171596.84557877132, -171613.16235222368, -171589.0001164675, -171526.45993548154, -171681.13400711227, -164306.01946187252, 0.17400000000000002, 0.73, 0.096, 192.0, 0.0, 0.0, 0.0, 0.0, 0.0, 0.0, 0.0, 0.0, 0.0, 1.739536594321276E9, 0.0, 2025-02-14 09:36:34.321
14.0, -171439.3551873392, 6304.063654430349, -171599.17016019466, -171615.48693364704, -171591.3470496353, -171528.7845169049, -171683.52564376898, -164342.3857501013, 0.17400000000000002, 0.73, 0.096, 192.0, 0.0, 0.0, 0.0, 0.0, 0.0, 0.0, 0.0, 0.0, 0.0, 1.739536594321286E9, 0.0, 2025-02-14 09:36:34.321
15.0, -171440.472774562, 6448.612385822819, -171600.44420962862, -171616.85039005883, -171592.64345081372, -171530.10326982776, -171685.06791413642, -164289.61328144232, 0.17400000000000002, 0.73, 0.096, 192.0, 0.0, 0.0, 0.0, 0.0, 0.0, 0.0, 0.0, 0.0, 0.0, 1.7395365943212955E9, 0.0, 2025-02-14 09:36:34.321
16.0, -171443.40085308562, 6472.461697156632, -171603.43934338563, -171619.89022730474, -171595.59388108182, -171533.07605184033, -171688.15245487125, -164242.89813553073, 0.17400000000000002, 0.73, 0.096, 192.0, 0.0, 0.0, 0.0, 0.0, 0.0, 0.0, 0.0, 0.0, 0.0, 1.7395365943214543E9, 0.0, 2025-02-14 09:36:34.321
17.0, -171446.35128335372, 6392.7777281734625, -171606.34507016483, -171622.75125059503, -171598.56666309436, -171535.98177861952, -171690.87936769478, -164309.4392787742, 0.20800000000000002, 0.848, 0.1, 192.0, 6.0, 128.0, 26.0, 128.0, 3.0, 32.0, 0.0, 0.0, 0.0, 1.7395365943214667E9, 0.0, 2025-02-14 09:36:34.321
18.0, -171448.29588512133, 6407.284010324956, -171608.20026495462, -171624.76290759598, -171600.511264862, -171538.0381391094, -171692.71221074014, -164393.03480303704, 0.20800000000000002, 0.848, 0.1, 192.0, 0.0, 0.0, 0.0, 0.0, 0.0, 0.0, 0.0, 0.0, 0.0, 1.7395365943214796E9, 0.0, 2025-02-14 09:36:34.321
19.0, -171449.63698978868, 6508.0009708405705, -171609.74253532203, -171626.23812273005, -171601.96412825157, -171539.491002499, -171694.45564680765, -164376.27099469554, 0.20800000000000002, 0.848, 0.1, 192.0, 0.0, 0.0, 0.0, 0.0, 0.0, 0.0, 0.0, 0.0, 0.0, 1.7395365943214917E9, 0.0, 2025-02-14 09:36:34.321
20.0, -171451.1122049227, 6462.872798785305, -171611.28480568944, -171627.64628263074, -171603.34993640782, -171540.89916239967, -171695.88615845278, -164355.52857584102, 0.20800000000000002, 0.848, 0.1, 192.0, 0.0, 0.0, 0.0, 0.0, 0.0, 0.0, 0.0, 0.0, 0.0, 1.7395365943215063E9, 0.0, 2025-02-14 09:36:34.321
21.0, -171453.95087646853, 6286.852811199762, -171613.89995979072, -171630.23908498755, -171606.09920097582, -171543.53666824542, -171696.33319334188, -164410.64797766783, 0.20800000000000002, 0.848, 0.1, 192.0, 0.0, 0.0, 0.0, 0.0, 0.0, 0.0, 0.0, 0.0, 0.0, 1.739536594321516E9, 0.0, 2025-02-14 09:36:34.321
22.0, -171455.1802224136, 6240.271775754903, -171614.86108480228, -171631.3119687214, -171607.44030564313, -171544.85542116826, -171693.53922528497, -164409.9997770786, 0.20800000000000002, 0.848, 0.1, 192.0, 0.0, 0.0, 0.0, 0.0, 0.0, 0.0, 0.0, 0.0, 0.0, 1.7395365943215284E9, 0.0, 2025-02-14 09:36:34.321
23.0, -171457.75067302593, 6359.138352768226, -171617.8562185593, -171634.3071024784, -171610.03310799995, -171547.58233399183, -171700.6694317662, -164448.89181243084, 0.20800000000000002, 0.848, 0.1, 192.0, 0.0, 0.0, 0.0, 0.0, 0.0, 0.0, 0.0, 0.0, 0.0, 1.7395365943215384E9, 0.0, 2025-02-14 09:36:34.321
24.0, -171460.83521376076, 6389.201449060613, -171621.14192499424, -171637.52575367998, -171613.2070557126, -171550.6892264711, -171705.58681554638, -164424.52841097457, 0.20800000000000002, 0.848, 0.1, 192.0, 0.0, 0.0, 0.0, 0.0, 0.0, 0.0, 0.0, 0.0, 0.0, 1.7395365943215482E9, 0.0, 2025-02-14 09:36:34.321
25.0, -171463.56212658432, 6251.425296238101, -171623.60061688433, -171639.9620938256, -171616.00102376952, -171553.30438057237, -171705.29624286847, -164428.1046900874, 0.20800000000000002, 0.848, 0.1, 192.0, 0.0, 0.0, 0.0, 0.0, 0.0, 0.0, 0.0, 0.0, 0.0, 1.739536594321558E9, 0.0, 2025-02-14 09:36:34.321
26.0, -171466.55726034133, 6206.721807327486, -171626.32752970787, -171642.7113583936, -171618.88439880425, -171556.27716258494, -171704.55863530145, -164399.96384381817, 0.20800000000000002, 0.848, 0.1, 192.0, 0.0, 0.0, 0.0, 0.0, 0.0, 0.0, 0.0, 0.0, 0.0, 1.7395365943215675E9, 0.0, 2025-02-14 09:36:34.321
27.0, -171468.54656559785, 6371.7670883854735, -171628.67446287567, -171645.12534679478, -171620.96311103858, -171558.40057830818, -171710.81712374892, -164455.0161904116, 0.214, 0.918, 0.108, 192.0, 6.0, 176.0, 28.0, 176.0, 3.0, 96.0, 0.0, 0.0, 0.0, 1.7395365943215775E9, 0.0, 2025-02-14 09:36:34.321
28.0, -171471.45229237704, 6504.983485339104, -171631.8037070994, -171648.2545910185, -171624.04765177344, -171561.485119043, -171716.4274116072, -164430.6080854664, 0.214, 0.918, 0.108, 192.0, 0.0, 0.0, 0.0, 0.0, 0.0, 0.0, 0.0, 0.0, 0.0, 1.739536594321588E9, 0.0, 2025-02-14 09:36:34.321
29.0, -171473.95568775604, 6468.170162221213, -171634.2623989895, -171650.69093116414, -171626.48399191906, -171563.92145918866, -171717.5897023189, -164440.12992860438, 0.214, 0.918, 0.108, 192.0, 0.0, 0.0, 0.0, 0.0, 0.0, 0.0, 0.0, 0.0, 0.0, 1.7395365943215995E9, 0.0, 2025-02-14 09:36:34.321
30.0, -171473.44159763356, 6490.52190667652, -171633.39068095575, -171649.8192131304, -171625.83579132985, -171563.31796208836, -171712.40409760526, -164428.57407672098, 0.214, 0.918, 0.108, 192.0, 0.0, 0.0, 0.0, 0.0, 0.0, 0.0, 0.0, 0.0, 0.0, 1.7395365943216696E9, 0.0, 2025-02-14 09:36:34.321
31.0, -171476.48143487948, 6746.04704928959, -171636.7657943685, -171653.23903003204, -171629.03209078696, -171566.5366132899, -171719.26608315302, -164465.74502775015, 0.214, 0.918, 0.108, 192.0, 0.0, 0.0, 0.0, 0.0, 0.0, 0.0, 0.0, 0.0, 0.0, 1.7395365943216822E9, 0.0, 2025-02-14 09:36:34.321
32.0, -171478.60485060274, 7029.713038171893, -171639.29154149196, -171655.85418413332, -171631.3566722103, -171568.90589820218, -171724.27287391102, -164412.07848931296, 0.214, 0.918, 0.108, 192.0, 0.0, 0.0, 0.0, 0.0, 0.0, 0.0, 0.0, 0.0, 0.0, 1.739536594321695E9, 0.0, 2025-02-14 09:36:34.321
33.0, -171482.06937099333, 7133.916870822534, -171642.93487583817, -171659.54222196844, -171635.0670617899, -171572.45982557058, -171728.05031872398, -164403.51777118657, 0.214, 0.918, 0.108, 192.0, 0.0, 0.0, 0.0, 0.0, 0.0, 0.0, 0.0, 0.0, 0.0, 1.7395365943217075E9, 0.0, 2025-02-14 09:36:34.321
34.0, -171484.41630416113, 7243.708639587002, -171645.2594572615, -171661.8668033918, -171637.5034019355, -171574.9408692051, -171729.21260943564, -164481.68182154678, 0.214, 0.918, 0.108, 192.0, 0.0, 0.0, 0.0, 0.0, 0.0, 0.0, 0.0, 0.0, 0.0, 1.73953659432172E9, 0.0, 2025-02-14 09:36:34.321
35.0, -171485.48918789497, 7584.684501252712, -171646.5558584399, -171663.2302598036, -171638.755099625, -171576.21491863907, -171730.2854931695, -164498.08800197698, 0.214, 0.918, 0.108, 192.0, 0.0, 0.0, 0.0, 0.0, 0.0, 0.0, 0.0, 0.0, 0.0, 1.7395365943217323E9, 0.0, 2025-02-14 09:36:34.321
36.0, -171487.34438268477, 7996.515392841744, -171648.9251433522, -171665.6218964603, -171641.03497755947, -171578.4947965735, -171734.30880717144, -164417.68877717125, 0.214, 0.918, 0.108, 192.0, 0.0, 0.0, 0.0, 0.0, 0.0, 0.0, 0.0, 0.0, 0.0, 1.7395365943217444E9, 0.0, 2025-02-14 09:36:34.321
37.0, -171489.5795571303, 8229.666439255052, -171651.3167800089, -171668.05823660592, -171643.44896596062, -171580.9087849747, -171737.08042348392, -164374.16993071674, 0.212, 0.9480000000000001, 0.11, 192.0, 6.0, 160.0, 29.0, 160.0, 3.0, 112.0, 0.0, 0.0, 0.0, 1.7395365943217568E9, 0.0, 2025-02-14 09:36:34.321
38.0, -171493.13348449868, 8407.787490819393, -171654.9154108662, -171671.7686261855, -171647.0699485624, -171584.507415832, -171740.6343508523, -164436.68775995824, 0.212, 0.9480000000000001, 0.11, 192.0, 0.0, 0.0, 0.0, 0.0, 0.0, 0.0, 0.0, 0.0, 0.0, 1.7395365943217795E9, 0.0, 2025-02-14 09:36:34.321
39.0, -171494.98867928848, 8796.327864685996, -171657.2176405451, -171674.0261523755, -171649.23806777457, -171586.78729376642, -171742.8918770423, -164465.18623413876, 0.212, 0.9480000000000001, 0.11, 192.0, 0.0, 0.0, 0.0, 0.0, 0.0, 0.0, 0.0, 0.0, 0.0, 1.7395365943217907E9, 0.0, 2025-02-14 09:36:34.321
40.0, -171495.8827490667, 9303.086614976719, -171658.49168997904, -171675.38960878726, -171650.5121172085, -171588.03899145592, -171744.65766485425, -164377.47798889613, 0.212, 0.9480000000000001, 0.11, 192.0, 0.0, 0.0, 0.0, 0.0, 0.0, 0.0, 0.0, 0.0, 0.0, 1.7395365943218024E9, 0.0, 2025-02-14 09:36:34.321
41.0, -171496.0839147668, 9646.275299343502, -171658.9610766126, -171675.90369890974, -171651.026207331, -171588.46367460059, -171745.32821718793, -164308.20993282914, 0.212, 0.9480000000000001, 0.11, 192.0, 0.0, 0.0, 0.0, 0.0, 0.0, 0.0, 0.0, 0.0, 0.0, 1.7395365943218136E9, 0.0, 2025-02-14 09:36:34.321
42.0, -171496.70976361155, 9883.896694647872, -171659.69868417963, -171676.7754169435, -171651.9202771092, -171589.26833740098, -171746.13287998832, -164355.036837463, 0.212, 0.9480000000000001, 0.11, 192.0, 0.0, 0.0, 0.0, 0.0, 0.0, 0.0, 0.0, 0.0, 0.0, 1.739536594321825E9, 0.0, 2025-02-14 09:36:34.321
43.0, -171496.39683918917, 10303.483641562896, -171659.81044290191, -171676.79776868795, -171651.8755736203, -171589.3130408899, -171746.26699045504, -164399.82973335145, 0.212, 0.9480000000000001, 0.11, 192.0, 0.0, 0.0, 0.0, 0.0, 0.0, 0.0, 0.0, 0.0, 0.0, 1.7395365943218503E9, 0.0, 2025-02-14 09:36:34.321
44.0, -171499.90606306866, 10881.857381088423, -171663.78905341495, -171680.82108268992, -171655.69772192213, -171593.246947914, -171750.49147015708, -164330.38286332882, 0.212, 0.9480000000000001, 0.11, 192.0, 0.0, 0.0, 0.0, 0.0, 0.0, 0.0, 0.0, 0.0, 0.0, 1.7395365943218627E9, 0.0, 2025-02-14 09:36:34.321
45.0, -171502.34240321428, 11324.377217814592, -171666.56066972742, -171683.50329202454, -171658.3799312568, -171595.97386073755, -171753.30778995846, -164248.44136815565, 0.212, 0.9480000000000001, 0.11, 192.0, 0.0, 0.0, 0.0, 0.0, 0.0, 0.0, 0.0, 0.0, 0.0, 1.7395365943218827E9, 0.0, 2025-02-14 09:36:34.321
46.0, -171504.51052242646, 11613.385273621712, -171668.90760289523, -171685.98433565907, -171660.7268644246, -171598.34314564982, -171755.81118533746, -164280.13614179328, 0.212, 0.9480000000000001, 0.11, 192.0, 0.0, 0.0, 0.0, 0.0, 0.0, 0.0, 0.0, 0.0, 0.0, 1.7395365943218951E9, 0.0, 2025-02-14 09:36:34.321
47.0, -171505.24812999347, 12029.798272824082, -171670.04754186244, -171687.16897811522, -171661.84445164734, -171599.41602938366, -171757.10758651586, -164341.78225300103, 0.222, 0.968, 0.11800000000000001, 192.0, 6.0, 240.0, 30.0, 64.0, 3.0, 176.0, 0.0, 0.0, 0.0, 1.7395365943219297E9, 0.0, 2025-02-14 09:36:34.321
48.0, -171507.14802827217, 12625.360503835738, -171672.34977154134, -171689.69472523866, -171664.2137365596, -171601.7629625515, -171759.67803712824, -164296.56467396792, 0.222, 0.968, 0.11800000000000001, 192.0, 0.0, 0.0, 0.0, 0.0, 0.0, 0.0, 0.0, 0.0, 0.0, 1.739536594321973E9, 0.0, 2025-02-14 09:36:34.321
49.0, -171509.3832027177, 13111.086262594017, -171675.03198087597, -171692.30987933994, -171666.85124240533, -171604.37811665275, -171762.38259820733, -164215.38313810626, 0.222, 0.968, 0.11800000000000001, 192.0, 0.0, 0.0, 0.0, 0.0, 0.0, 0.0, 0.0, 0.0, 0.0, 1.7395365943220017E9, 0.0, 2025-02-14 09:36:34.322
50.0, -171510.56784517382, 13389.790164207241, -171676.44014077666, -171693.7180392406, -171668.3264575394, -171605.78627655344, -171763.85781334137, -164245.1780134652, 0.222, 0.968, 0.11800000000000001, 192.0, 0.0, 0.0, 0.0, 0.0, 0.0, 0.0, 0.0, 0.0, 0.0, 1.739536594322023E9, 0.0, 2025-02-14 09:36:34.322
51.0, -171513.40651671967, 13734.074084052336, -171679.59173674486, -171696.91433869774, -171671.43335001866, -171608.96022426608, -171767.12116803185, -164336.06020642046, 0.222, 0.968, 0.11800000000000001, 192.0, 0.0, 0.0, 0.0, 0.0, 0.0, 0.0, 0.0, 0.0, 0.0, 1.7395365943220444E9, 0.0, 2025-02-14 09:36:34.322
52.0, -171516.3345952433, 14271.20885505782, -171683.03390539097, -171700.31180385494, -171674.74140819805, -171612.38004116775, -171770.51863318906, -164333.22153487464, 0.222, 0.968, 0.11800000000000001, 192.0, 0.0, 0.0, 0.0, 0.0, 0.0, 0.0, 0.0, 0.0, 0.0, 1.7395365943220646E9, 0.0, 2025-02-14 09:36:34.322
53.0, -171517.51923769942, 14744.752913087954, -171684.57617575838, -171701.8317224779, -171676.30603030993, -171613.87760804626, -171772.284421001, -164266.54628116445, 0.222, 0.968, 0.11800000000000001, 192.0, 0.0, 0.0, 0.0, 0.0, 0.0, 0.0, 0.0, 0.0, 0.0, 1.7395365943220851E9, 0.0, 2025-02-14 09:36:34.322
54.0, -171519.06150806684, 14990.175067207227, -171686.34196357036, -171703.64221377877, -171678.02711463298, -171615.59869236933, -171774.1396157908, -164294.79888615597, 0.222, 0.968, 0.11800000000000001, 192.0, 0.0, 0.0, 0.0, 0.0, 0.0, 0.0, 0.0, 0.0, 0.0, 1.7395365943221054E9, 0.0, 2025-02-14 09:36:34.322
55.0, -171520.31320575633, 15245.856672031483, -171687.81717870443, -171705.2291876351, -171679.50232976704, -171617.16331448118, -171775.65953441377, -164406.17762877676, 0.222, 0.968, 0.11800000000000001, 192.0, 0.0, 0.0, 0.0, 0.0, 0.0, 0.0, 0.0, 0.0, 0.0, 1.739536594322125E9, 0.0, 2025-02-14 09:36:34.322
56.0, -171522.8389528798, 15711.018825890878, -171690.78996071697, -171708.3360801144, -171682.51981526852, -171620.1584482382, -171778.63231642632, -164439.23585882614, 0.222, 0.968, 0.11800000000000001, 192.0, 0.0, 0.0, 0.0, 0.0, 0.0, 0.0, 0.0, 0.0, 0.0, 1.739536594322144E9, 0.0, 2025-02-14 09:36:34.322
57.0, -171524.0459470804, 16165.943880789744, -171692.3769345733, -171709.94540571517, -171684.12914086928, -171621.67836686116, -171780.3534007494, -164388.2515297236, 0.23800000000000002, 0.978, 0.116, 192.0, 7.0, 112.0, 30.0, 144.0, 3.0, 160.0, 0.0, 0.0, 0.0, 1.7395365943221636E9, 0.0, 2025-02-14 09:36:34.322
58.0, -171525.56586570333, 16383.739278762256, -171694.14272238527, -171711.71119352712, -171685.8725769368, -171623.5559133954, -171782.11918856137, -164412.07848931296, 0.23800000000000002, 0.978, 0.116, 192.0, 0.0, 0.0, 0.0, 0.0, 0.0, 0.0, 0.0, 0.0, 0.0, 1.739536594322184E9, 0.0, 2025-02-14 09:36:34.322
59.0, -171529.00803434945, 16549.03042900925, -171697.6742980092, -171715.1310104288, -171689.40415256075, -171627.04278553044, -171783.3485345064, -164502.1783712123, 0.23800000000000002, 0.978, 0.116, 192.0, 0.0, 0.0, 0.0, 0.0, 0.0, 0.0, 0.0, 0.0, 0.0, 1.7395365943222032E9, 0.0, 2025-02-14 09:36:34.322
60.0, -171532.51725822894, 16911.553372329876, -171701.4293910777, -171718.86375175283, -171693.2263008626, -171630.79787859894, -171785.91898511877, -164535.81774661754, 0.23800000000000002, 0.978, 0.116, 192.0, 0.0, 0.0, 0.0, 0.0, 0.0, 0.0, 0.0, 0.0, 0.0, 1.7395365943223014E9, 0.0, 2025-02-14 09:36:34.322
61.0, -171534.28304604092, 17322.177269718322, -171703.70926901215, -171721.14362968729, -171695.26030960804, -171632.8095355999, -171791.01518285458, -164538.11997629644, 0.23800000000000002, 0.978, 0.116, 192.0, 0.0, 0.0, 0.0, 0.0, 0.0, 0.0, 0.0, 0.0, 0.0, 1.7395365943223257E9, 0.0, 2025-02-14 09:36:34.322
62.0, -171534.55126697436, 17513.821126678125, -171704.08924866788, -171721.7247750431, -171695.68499275268, -171633.27892223347, -171790.3446305209, -164523.07725227802, 0.23800000000000002, 0.978, 0.116, 192.0, 0.0, 0.0, 0.0, 0.0, 0.0, 0.0, 0.0, 0.0, 0.0, 1.7395365943223493E9, 0.0, 2025-02-14 09:36:34.322
63.0, -171537.7922699204, 17609.263075502287, -171707.24084463608, -171725.0775367114, -171699.08245790988, -171636.67638739067, -171791.01518285458, -164482.95587098075, 0.23800000000000002, 0.978, 0.116, 192.0, 0.0, 0.0, 0.0, 0.0, 0.0, 0.0, 0.0, 0.0, 0.0, 1.739536594322369E9, 0.0, 2025-02-14 09:36:34.322
64.0, -171541.68147345562, 17897.73468944248, -171711.39826910477, -171729.30201641345, -171703.23988237858, -171640.87851534827, -171795.5972904679, -164492.14243795187, 0.23800000000000002, 0.978, 0.116, 192.0, 0.0, 0.0, 0.0, 0.0, 0.0, 0.0, 0.0, 0.0, 0.0, 1.7395365943223937E9, 0.0, 2025-02-14 09:36:34.322
65.0, -171542.75435718946, 18301.854229194432, -171713.05229819447, -171730.82193503642, -171704.69274576817, -171642.33137873787, -171799.57590098094, -164548.42413049034, 0.23800000000000002, 0.978, 0.116, 192.0, 0.0, 0.0, 0.0, 0.0, 0.0, 0.0, 0.0, 0.0, 0.0, 1.7395365943224237E9, 0.0, 2025-02-14 09:36:34.322
66.0, -171545.28010431293, 18519.62727542249, -171715.80156276247, -171733.57119960443, -171707.48671382508, -171645.08064330588, -171802.19105508222, -164546.09954906697, 0.23800000000000002, 0.978, 0.116, 192.0, 0.0, 0.0, 0.0, 0.0, 0.0, 0.0, 0.0, 0.0, 0.0, 1.7395365943224533E9, 0.0, 2025-02-14 09:36:34.322
67.0, -171546.88942991372, 18572.220930125826, -171717.3214813854, -171735.1805252052, -171709.0736876814, -171646.6676171622, -171802.2581103156, -164504.61471135792, 0.244, 0.98, 0.116, 192.0, 7.0, 160.0, 30.0, 160.0, 3.0, 160.0, 0.0, 0.0, 0.0, 1.7395365943224728E9, 0.0, 2025-02-14 09:36:34.322
68.0, -171550.21983983755, 18745.849281054652, -171720.9424639872, -171738.82385955143, -171712.49350458308, -171650.24389627503, -171807.57782549594, -164517.2434469752, 0.244, 0.98, 0.116, 192.0, 0.0, 0.0, 0.0, 0.0, 0.0, 0.0, 0.0, 0.0, 0.0, 1.7395365943224945E9, 0.0, 2025-02-14 09:36:34.322
69.0, -171552.5891247498, 19034.96909558405, -171723.66937681072, -171741.50606888605, -171715.30982438443, -171653.03786433197, -171808.47189527415, -164541.67390366484, 0.244, 0.98, 0.116, 192.0, 0.0, 0.0, 0.0, 0.0, 0.0, 0.0, 0.0, 0.0, 0.0, 1.7395365943225148E9, 0.0, 2025-02-14 09:36:34.322
70.0, -171554.6454852397, 19149.20886149512, -171725.70338555615, -171743.58478112041, -171717.41088836323, -171655.1165765663, -171809.03068888554, -164537.24825826267, 0.244, 0.98, 0.116, 192.0, 0.0, 0.0, 0.0, 0.0, 0.0, 0.0, 0.0, 0.0, 0.0, 1.7395365943225353E9, 0.0, 2025-02-14 09:36:34.322
71.0, -171556.90301142968, 19061.81354067487, -171728.05031872398, -171745.99876952157, -171719.66841455322, -171657.44115798964, -171813.03165114304, -164518.36103419794, 0.244, 0.98, 0.116, 192.0, 0.0, 0.0, 0.0, 0.0, 0.0, 0.0, 0.0, 0.0, 0.0, 1.739536594322555E9, 0.0, 2025-02-14 09:36:34.322
72.0, -171558.0876538858, 19079.382011816742, -171729.50318211355, -171747.3398741889, -171720.9424639872, -171658.55874521242, -171818.1054971344, -164580.4541802948, 0.244, 0.98, 0.116, 192.0, 0.0, 0.0, 0.0, 0.0, 0.0, 0.0, 0.0, 0.0, 0.0, 1.7395365943225756E9, 0.0, 2025-02-14 09:36:34.322
73.0, -171562.46859579906, 19274.780961845037, -171734.040586238, -171751.83257482442, -171725.54692334498, -171663.20790805912, -171820.63124425785, -164547.15008105637, 0.244, 0.98, 0.116, 192.0, 0.0, 0.0, 0.0, 0.0, 0.0, 0.0, 0.0, 0.0, 0.0, 1.7395365943226235E9, 0.0, 2025-02-14 09:36:34.322
74.0, -171565.7990057229, 19366.847797256447, -171737.32629267292, -171755.00652253706, -171728.92203675772, -171666.58302147186, -171819.11132563488, -164499.317347922, 0.244, 0.98, 0.116, 192.0, 0.0, 0.0, 0.0, 0.0, 0.0, 0.0, 0.0, 0.0, 0.0, 1.7395365943226445E9, 0.0, 2025-02-14 09:36:34.322
75.0, -171569.2858778579, 19257.167787214254, -171740.7908130635, -171758.538098161, -171732.3418536594, -171669.89107965125, -171824.98983442664, -164522.85373483345, 0.244, 0.98, 0.116, 192.0, 0.0, 0.0, 0.0, 0.0, 0.0, 0.0, 0.0, 0.0, 0.0, 1.739536594322692E9, 0.0, 2025-02-14 09:36:34.322
76.0, -171571.40929358118, 19219.303932106966, -171743.16009797575, -171760.8403278399, -171734.532324616, -171672.03684711896, -171831.69535776324, -164611.16547717637, 0.244, 0.98, 0.116, 192.0, 0.0, 0.0, 0.0, 0.0, 0.0, 0.0, 0.0, 0.0, 0.0, 1.739536594322711E9, 0.0, 2025-02-14 09:36:34.322
77.0, -171574.0915029158, 19392.664062102325, -171746.13287998832, -171763.8354615969, -171737.4827548841, -171675.0766843649, -171834.8022502425, -164609.42204110886, 0.246, 0.976, 0.11800000000000001, 192.0, 7.0, 176.0, 30.0, 128.0, 3.0, 176.0, 0.0, 0.0, 0.0, 1.739536594322729E9, 0.0, 2025-02-14 09:36:34.322
78.0, -171575.7008285166, 19517.56561011858, -171747.67515035573, -171765.42243545325, -171739.15913571825, -171676.75306519904, -171834.08699441995, -164540.22104027524, 0.246, 0.976, 0.11800000000000001, 192.0, 0.0, 0.0, 0.0, 0.0, 0.0, 0.0, 0.0, 0.0, 0.0, 1.7395365943227499E9, 0.0, 2025-02-14 09:36:34.322
79.0, -171579.9029564742, 19416.60278041396, -171751.78787133552, -171769.62456341085, -171743.24950495356, -171680.79873094545, -171838.78086075556, -164564.51738649816, 0.246, 0.976, 0.11800000000000001, 192.0, 0.0, 0.0, 0.0, 0.0, 0.0, 0.0, 0.0, 0.0, 0.0, 1.7395365943227687E9, 0.0, 2025-02-14 09:36:34.322
80.0, -171583.18866290912, 19313.360072774896, -171755.20768823716, -171773.0443803125, -171746.53521138852, -171684.06208563593, -171844.14527942482, -164677.50545471974, 0.246, 0.976, 0.11800000000000001, 192.0, 0.0, 0.0, 0.0, 0.0, 0.0, 0.0, 0.0, 0.0, 0.0, 1.7395365943227873E9, 0.0, 2025-02-14 09:36:34.322
81.0, -171586.2955553884, 19411.03719604459, -171758.42633943874, -171776.37479023635, -171749.73151084562, -171687.41484730423, -171847.67685504878, -164718.76677498422, 0.246, 0.976, 0.11800000000000001, 192.0, 0.0, 0.0, 0.0, 0.0, 0.0, 0.0, 0.0, 0.0, 0.0, 1.7395365943228056E9, 0.0, 2025-02-14 09:36:34.322
82.0, -171589.9612414791, 19510.077775726055, -171762.27083948505, -171780.12988330482, -171753.53130740303, -171691.25934735054, -171851.54370683953, -164668.90003310444, 0.246, 0.976, 0.11800000000000001, 192.0, 0.0, 0.0, 0.0, 0.0, 0.0, 0.0, 0.0, 0.0, 0.0, 1.7395365943228247E9, 0.0, 2025-02-14 09:36:34.322
83.0, -171590.9000147462, 19358.48824483016, -171763.09785402988, -171780.8898426163, -171754.29126671448, -171691.88519619528, -171852.2142591732, -164693.95633863885, 0.246, 0.976, 0.11800000000000001, 192.0, 0.0, 0.0, 0.0, 0.0, 0.0, 0.0, 0.0, 0.0, 0.0, 1.7395365943228433E9, 0.0, 2025-02-14 09:36:34.322
84.0, -171594.3645351368, 19147.30896321642, -171766.36120872037, -171784.1531973068, -171757.57697314944, -171695.26030960804, -171855.4552621192, -164825.80927918068, 0.246, 0.976, 0.11800000000000001, 192.0, 0.0, 0.0, 0.0, 0.0, 0.0, 0.0, 0.0, 0.0, 0.0, 1.7395365943228617E9, 0.0, 2025-02-14 09:36:34.322
85.0, -171599.03604972793, 19134.00967526551, -171771.05507505598, -171788.8917671313, -171762.47200518515, -171700.04358292147, -171860.2608871771, -164908.80130634326, 0.246, 0.976, 0.11800000000000001, 192.0, 0.0, 0.0, 0.0, 0.0, 0.0, 0.0, 0.0, 0.0, 0.0, 1.7395365943229024E9, 0.0, 2025-02-14 09:36:34.322
86.0, -171601.07005847336, 19181.50713223304, -171773.2902495015, -171791.0598863435, -171764.6848278862, -171702.21170213365, -171862.4737098782, -164884.77318105378, 0.246, 0.976, 0.11800000000000001, 192.0, 0.0, 0.0, 0.0, 0.0, 0.0, 0.0, 0.0, 0.0, 0.0, 1.739536594322925E9, 0.0, 2025-02-14 09:36:34.322
87.0, -171603.52875036345, 19034.209136272566, -171775.70423790268, -171793.47387474464, -171767.03176105404, -171704.49158006808, -171864.84299479044, -164895.99375677036, 0.246, 0.972, 0.128, 192.0, 7.0, 176.0, 30.0, 96.0, 4.0, 0.0, 0.0, 0.0, 0.0, 1.739536594322945E9, 0.0, 2025-02-14 09:36:34.322
88.0, -171607.39560215423, 18805.10375560567, -171779.36992399336, -171797.13956083532, -171770.71979888916, -171708.20196964766, -171868.4639773922, -165016.64847334012, 0.246, 0.972, 0.128, 192.0, 0.0, 0.0, 0.0, 0.0, 0.0, 0.0, 0.0, 0.0, 0.0, 1.7395365943229747E9, 0.0, 2025-02-14 09:36:34.322
89.0, -171609.25079694402, 18770.302089488756, -171781.26982227206, -171798.9053486473, -171772.53029019, -171710.10186792637, -171870.319172182, -165112.35864309772, 0.246, 0.972, 0.128, 192.0, 0.0, 0.0, 0.0, 0.0, 0.0, 0.0, 0.0, 0.0, 0.0, 1.7395365943229952E9, 0.0, 2025-02-14 09:36:34.322
90.0, -171611.35186092282, 18858.077389964747, -171783.41558973977, -171801.14052309282, -171774.76546463557, -171712.3370423719, -171872.53199488306, -165088.33051780827, 0.246, 0.972, 0.128, 192.0, 0.0, 0.0, 0.0, 0.0, 0.0, 0.0, 0.0, 0.0, 0.0, 1.7395365943230364E9, 0.0, 2025-02-14 09:36:34.323
91.0, -171617.34212843684, 18786.127124563114, -171789.2940985315, -171807.01903188456, -171780.5992699384, -171718.2379029081, -171878.36580018591, -165067.78926465384, 0.246, 0.972, 0.128, 192.0, 0.0, 0.0, 0.0, 0.0, 0.0, 0.0, 0.0, 0.0, 0.0, 1.7395365943230588E9, 0.0, 2025-02-14 09:36:34.323
92.0, -171619.73376509355, 18586.615453555045, -171791.57397646594, -171809.18715109673, -171782.85679612838, -171720.4730773536, -171880.57862288697, -165161.15250124366, 0.246, 0.972, 0.128, 192.0, 0.0, 0.0, 0.0, 0.0, 0.0, 0.0, 0.0, 0.0, 0.0, 1.7395365943230784E9, 0.0, 2025-02-14 09:36:34.323
93.0, -171620.3596139383, 18542.135482088983, -171792.13277007733, -171809.88005517484, -171783.48264497312, -171721.09892619838, -171881.20447173173, -165259.94721173611, 0.246, 0.972, 0.128, 192.0, 0.0, 0.0, 0.0, 0.0, 0.0, 0.0, 0.0, 0.0, 0.0, 1.739536594323098E9, 0.0, 2025-02-14 09:36:34.323
94.0, -171622.86300931728, 18649.088579307627, -171794.8596829009, -171812.53991276503, -171786.12015081887, -171723.7364320441, -171883.88668106636, -165243.02694118346, 0.246, 0.972, 0.128, 192.0, 0.0, 0.0, 0.0, 0.0, 0.0, 0.0, 0.0, 0.0, 0.0, 1.7395365943231168E9, 0.0, 2025-02-14 09:36:34.323
95.0, -171626.84161983035, 18621.64063711651, -171798.79358992502, -171816.45146804472, -171790.12111307634, -171727.67033906822, -171887.86529157942, -165201.3409377743, 0.246, 0.972, 0.128, 192.0, 0.0, 0.0, 0.0, 0.0, 0.0, 0.0, 0.0, 0.0, 0.0, 1.7395365943231356E9, 0.0, 2025-02-14 09:36:34.323
96.0, -171630.1496780097, 18421.681931219333, -171801.94518589322, -171819.62541575736, -171793.42917125573, -171730.8889902698, -171891.01688754762, -165272.15126420872, 0.246, 0.972, 0.128, 192.0, 0.0, 0.0, 0.0, 0.0, 0.0, 0.0, 0.0, 0.0, 0.0, 1.739536594323154E9, 0.0, 2025-02-14 09:36:34.323
97.0, -171630.68611987666, 18319.735624758676, -171802.39222078232, -171820.16185762428, -171793.8538544004, -171731.3360251589, -171891.53097767007, -165383.26178589606, 0.254, 0.98, 0.12, 192.0, 7.0, 240.0, 30.0, 160.0, 3.0, 192.0, 0.0, 0.0, 0.0, 1.7395365943231728E9, 0.0, 2025-02-14 09:36:34.323
98.0, -171634.64237864525, 18388.154314536372, -171806.4602382732, -171824.25222685962, -171797.810113169, -171735.31463567194, -171895.59899516095, -165389.07323945442, 0.254, 0.98, 0.12, 192.0, 0.0, 0.0, 0.0, 0.0, 0.0, 0.0, 0.0, 0.0, 0.0, 1.7395365943231924E9, 0.0, 2025-02-14 09:36:34.323
99.0, -171639.24683800302, 18360.996945023173, -171811.17645635325, -171828.8566862174, -171802.57103473795, -171739.9861502631, -171900.29286149656, -165343.2745150655, 0.254, 0.98, 0.12, 192.0, 0.0, 0.0, 0.0, 0.0, 0.0, 0.0, 0.0, 0.0, 0.0, 1.73953659432321E9, 0.0, 2025-02-14 09:36:34.323
100.0, -171641.03497755947, 18132.048026567463, -171812.74107846513, -171830.37660484036, -171804.09095336092, -171741.50606888605, -171901.83513186398, -165397.90217851428, 0.254, 0.98, 0.12, 192.0, 0.0, 0.0, 0.0, 0.0, 0.0, 0.0, 0.0, 0.0, 0.0, 1.7395365943232405E9, 0.0, 2025-02-14 09:36:34.323
101.0, -171645.2147537726, 17951.155358690663, -171816.71968897816, -171834.48932582015, -171808.11426736286, -171745.52938288802, -171905.94785284376, -165516.27701714958, 0.254, 0.98, 0.12, 192.0, 0.0, 0.0, 0.0, 0.0, 0.0, 0.0, 0.0, 0.0, 0.0, 1.7395365943232937E9, 0.0, 2025-02-14 09:36:34.323
102.0, -171648.3216462519, 17951.423579624126, -171819.84893320192, -171837.59621829944, -171811.31056681997, -171748.83744106742, -171909.0323935786, -165547.0330175201, 0.254, 0.98, 0.12, 192.0, 0.0, 0.0, 0.0, 0.0, 0.0, 0.0, 0.0, 0.0, 0.0, 1.739536594323314E9, 0.0, 2025-02-14 09:36:34.323
103.0, -171651.49559396453, 17901.98152088899, -171823.20169487022, -171840.8595729899, -171814.52921802155, -171752.12314750234, -171912.1839895468, -165501.36840359788, 0.254, 0.98, 0.12, 192.0, 0.0, 0.0, 0.0, 0.0, 0.0, 0.0, 0.0, 0.0, 0.0, 1.7395365943233328E9, 0.0, 2025-02-14 09:36:34.323
104.0, -171653.5743061989, 17640.98020088437, -171824.96748268217, -171842.6477125463, -171816.38441281134, -171753.86658356985, -171914.03918433658, -165535.63362784788, 0.254, 0.98, 0.12, 192.0, 0.0, 0.0, 0.0, 0.0, 0.0, 0.0, 0.0, 0.0, 0.0, 1.7395365943233643E9, 0.0, 2025-02-14 09:36:34.323
105.0, -171656.83766088934, 17375.553235477597, -171828.052023417, -171845.6651980478, -171819.51365703507, -171757.01817953805, -171917.19078030478, -165660.11049271948, 0.254, 0.98, 0.12, 192.0, 0.0, 0.0, 0.0, 0.0, 0.0, 0.0, 0.0, 0.0, 0.0, 1.7395365943234084E9, 0.0, 2025-02-14 09:36:34.323
106.0, -171659.98925685755, 17295.824563005517, -171831.13656415185, -171848.83914576046, -171822.70995649218, -171760.16977550625, -171920.3200245285, -165718.29208353665, 0.254, 0.98, 0.12, 192.0, 0.0, 0.0, 0.0, 0.0, 0.0, 0.0, 0.0, 0.0, 0.0, 1.7395365943234391E9, 0.0, 2025-02-14 09:36:34.323
107.0, -171664.05727434842, 17216.900553333828, -171835.22693338717, -171852.88481150687, -171826.73327049415, -171764.12603427484, -171924.34333853048, -165681.5681673966, 0.262, 0.966, 0.116, 192.0, 8.0, 48.0, 30.0, 48.0, 3.0, 160.0, 0.0, 0.0, 0.0, 1.7395365943234704E9, 0.0, 2025-02-14 09:36:34.323
108.0, -171667.74531218354, 16922.081043968326, -171838.7138055222, -171856.32698015298, -171830.17543914026, -171767.56820292096, -171927.7408036877, -165704.16578104088, 0.262, 0.966, 0.116, 192.0, 0.0, 0.0, 0.0, 0.0, 0.0, 0.0, 0.0, 0.0, 0.0, 1.7395365943234951E9, 0.0, 2025-02-14 09:36:34.323
109.0, -171670.38281802926, 16567.00123155132, -171841.03838694555, -171858.58450634297, -171832.47766881916, -171769.95983957767, -171929.95362638874, -165831.48131745833, 0.262, 0.966, 0.116, 192.0, 0.0, 0.0, 0.0, 0.0, 0.0, 0.0, 0.0, 0.0, 0.0, 1.739536594323516E9, 0.0, 2025-02-14 09:36:34.323
110.0, -171674.16026284223, 16375.424429824881, -171844.6146660584, -171862.1160819669, -171836.053947932, -171773.5361186905, -171933.57460899052, -165924.53162962577, 0.262, 0.966, 0.116, 192.0, 0.0, 0.0, 0.0, 0.0, 0.0, 0.0, 0.0, 0.0, 0.0, 1.7395365943235352E9, 0.0, 2025-02-14 09:36:34.323
111.0, -171675.68018146517, 16199.717366661713, -171846.0004742146, -171863.5689453565, -171837.43975608825, -171774.92192684676, -171934.96041714674, -165922.38586215806, 0.262, 0.966, 0.116, 192.0, 0.0, 0.0, 0.0, 0.0, 0.0, 0.0, 0.0, 0.0, 0.0, 1.7395365943235557E9, 0.0, 2025-02-14 09:36:34.323
112.0, -171678.80942568893, 15747.765093775404, -171848.72738703818, -171866.20645120222, -171840.14431716735, -171777.55943269248, -171937.59792299249, -165974.24190929436, 0.262, 0.966, 0.116, 192.0, 0.0, 0.0, 0.0, 0.0, 0.0, 0.0, 0.0, 0.0, 0.0, 1.7395365943235717E9, 0.0, 2025-02-14 09:36:34.323
113.0, -171684.57617575838, 14904.545534198945, -171853.80123302952, -171871.14618672684, -171845.2181631587, -171782.63327868382, -171942.4929550282, -166224.67085417162, 0.262, 0.966, 0.116, 192.0, 0.0, 0.0, 0.0, 0.0, 0.0, 0.0, 0.0, 0.0, 0.0, 1.7395365943235881E9, 0.0, 2025-02-14 09:36:34.323
114.0, -171688.59948976035, 12448.759370894359, -171855.7234830527, -171872.7778640721, -171847.27452364858, -171784.1979007957, -171928.05372811004, -166954.4106071485, 0.262, 0.966, 0.116, 192.0, 0.0, 0.0, 0.0, 0.0, 0.0, 0.0, 0.0, 0.0, 0.0, 1.7395365943236046E9, 0.0, 2025-02-14 09:36:34.323
115.0, -171690.85701595034, 2461.10587848495, -171849.62145681639, -171864.7088843237, -171841.48542183466, -171777.11239780337, -170430.91153274913, -169637.40225284128, 0.262, 0.966, 0.116, 192.0, 0.0, 0.0, 0.0, 0.0, 0.0, 0.0, 0.0, 0.0, 0.0, 1.7395365943236213E9, 0.0, 2025-02-14 09:36:34.323
116.0, -171695.7296962416, -8313.641943173641, -171847.0063027151, -171858.85272727642, -171839.4067096003, -171774.4972437021, -165734.54180175567, -171672.99797213054, 0.262, 0.966, 0.116, 192.0, 0.0, 0.0, 0.0, 0.0, 0.0, 0.0, 0.0, 0.0, 0.0, 1.7395365943236403E9, 0.0, 2025-02-14 09:36:34.323
117.0, -171695.1261991413, -11698.03132987396, -171844.43585210276, -171854.6058958299, -171837.19388689924, -171772.77615937905, -163638.05993057013, -171827.94026469474, 0.256, 0.968, 0.10400000000000001, 192.0, 8.0, 0.0, 30.0, 64.0, 3.0, 64.0, 0.0, 0.0, 0.0, 1.7395365943236575E9, 0.0, 2025-02-14 09:36:34.323
118.0, -171695.23795786357, -12422.049036270266, -171844.055872447, -171853.9129917518, -171836.97036945468, -171772.7985111235, -163264.0928940884, -171828.27554086156, 0.256, 0.968, 0.10400000000000001, 192.0, 0.0, 0.0, 0.0, 0.0, 0.0, 0.0, 0.0, 0.0, 0.0, 1.7395365943236911E9, 0.0, 2025-02-14 09:36:34.323
119.0, -171695.95321368615, -12679.831705073322, -171844.6593695473, -171854.561192341, -171837.48445957716, -171773.40200822378, -163186.53234082847, -171828.29789260603, 0.256, 0.968, 0.10400000000000001, 192.0, 0.0, 0.0, 0.0, 0.0, 0.0, 0.0, 0.0, 0.0, 0.0, 1.7395365943237123E9, 0.0, 2025-02-14 09:36:34.323
120.0, -171697.4284288202, -12924.382141158836, -171846.1122329369, -171856.12581445288, -171839.049081689, -171774.92192684676, -163174.35064010034, -171828.72257575067, 0.256, 0.968, 0.10400000000000001, 192.0, 0.0, 0.0, 0.0, 0.0, 0.0, 0.0, 0.0, 0.0, 0.0, 1.7395365948011658E9, 0.0, 2025-02-14 09:36:34.801
121.0, -171700.04358292147, -13146.26790836667, -171848.74973878262, -171858.69626506523, -171841.5971805569, -171777.62648792585, -163178.93274771367, -171830.1083839069, 0.256, 0.968, 0.10400000000000001, 192.0, 0.0, 0.0, 0.0, 0.0, 0.0, 0.0, 0.0, 0.0, 0.0, 1.7395365948012283E9, 0.0, 2025-02-14 09:36:34.801
122.0, -171700.04358292147, -13186.948083275329, -171848.816794016, -171858.74096855414, -171841.5971805569, -171777.6488396703, -163265.9927923671, -171828.63316877285, 0.256, 0.968, 0.10400000000000001, 192.0, 0.0, 0.0, 0.0, 0.0, 0.0, 0.0, 0.0, 0.0, 0.0, 1.7395365948012583E9, 0.0, 2025-02-14 09:36:34.801
123.0, -171699.529492799, -13112.740291683709, -171848.43681436026, -171858.49509936513, -171841.2619043901, -171777.3359152479, -163424.08668089946, -171824.98983442664, 0.256, 0.968, 0.10400000000000001, 192.0, 0.0, 0.0, 0.0, 0.0, 0.0, 0.0, 0.0, 0.0, 0.0, 1.7395365948012784E9, 0.0, 2025-02-14 09:36:34.801
124.0, -171703.30693761195, -13080.129096523417, -171852.3707213844, -171862.49606162263, -171845.12875618087, -171781.22511878313, -163614.6800058699, -171800.42526727024, 0.256, 0.968, 0.10400000000000001, 192.0, 0.0, 0.0, 0.0, 0.0, 0.0, 0.0, 0.0, 0.0, 0.0, 1.7395365948012989E9, 0.0, 2025-02-14 09:36:34.801
125.0, -171702.94930970066, -13072.373041197425, -171851.87898300638, -171862.45135813372, -171844.8158317585, -171781.0910083164, -163782.09457184013, -171585.93792747712, 0.256, 0.968, 0.10400000000000001, 192.0, 0.0, 0.0, 0.0, 0.0, 0.0, 0.0, 0.0, 0.0, 0.0, 1.7395365948013115E9, 0.0, 2025-02-14 09:36:34.801
126.0, -171703.6645655232, -12944.56576640198, -171852.7059975512, -171863.43483488975, -171845.59814281442, -171781.96272635018, -163984.71313532747, -171183.4500650704, 0.256, 0.968, 0.10400000000000001, 192.0, 0.0, 0.0, 0.0, 0.0, 0.0, 0.0, 0.0, 0.0, 0.0, 1.7395365948013241E9, 0.0, 2025-02-14 09:36:34.801
127.0, -171704.9162632127, -12723.574068972359, -171854.00239872962, -171864.9771052572, -171846.98395097067, -171783.28147927302, -164233.1751266927, -170691.04113472, 0.26, 0.962, 0.10200000000000001, 192.0, 8.0, 32.0, 30.0, 16.0, 3.0, 48.0, 0.0, 0.0, 0.0, 1.739536594801337E9, 0.0, 2025-02-14 09:36:34.801
128.0, -171707.46436208062, -12572.92331134359, -171856.6175528309, -171867.8604802919, -171849.62145681639, -171785.98604035212, -164464.24746087164, -170134.59445650512, 0.26, 0.962, 0.10200000000000001, 192.0, 0.0, 0.0, 0.0, 0.0, 0.0, 0.0, 0.0, 0.0, 0.0, 1.7395365948013508E9, 0.0, 2025-02-14 09:36:34.801
129.0, -171706.8161614914, -12489.640711503114, -171856.08111096398, -171867.59225935844, -171849.12971843837, -171785.4048949963, -164654.88548933095, -169644.6442180448, 0.26, 0.962, 0.10200000000000001, 192.0, 0.0, 0.0, 0.0, 0.0, 0.0, 0.0, 0.0, 0.0, 0.0, 1.7395365948013637E9, 0.0, 2025-02-14 09:36:34.801
130.0, -171707.8666934808, -12298.376834199053, -171857.33280865347, -171868.95571577022, -171850.3590643834, -171786.61188919688, -164873.91023324852, -169238.71418699197, 0.26, 0.962, 0.10200000000000001, 192.0, 0.0, 0.0, 0.0, 0.0, 0.0, 0.0, 0.0, 0.0, 0.0, 1.739536594801376E9, 0.0, 2025-02-14 09:36:34.801
131.0, -171708.93957721468, -12002.685606799794, -171858.4727476207, -171870.3638756709, -171851.58841032846, -171787.9976973531, -165150.37896041622, -168811.86292312897, 0.26, 0.962, 0.10200000000000001, 192.0, 0.0, 0.0, 0.0, 0.0, 0.0, 0.0, 0.0, 0.0, 0.0, 1.739536594801391E9, 0.0, 2025-02-14 09:36:34.801
132.0, -171709.69953652617, -11796.311950243944, -171859.43387263227, -171871.54851812703, -171852.59423882893, -171789.0482293425, -165401.36669890484, -168336.8883534537, 0.26, 0.962, 0.10200000000000001, 192.0, 0.0, 0.0, 0.0, 0.0, 0.0, 0.0, 0.0, 0.0, 0.0, 1.739536594801405E9, 0.0, 2025-02-14 09:36:34.801
133.0, -171711.86765573832, -11712.582315514364, -171861.80315754452, -171874.0742652505, -171854.9188202523, -171791.41751425478, -165584.09220982698, -167908.15954305645, 0.26, 0.962, 0.10200000000000001, 192.0, 0.0, 0.0, 0.0, 0.0, 0.0, 0.0, 0.0, 0.0, 0.0, 1.7395365948014183E9, 0.0, 2025-02-14 09:36:34.801
134.0, -171714.25929239503, -11570.156999845149, -171864.30655292352, -171876.73412284066, -171857.4669191202, -171793.96561312268, -165783.91680525744, -167563.92032670026, 0.26, 0.962, 0.10200000000000001, 192.0, 0.0, 0.0, 0.0, 0.0, 0.0, 0.0, 0.0, 0.0, 0.0, 1.7395365948014307E9, 0.0, 2025-02-14 09:36:34.801
135.0, -171714.01342320602, -11310.675598463487, -171864.1724424568, -171876.73412284066, -171857.3551603979, -171793.78679916702, -166223.35210124878, -167214.83078179727, 0.26, 0.962, 0.10200000000000001, 192.0, 0.0, 0.0, 0.0, 0.0, 0.0, 0.0, 0.0, 0.0, 0.0, 1.739536594801486E9, 0.0, 2025-02-14 09:36:34.801
136.0, -171715.86861799582, -11113.041473989662, -171866.3629134134, -171878.99164903065, -171859.4115208878, -171795.93256663473, -166765.8512909235, -166816.58975083707, 0.26, 0.962, 0.10200000000000001, 192.0, 0.0, 0.0, 0.0, 0.0, 0.0, 0.0, 0.0, 0.0, 0.0, 1.739536594801498E9, 0.0, 2025-02-14 09:36:34.801
137.0, -171718.50612384154, -11036.03971434113, -171869.08982623694, -171881.76326534312, -171862.1607854558, -171798.68183120273, -166945.33579889964, -166444.03087425602, 0.254, 0.988, 0.088, 192.0, 7.0, 240.0, 30.0, 224.0, 2.0, 192.0, 0.0, 0.0, 0.0, 1.7395365948015096E9, 0.0, 2025-02-14 09:36:34.801
138.0, -171722.39532737678, -10931.232384590196, -171873.00138151663, -171885.80893108953, -171866.04998899103, -171802.63808997133, -167093.4831611494, -166156.40862660512, 0.254, 0.988, 0.088, 192.0, 0.0, 0.0, 0.0, 0.0, 0.0, 0.0, 0.0, 0.0, 0.0, 1.7395365948015225E9, 0.0, 2025-02-14 09:36:34.801
139.0, -171725.01048147804, -10720.544841354471, -171875.70594259573, -171888.64760263535, -171868.6651430923, -171805.32029930595, -167276.61100347174, -165885.84075997362, 0.254, 0.988, 0.088, 192.0, 0.0, 0.0, 0.0, 0.0, 0.0, 0.0, 0.0, 0.0, 0.0, 1.7395365948015344E9, 0.0, 2025-02-14 09:36:34.801
140.0, -171726.530400101, -10534.645382719682, -171877.35997168542, -171890.39103870286, -171870.3638756709, -171806.99668014012, -167470.55709011044, -165555.325514713, 0.254, 0.988, 0.088, 192.0, 0.0, 0.0, 0.0, 0.0, 0.0, 0.0, 0.0, 0.0, 0.0, 1.7395365948015459E9, 0.0, 2025-02-14 09:36:34.801
141.0, -171728.4302983797, -10496.736824123482, -171879.46103566422, -171892.49210268166, -171872.44258790524, -171809.03068888554, -167597.6044055944, -165232.36515907827, 0.254, 0.988, 0.088, 192.0, 0.0, 0.0, 0.0, 0.0, 0.0, 0.0, 0.0, 0.0, 0.0, 1.7395365948015575E9, 0.0, 2025-02-14 09:36:34.801
142.0, -171731.4924873701, -10480.151829737644, -171882.56792814352, -171895.71075388324, -171875.571832129, -171812.27169183156, -167683.7256769807, -164997.82830450873, 0.254, 0.988, 0.088, 192.0, 0.0, 0.0, 0.0, 0.0, 0.0, 0.0, 0.0, 0.0, 0.0, 1.7395365948015692E9, 0.0, 2025-02-14 09:36:34.801
143.0, -171735.47109788313, -10338.575880357728, -171886.52418691208, -171899.8681783519, -171879.63984961985, -171816.29500583353, -167810.5718267646, -164804.46336322586, 0.254, 0.988, 0.088, 192.0, 0.0, 0.0, 0.0, 0.0, 0.0, 0.0, 0.0, 0.0, 0.0, 1.739536594801581E9, 0.0, 2025-02-14 09:36:34.801
144.0, -171738.0415484955, -10177.06217492368, -171889.13934101336, -171902.572739431, -171882.25500372113, -171818.88780819034, -167957.93687795842, -164677.99719309775, 0.254, 0.988, 0.088, 192.0, 0.0, 0.0, 0.0, 0.0, 0.0, 0.0, 0.0, 0.0, 0.0, 1.7395365948015926E9, 0.0, 2025-02-14 09:36:34.801
145.0, -171740.05320549646, -10155.135113613023, -171891.24040499216, -171904.69615515426, -171884.35606769993, -171820.94416868023, -168040.70538767643, -164555.42022650485, 0.254, 0.988, 0.088, 192.0, 0.0, 0.0, 0.0, 0.0, 0.0, 0.0, 0.0, 0.0, 0.0, 1.7395365948016045E9, 0.0, 2025-02-14 09:36:34.801
146.0, -171742.60130436436, -10188.863895996083, -171893.81085560453, -171907.2219022777, -171886.85946307893, -171823.53697103704, -168086.682926021, -164469.58952779646, 0.254, 0.988, 0.088, 192.0, 0.0, 0.0, 0.0, 0.0, 0.0, 0.0, 0.0, 0.0, 0.0, 1.7395365948016157E9, 0.0, 2025-02-14 09:36:34.801
147.0, -171745.46232765465, -10107.145918267479, -171896.69423063926, -171910.23938777918, -171889.76518985812, -171826.50975304958, -168167.30566827126, -164428.88700114336, 0.25, 0.99, 0.094, 192.0, 7.0, 208.0, 30.0, 240.0, 2.0, 240.0, 0.0, 0.0, 0.0, 1.7395365948016274E9, 0.0, 2025-02-14 09:36:34.801
148.0, -171748.07748175593, -9977.081117282047, -171899.4211434628, -171912.98865234718, -171892.44739919275, -171829.23666587315, -168267.59794564225, -164348.10779668187, 0.25, 0.99, 0.094, 192.0, 0.0, 0.0, 0.0, 0.0, 0.0, 0.0, 0.0, 0.0, 0.0, 1.7395365948016396E9, 0.0, 2025-02-14 09:36:34.801
149.0, -171748.27864745603, -9969.503875911698, -171899.68936439627, -171913.21216979172, -171892.71562012623, -171829.5048868066, -168329.55698127236, -164351.57231707245, 0.25, 0.99, 0.094, 192.0, 0.0, 0.0, 0.0, 0.0, 0.0, 0.0, 0.0, 0.0, 0.0, 1.7395365948016512E9, 0.0, 2025-02-14 09:36:34.801
150.0, -171748.03277826702, -10040.60477502403, -171899.46584695173, -171912.98865234718, -171892.55915791504, -171829.3037211065, -168344.1750221461, -164297.2799297905, 0.25, 0.99, 0.094, 192.0, 0.0, 0.0, 0.0, 0.0, 0.0, 0.0, 0.0, 0.0, 0.0, 1.7395365948016713E9, 0.0, 2025-02-14 09:36:34.801
151.0, -171749.44093816768, -10015.07908285607, -171900.80695161904, -171914.39681224787, -171893.90026258235, -171830.801287985, -168393.68413611464, -164273.02828705648, 0.25, 0.99, 0.094, 192.0, 0.0, 0.0, 0.0, 0.0, 0.0, 0.0, 0.0, 0.0, 0.0, 1.739536594801683E9, 0.0, 2025-02-14 09:36:34.801
152.0, -171750.46911841264, -9903.432119301811, -171901.87983535288, -171915.55910295952, -171894.9731463162, -171831.78476474105, -168483.2699278915, -164347.6831135372, 0.25, 0.99, 0.094, 192.0, 0.0, 0.0, 0.0, 0.0, 0.0, 0.0, 0.0, 0.0, 0.0, 1.7395365948016949E9, 0.0, 2025-02-14 09:36:34.801
153.0, -171753.28543821402, -9893.686758719297, -171904.85261736545, -171918.44247799428, -171897.81181786204, -171834.6010845424, -168528.28634122448, -164369.52076787004, 0.25, 0.99, 0.094, 192.0, 0.0, 0.0, 0.0, 0.0, 0.0, 0.0, 0.0, 0.0, 0.0, 1.7395365948017063E9, 0.0, 2025-02-14 09:36:34.801
154.0, -171753.86658356985, -9992.50382095621, -171905.3667074879, -171918.9342163723, -171898.46001845124, -171835.2045816427, -168507.9239020257, -164323.40911905875, 0.25, 0.99, 0.094, 192.0, 0.0, 0.0, 0.0, 0.0, 0.0, 0.0, 0.0, 0.0, 0.0, 1.739536594801718E9, 0.0, 2025-02-14 09:36:34.801
155.0, -171755.20768823716, -10021.941068403848, -171906.68546041078, -171920.3870797619, -171899.823474863, -171836.59038979895, -168525.38061444528, -164260.86893807282, 0.25, 0.99, 0.094, 192.0, 0.0, 0.0, 0.0, 0.0, 0.0, 0.0, 0.0, 0.0, 0.0, 1.7395365948017297E9, 0.0, 2025-02-14 09:36:34.801
156.0, -171756.86171732686, -9949.007326246183, -171908.33948950047, -171922.04110885158, -171901.45515220825, -171838.26677063308, -168587.04907739747, -164321.50922078005, 0.25, 0.99, 0.094, 192.0, 0.0, 0.0, 0.0, 0.0, 0.0, 0.0, 0.0, 0.0, 0.0, 1.7395365948017411E9, 0.0, 2025-02-14 09:36:34.801
157.0, -171759.54392666148, -9946.414523889367, -171911.11110581292, -171924.74566993068, -171904.1150097984, -171840.8595729899, -168626.63401682783, -164386.39633493382, 0.262, 0.96, 0.096, 192.0, 8.0, 48.0, 30.0, 0.0, 3.0, 0.0, 0.0, 0.0, 0.0, 1.7395365948017528E9, 0.0, 2025-02-14 09:36:34.801
158.0, -171763.07550228544, -10068.924435248904, -171914.68738492578, -171928.36665253242, -171907.64658542236, -171844.5029073361, -168603.5893682944, -164348.37601761534, 0.262, 0.96, 0.096, 192.0, 0.0, 0.0, 0.0, 0.0, 0.0, 0.0, 0.0, 0.0, 0.0, 1.7395365948017652E9, 0.0, 2025-02-14 09:36:34.801
159.0, -171765.0871592864, -10151.91646241146, -171916.6319866934, -171930.3336060445, -171909.50178021216, -171846.4028056148, -168586.22206285264, -164285.65702267375, 0.262, 0.96, 0.096, 192.0, 0.0, 0.0, 0.0, 0.0, 0.0, 0.0, 0.0, 0.0, 0.0, 1.739536594801777E9, 0.0, 2025-02-14 09:36:34.801
160.0, -171766.87529884285, -10113.806738115161, -171918.330719272, -171932.12174560092, -171911.31227151302, -171848.19094517126, -168624.5106011046, -164306.31003455044, 0.262, 0.96, 0.096, 192.0, 0.0, 0.0, 0.0, 0.0, 0.0, 0.0, 0.0, 0.0, 0.0, 1.7395365948017883E9, 0.0, 2025-02-14 09:36:34.801
161.0, -171766.02593255354, -10109.291685735188, -171917.5260564716, -171931.27237931162, -171910.55231220156, -171847.3192271375, -168661.30157247803, -164382.68594535423, 0.262, 0.96, 0.096, 192.0, 0.0, 0.0, 0.0, 0.0, 0.0, 0.0, 0.0, 0.0, 0.0, 1.7395365948018005E9, 0.0, 2025-02-14 09:36:34.801
162.0, -171766.9423540762, -10233.1650535065, -171918.4201262498, -171932.16644908983, -171911.49108546868, -171848.23564866016, -168634.6135895984, -164341.40227334527, 0.262, 0.96, 0.096, 192.0, 0.0, 0.0, 0.0, 0.0, 0.0, 0.0, 0.0, 0.0, 0.0, 1.7395365948018117E9, 0.0, 2025-02-14 09:36:34.801
163.0, -171771.36799947836, -10334.038476233301, -171922.9351786298, -171936.56974274752, -171915.89437912637, -171852.54953534002, -168609.91491197527, -164276.89513884726, 0.262, 0.96, 0.096, 192.0, 0.0, 0.0, 0.0, 0.0, 0.0, 0.0, 0.0, 0.0, 0.0, 1.7395365948018236E9, 0.0, 2025-02-14 09:36:34.801
164.0, -171771.6809239007, -10298.722719993917, -171923.20339956327, -171936.86031542544, -171916.1849518043, -171852.8624597624, -168645.6106478704, -164293.4801332331, 0.262, 0.96, 0.096, 192.0, 0.0, 0.0, 0.0, 0.0, 0.0, 0.0, 0.0, 0.0, 0.0, 1.7395365948018413E9, 0.0, 2025-02-14 09:36:34.801
165.0, -171772.46323495667, -10265.642138200063, -171924.00806236363, -171937.77673694812, -171916.9672628602, -171853.7118260517, -168686.9166716238, -164379.57905287493, 0.262, 0.96, 0.096, 192.0, 0.0, 0.0, 0.0, 0.0, 0.0, 0.0, 0.0, 0.0, 0.0, 1.7395365948018537E9, 0.0, 2025-02-14 09:36:34.801
166.0, -171774.81016812447, -10352.456313664474, -171926.4220507648, -171940.16837360483, -171919.3812512614, -171856.12581445288, -168674.3549912399, -164384.47408491065, 0.262, 0.96, 0.096, 192.0, 0.0, 0.0, 0.0, 0.0, 0.0, 0.0, 0.0, 0.0, 0.0, 1.739536594801865E9, 0.0, 2025-02-14 09:36:34.801
167.0, -171776.37479023635, -10443.562024064306, -171927.9866728767, -171941.6882922278, -171920.8788181399, -171857.6680848203, -168652.65144737382, -164296.519970479, 0.252, 0.974, 0.098, 192.0, 7.0, 224.0, 30.0, 112.0, 3.0, 16.0, 0.0, 0.0, 0.0, 1.7395365948018765E9, 0.0, 2025-02-14 09:36:34.801
168.0, -171776.8888803588, -10401.853668910702, -171928.4337077658, -171942.22473409472, -171921.39290826238, -171858.24923017612, -168696.5726252285, -164302.35377578184, 0.252, 0.974, 0.098, 192.0, 0.0, 0.0, 0.0, 0.0, 0.0, 0.0, 0.0, 0.0, 0.0, 1.7395365948018887E9, 0.0, 2025-02-14 09:36:34.801
169.0, -171778.65466817078, -10323.063769705746, -171930.24419906668, -171944.12463237342, -171923.2704547966, -171860.14912845482, -168764.2313556947, -164388.6538611238, 0.252, 0.974, 0.098, 192.0, 0.0, 0.0, 0.0, 0.0, 0.0, 0.0, 0.0, 0.0, 0.0, 1.7395365948019004E9, 0.0, 2025-02-14 09:36:34.801
170.0, -171782.3427060059, -10375.120982542156, -171933.99929213518, -171947.81267020854, -171926.95849263173, -171863.7701110566, -168772.6803150988, -164400.99202406313, 0.252, 0.974, 0.098, 192.0, 0.0, 0.0, 0.0, 0.0, 0.0, 0.0, 0.0, 0.0, 0.0, 1.7395365948019123E9, 0.0, 2025-02-14 09:36:34.801
171.0, -171782.96855485067, -10472.373422667197, -171934.60278923545, -171948.39381556437, -171927.5396379876, -171864.2618494346, -168751.24499216618, -164316.8824096778, 0.252, 0.974, 0.098, 192.0, 0.0, 0.0, 0.0, 0.0, 0.0, 0.0, 0.0, 0.0, 0.0, 1.739536594801924E9, 0.0, 2025-02-14 09:36:34.801
172.0, -171784.57788045143, -10454.40262012513, -171936.30152181405, -171950.11489988744, -171929.17131533282, -171866.00528550212, -168781.79982683656, -164295.76001116753, 0.252, 0.974, 0.098, 192.0, 0.0, 0.0, 0.0, 0.0, 0.0, 0.0, 0.0, 0.0, 0.0, 1.7395365948019357E9, 0.0, 2025-02-14 09:36:34.801
173.0, -171784.91315661828, -10374.651595908594, -171936.50268751415, -171950.45017605426, -171929.5289432441, -171866.45232039122, -168843.7588624667, -164374.37109641684, 0.252, 0.974, 0.098, 192.0, 0.0, 0.0, 0.0, 0.0, 0.0, 0.0, 0.0, 0.0, 0.0, 1.739536594801947E9, 0.0, 2025-02-14 09:36:34.801
174.0, -171785.58370895192, -10400.803136921304, -171937.35205380345, -171951.12072838793, -171930.31125430003, -171867.18992795824, -168874.26899364818, -164409.9997770786, 0.252, 0.974, 0.098, 192.0, 0.0, 0.0, 0.0, 0.0, 0.0, 0.0, 0.0, 0.0, 0.0, 1.7395365948019588E9, 0.0, 2025-02-14 09:36:34.801
175.0, -171788.3553252644, -10511.287809763886, -171940.25778058264, -171954.00410342266, -171933.10522235694, -171869.98389601515, -168843.28947583312, -164334.85321221987, 0.252, 0.974, 0.098, 192.0, 0.0, 0.0, 0.0, 0.0, 0.0, 0.0, 0.0, 0.0, 0.0, 1.7395365948019705E9, 0.0, 2025-02-14 09:36:34.801
176.0, -171788.66824968677, -10521.681370935605, -171940.54835326056, -171954.3393795895, -171933.41814677932, -171870.25211694863, -168840.83078394303, -164300.0738978474, 0.252, 0.974, 0.098, 192.0, 0.0, 0.0, 0.0, 0.0, 0.0, 0.0, 0.0, 0.0, 0.0, 1.739536594801982E9, 0.0, 2025-02-14 09:36:34.801
177.0, -171791.5069212326, -10442.310326374809, -171943.31996957303, -171957.15569939086, -171936.36857704743, -171873.09078849445, -168897.53715962617, -164375.46633189515, 0.252, 0.982, 0.106, 192.0, 7.0, 224.0, 30.0, 176.0, 3.0, 80.0, 0.0, 0.0, 0.0, 1.7395365948019936E9, 0.0, 2025-02-14 09:36:34.801
178.0, -171794.7032206897, -10456.079000959278, -171946.44921379676, -171960.32964710353, -171939.5425247601, -171876.4211984183, -168926.16974427341, -164424.2154865522, 0.252, 0.982, 0.106, 192.0, 0.0, 0.0, 0.0, 0.0, 0.0, 0.0, 0.0, 0.0, 0.0, 1.7395365948020058E9, 0.0, 2025-02-14 09:36:34.802
179.0, -171795.798456168, -10573.448011094095, -171947.6338562529, -171961.42488258184, -171940.61540849393, -171877.4717304077, -168905.4720289078, -164344.15153791328, 0.252, 0.982, 0.106, 192.0, 0.0, 0.0, 0.0, 0.0, 0.0, 0.0, 0.0, 0.0, 0.0, 1.7395365948020234E9, 0.0, 2025-02-14 09:36:34.802
180.0, -171797.67600270224, -10614.083482513845, -171949.51140278715, -171963.28007737163, -171942.51530677264, -171879.30457345303, -168914.18920924535, -164305.86299966133, 0.252, 0.982, 0.106, 192.0, 0.0, 0.0, 0.0, 0.0, 0.0, 0.0, 0.0, 0.0, 0.0, 1.739536594802035E9, 0.0, 2025-02-14 09:36:34.802
181.0, -171797.56424397998, -10542.669658979137, -171949.44434755377, -171963.32478086054, -171942.4929550282, -171879.28222170856, -168970.96264016183, -164346.9902094591, 0.252, 0.982, 0.106, 192.0, 0.0, 0.0, 0.0, 0.0, 0.0, 0.0, 0.0, 0.0, 0.0, 1.7395365948020468E9, 0.0, 2025-02-14 09:36:34.802
182.0, -171798.27949980253, -10531.538490240395, -171950.11489988744, -171964.01768493865, -171943.1858591063, -171879.9751257867, -169008.4912191023, -164425.84716389742, 0.252, 0.982, 0.106, 192.0, 0.0, 0.0, 0.0, 0.0, 0.0, 0.0, 0.0, 0.0, 0.0, 1.7395365948020585E9, 0.0, 2025-02-14 09:36:34.802
183.0, -171800.4029155258, -10643.163102050197, -171952.17126037733, -171966.05169368407, -171945.19751610726, -171882.03148627657, -168991.8391694831, -164378.93085228573, 0.252, 0.982, 0.106, 192.0, 0.0, 0.0, 0.0, 0.0, 0.0, 0.0, 0.0, 0.0, 0.0, 1.7395365948020759E9, 0.0, 2025-02-14 09:36:34.802
184.0, -171804.73915395013, -10711.380626127795, -171956.57455403503, -171970.36558036396, -171949.55610627605, -171886.39007644536, -168983.97135543483, -164310.8921421638, 0.252, 0.982, 0.106, 192.0, 0.0, 0.0, 0.0, 0.0, 0.0, 0.0, 0.0, 0.0, 0.0, 1.7395365948020875E9, 0.0, 2025-02-14 09:36:34.802
185.0, -171807.24254932912, -10650.852102142824, -171959.14500464738, -171972.95838272077, -171952.01479816614, -171888.87112007992, -169031.647626358, -164350.61119206087, 0.252, 0.982, 0.106, 192.0, 0.0, 0.0, 0.0, 0.0, 0.0, 0.0, 0.0, 0.0, 0.0, 1.739536594802099E9, 0.0, 2025-02-14 09:36:34.802
186.0, -171809.16479935226, -10629.953221077112, -171961.089606415, -171974.97003972175, -171953.95939993375, -171890.81572184752, -169069.08679832064, -164432.64209421183, 0.252, 0.982, 0.106, 192.0, 0.0, 0.0, 0.0, 0.0, 0.0, 0.0, 0.0, 0.0, 0.0, 1.7395365948021104E9, 0.0, 2025-02-14 09:36:34.802
187.0, -171810.84118018643, -10744.282393966007, -171962.72128376024, -171976.60171706698, -171955.70283600126, -171892.49210268166, -169057.77681562625, -164397.43809669474, 0.24, 0.974, 0.108, 192.0, 7.0, 128.0, 30.0, 112.0, 3.0, 96.0, 0.0, 0.0, 0.0, 1.739536594802122E9, 0.0, 2025-02-14 09:36:34.802
188.0, -171812.89754067632, -10855.437619142249, -171964.79999599457, -171978.70278104578, -171957.75919649116, -171894.63787014937, -169038.97899853933, -164326.49365979357, 0.24, 0.974, 0.108, 192.0, 0.0, 0.0, 0.0, 0.0, 0.0, 0.0, 0.0, 0.0, 0.0, 1.7395365948021348E9, 0.0, 2025-02-14 09:36:34.802
189.0, -171813.03165114304, -10858.991546510642, -171964.93410646133, -171978.92629849035, -171957.91565870235, -171894.81668410503, -169053.03824580173, -164336.037854676, 0.24, 0.974, 0.108, 192.0, 0.0, 0.0, 0.0, 0.0, 0.0, 0.0, 0.0, 0.0, 0.0, 1.7395365948021464E9, 0.0, 2025-02-14 09:36:34.802
190.0, -171815.04330814403, -10887.333558479973, -171966.9904669512, -171980.87090025796, -171959.90496395886, -171896.85069285045, -169063.72237965136, -164404.61300666488, 0.24, 0.974, 0.108, 192.0, 0.0, 0.0, 0.0, 0.0, 0.0, 0.0, 0.0, 0.0, 0.0, 1.7395365948021579E9, 0.0, 2025-02-14 09:36:34.802
191.0, -171815.78091571105, -11038.721923675766, -171967.75042626268, -171981.56380433607, -171960.64257152588, -171897.54359692856, -169024.40566115448, -164396.78989610553, 0.24, 0.974, 0.108, 192.0, 0.0, 0.0, 0.0, 0.0, 0.0, 0.0, 0.0, 0.0, 0.0, 1.739536594802169E9, 0.0, 2025-02-14 09:36:34.802
192.0, -171815.44563954422, -11185.461126024858, -171967.3927983514, -171981.2955834026, -171960.32964710353, -171897.1189137839, -168983.2337478678, -164334.76380524205, 0.24, 0.974, 0.108, 192.0, 0.0, 0.0, 0.0, 0.0, 0.0, 0.0, 0.0, 0.0, 0.0, 1.7395365948021808E9, 0.0, 2025-02-14 09:36:34.802
193.0, -171816.92085467826, -11177.280387554216, -171968.86801348545, -171982.7484467922, -171961.84956572647, -171898.54942542905, -169014.74970754978, -164342.51986056805, 0.24, 0.974, 0.108, 192.0, 0.0, 0.0, 0.0, 0.0, 0.0, 0.0, 0.0, 0.0, 0.0, 1.7395365948021924E9, 0.0, 2025-02-14 09:36:34.802
194.0, -171820.72065123566, -11108.235848931772, -171972.77956876514, -171986.6376503274, -171965.71641751725, -171902.55038768656, -169082.94487988294, -164423.88021038537, 0.24, 0.974, 0.108, 192.0, 0.0, 0.0, 0.0, 0.0, 0.0, 0.0, 0.0, 0.0, 0.0, 1.7395365948022103E9, 0.0, 2025-02-14 09:36:34.802
195.0, -171823.84989545943, -11124.686732850878, -171975.90881298887, -171989.85630152898, -171968.8903652299, -171905.74668714366, -169129.14593567204, -164450.076454887, 0.24, 0.974, 0.108, 192.0, 0.0, 0.0, 0.0, 0.0, 0.0, 0.0, 0.0, 0.0, 0.0, 1.7395365948022227E9, 0.0, 2025-02-14 09:36:34.802
196.0, -171825.92860769376, -11147.954898828853, -171977.9875252232, -171991.95736550778, -171970.90202223088, -171907.8701028669, -169159.4772528979, -164404.47889619815, 0.24, 0.974, 0.108, 192.0, 0.0, 0.0, 0.0, 0.0, 0.0, 0.0, 0.0, 0.0, 0.0, 1.739536594802235E9, 0.0, 2025-02-14 09:36:34.802
197.0, -171827.00149142763, -11033.022228839664, -171979.01570546816, -171993.07495273053, -171971.97490596474, -171908.8759313674, -169243.31864634977, -164395.0017565491, 0.246, 0.976, 0.11, 192.0, 7.0, 176.0, 30.0, 128.0, 3.0, 112.0, 0.0, 0.0, 0.0, 1.7395365948022473E9, 0.0, 2025-02-14 09:36:34.802
198.0, -171828.90138970633, -10854.990584253143, -171981.0497142136, -171995.10896147598, -171974.00891471017, -171910.88758836838, -169368.24254611047, -164455.12794913386, 0.246, 0.976, 0.11, 192.0, 0.0, 0.0, 0.0, 0.0, 0.0, 0.0, 0.0, 0.0, 0.0, 1.73953659480226E9, 0.0, 2025-02-14 09:36:34.802
199.0, -171829.19196238424, -10781.967435117655, -171981.51910084716, -171995.6454033429, -171974.36654262146, -171911.33462325748, -169455.36964599724, -164432.59739072292, 0.246, 0.976, 0.11, 192.0, 0.0, 0.0, 0.0, 0.0, 0.0, 0.0, 0.0, 0.0, 0.0, 1.7395365948022723E9, 0.0, 2025-02-14 09:36:34.802
200.0, -171831.38243334086, -10761.895568596789, -171983.6872200593, -171997.72411557724, -171976.5793653225, -171913.50274246966, -169509.81849549038, -164433.17853607878, 0.246, 0.976, 0.11, 192.0, 0.0, 0.0, 0.0, 0.0, 0.0, 0.0, 0.0, 0.0, 0.0, 1.7395365948022845E9, 0.0, 2025-02-14 09:36:34.802
201.0, -171834.08699441995, -10631.00375306651, -171986.32472590503, -172000.51808363415, -171979.37333337945, -171916.2296552932, -169605.6851274592, -164421.7567946621, 0.246, 0.976, 0.11, 192.0, 0.0, 0.0, 0.0, 0.0, 0.0, 0.0, 0.0, 0.0, 0.0, 1.739536594802297E9, 0.0, 2025-02-14 09:36:34.802
202.0, -171833.21527638618, -10413.543631260829, -171985.56476659357, -171999.82517955604, -171978.61337406797, -171915.44734423727, -169761.85676596843, -164437.64888496982, 0.246, 0.976, 0.11, 192.0, 0.0, 0.0, 0.0, 0.0, 0.0, 0.0, 0.0, 0.0, 0.0, 1.7395365948023107E9, 0.0, 2025-02-14 09:36:34.802
203.0, -171834.82460198697, -10273.956987137437, -171987.37525789443, -172001.68037434583, -171980.22269966875, -171917.10137332696, -169893.01680243216, -164419.8568963834, 0.246, 0.976, 0.11, 192.0, 0.0, 0.0, 0.0, 0.0, 0.0, 0.0, 0.0, 0.0, 0.0, 1.739536594802323E9, 0.0, 2025-02-14 09:36:34.802
204.0, -171836.34452060994, -10211.103881729112, -171989.00693523968, -172003.33440343553, -171981.87672875842, -171918.68834718328, -169988.68226870088, -164407.11640204387, 0.246, 0.976, 0.11, 192.0, 0.0, 0.0, 0.0, 0.0, 0.0, 0.0, 0.0, 0.0, 0.0, 1.7395365948023355E9, 0.0, 2025-02-14 09:36:34.802
205.0, -171834.1093461644, -10058.08383918808, -171986.77176079416, -172001.12158073444, -171979.57449907955, -171916.56493146002, -170110.45457249339, -164442.99095189464, 0.246, 0.976, 0.11, 192.0, 0.0, 0.0, 0.0, 0.0, 0.0, 0.0, 0.0, 0.0, 0.0, 1.739536594802348E9, 0.0, 2025-02-14 09:36:34.802
206.0, -171834.89165722035, -9806.090272198948, -171987.55407185009, -172002.0603540016, -171980.51327234667, -171917.4366494938, -170279.3443535977, -164465.56621379452, 0.246, 0.976, 0.11, 192.0, 0.0, 0.0, 0.0, 0.0, 0.0, 0.0, 0.0, 0.0, 0.0, 1.73953659480236E9, 0.0, 2025-02-14 09:36:34.802
207.0, -171836.6574450323, -9624.035313610473, -171989.40926663988, -172004.07201100254, -171982.346115392, -171919.1800855613, -170431.24680891595, -164437.067739614, 0.24, 0.992, 0.114, 192.0, 7.0, 128.0, 31.0, 0.0, 3.0, 144.0, 0.0, 0.0, 0.0, 1.7395365948023725E9, 0.0, 2025-02-14 09:36:34.802
208.0, -171837.3503491104, -9545.22306266106, -171990.1468742069, -172004.8990255474, -171983.083722959, -171919.9847483617, -170539.42925207966, -164414.09014631395, 0.24, 0.992, 0.114, 192.0, 0.0, 0.0, 0.0, 0.0, 0.0, 0.0, 0.0, 0.0, 0.0, 1.739536594802385E9, 0.0, 2025-02-14 09:36:34.802
209.0, -171838.3561776109, -9409.346808117249, -171991.30916491858, -172006.03896451462, -171984.2460136707, -171921.1693908178, -170658.16171862624, -164442.5215652611, 0.24, 0.992, 0.114, 192.0, 0.0, 0.0, 0.0, 0.0, 0.0, 0.0, 0.0, 0.0, 0.0, 1.7395365948024037E9, 0.0, 2025-02-14 09:36:34.802
210.0, -171840.5019450786, -9166.159828443508, -171993.52198761964, -172008.31884244905, -171986.4364846273, -171923.40456526336, -170821.0612322165, -164462.61578352642, 0.24, 0.992, 0.114, 192.0, 0.0, 0.0, 0.0, 0.0, 0.0, 0.0, 0.0, 0.0, 0.0, 1.739536594802416E9, 0.0, 2025-02-14 09:36:34.802
211.0, -171842.87122999088, -8965.44116323485, -171996.0477347431, -172010.86694131696, -171988.87282477296, -171925.8856088979, -170986.3076789746, -164462.70519050423, 0.24, 0.992, 0.114, 192.0, 0.0, 0.0, 0.0, 0.0, 0.0, 0.0, 0.0, 0.0, 0.0, 1.739536594802429E9, 0.0, 2025-02-14 09:36:34.802
212.0, -171843.1618026688, -8879.9457406933, -171996.47241788774, -172011.2022174838, -171989.20810093978, -171926.19853332028, -171111.4327444354, -164442.8568414279, 0.24, 0.992, 0.114, 192.0, 0.0, 0.0, 0.0, 0.0, 0.0, 0.0, 0.0, 0.0, 0.0, 1.7395365948024404E9, 0.0, 2025-02-14 09:36:34.802
213.0, -171843.6982445357, -8766.73415502717, -171996.87474928793, -172011.850418073, -171989.7892462956, -171926.75732693163, -171222.27504518928, -164444.0191321396, 0.24, 0.992, 0.114, 192.0, 0.0, 0.0, 0.0, 0.0, 0.0, 0.0, 0.0, 0.0, 0.0, 1.739536594802452E9, 0.0, 2025-02-14 09:36:34.802
214.0, -171848.03448296007, -8543.127303496278, -172001.18863596782, -172016.27606347515, -171994.17018820887, -171931.11591710043, -171369.46128242748, -164434.318475046, 0.24, 0.992, 0.114, 192.0, 0.0, 0.0, 0.0, 0.0, 0.0, 0.0, 0.0, 0.0, 0.0, 1.7395365948024635E9, 0.0, 2025-02-14 09:36:34.802
215.0, -171848.6156283159, -8335.993687628948, -172002.0603540016, -172017.10307802, -171995.01955449817, -171931.8758764119, -171534.37245301873, -164471.66824003082, 0.24, 0.992, 0.114, 192.0, 0.0, 0.0, 0.0, 0.0, 0.0, 0.0, 0.0, 0.0, 0.0, 1.7395365948024752E9, 0.0, 2025-02-14 09:36:34.802
216.0, -171849.5096980941, -8244.53034931783, -172003.02147901314, -172018.1536100094, -171995.8912725319, -171932.8370014235, -171637.48105019107, -164463.73337074916, 0.24, 0.992, 0.114, 192.0, 0.0, 0.0, 0.0, 0.0, 0.0, 0.0, 0.0, 0.0, 0.0, 1.7395365948024867E9, 0.0, 2025-02-14 09:36:34.802
217.0, -171849.53204983857, -8155.525702896799, -172002.9991272687, -172018.26536873166, -171995.86892078747, -171932.90405665684, -171720.49542909808, -164426.7635854201, 0.242, 0.986, 0.11800000000000001, 192.0, 7.0, 144.0, 30.0, 208.0, 3.0, 176.0, 0.0, 0.0, 0.0, 1.739536594802498E9, 0.0, 2025-02-14 09:36:34.802
218.0, -171852.5718870845, -7951.9907178867725, -172006.1507232369, -172021.34990946652, -171998.9981650112, -171935.9885973917, -171844.03352070256, -164408.0998787999, 0.242, 0.986, 0.11800000000000001, 192.0, 0.0, 0.0, 0.0, 0.0, 0.0, 0.0, 0.0, 0.0, 0.0, 1.7395365948025105E9, 0.0, 2025-02-14 09:36:34.802
219.0, -171854.069453963, -7734.128264680894, -172007.89415930441, -172023.09334553403, -172000.607490612, -171937.6873299703, -171977.9428217343, -164475.82566449948, 0.242, 0.986, 0.11800000000000001, 192.0, 0.0, 0.0, 0.0, 0.0, 0.0, 0.0, 0.0, 0.0, 0.0, 1.739536594802522E9, 0.0, 2025-02-14 09:36:34.802
220.0, -171854.24826791862, -7634.685353599233, -172008.27413896014, -172023.56273216757, -172000.83100805653, -171937.9331991593, -172054.87752614947, -164487.24740591616, 0.242, 0.986, 0.11800000000000001, 192.0, 0.0, 0.0, 0.0, 0.0, 0.0, 0.0, 0.0, 0.0, 0.0, 1.7395365948025336E9, 0.0, 2025-02-14 09:36:34.802
221.0, -171853.73417779617, -7570.334681312404, -172007.87180755995, -172023.24980774522, -172000.47338014524, -171937.50851601464, -172071.9095554244, -164418.47108822718, 0.242, 0.986, 0.11800000000000001, 192.0, 0.0, 0.0, 0.0, 0.0, 0.0, 0.0, 0.0, 0.0, 0.0, 1.739536594802545E9, 0.0, 2025-02-14 09:36:34.802
222.0, -171856.97518074219, -7401.5119554414705, -172011.358679695, -172026.71432813577, -172003.91554879135, -171940.95068466075, -172081.5208055402, -164379.91432904176, 0.242, 0.986, 0.11800000000000001, 192.0, 0.0, 0.0, 0.0, 0.0, 0.0, 0.0, 0.0, 0.0, 0.0, 1.7395365948025565E9, 0.0, 2025-02-14 09:36:34.802
223.0, -171859.27741042108, -7188.410423804573, -172013.68326111833, -172029.01655781467, -172006.3071854481, -171943.3423213175, -172086.7734654872, -164466.01324868362, 0.242, 0.986, 0.11800000000000001, 192.0, 0.0, 0.0, 0.0, 0.0, 0.0, 0.0, 0.0, 0.0, 0.0, 1.739536594802568E9, 0.0, 2025-02-14 09:36:34.802
224.0, -171861.35612265542, -7074.237713126864, -172015.76197335267, -172031.16232528238, -172008.38589768243, -171945.4433852963, -172090.41679983342, -164495.80812404252, 0.242, 0.986, 0.11800000000000001, 192.0, 0.0, 0.0, 0.0, 0.0, 0.0, 0.0, 0.0, 0.0, 0.0, 1.7395365948025856E9, 0.0, 2025-02-14 09:36:34.802
225.0, -171862.85368953392, -7022.739293901836, -172017.32659546455, -172032.83870611654, -172009.97287153875, -171947.00800740815, -172093.14371265695, -164421.44387023972, 0.242, 0.986, 0.11800000000000001, 192.0, 0.0, 0.0, 0.0, 0.0, 0.0, 0.0, 0.0, 0.0, 0.0, 1.739536594802597E9, 0.0, 2025-02-14 09:36:34.802
226.0, -171864.44066339024, -6901.0787488316, -172019.15943850987, -172034.62684567296, -172011.62690062844, -171948.77379522013, -172096.34001211406, -164376.0027737621, 0.242, 0.986, 0.11800000000000001, 192.0, 0.0, 0.0, 0.0, 0.0, 0.0, 0.0, 0.0, 0.0, 0.0, 1.7395365948026085E9, 0.0, 2025-02-14 09:36:34.802
227.0, -171865.55825061302, -6737.016944529646, -172020.27702573265, -172035.74443289574, -172012.8562465735, -171949.98078942072, -172098.08344818157, -164415.02891958106, 0.246, 0.966, 0.11800000000000001, 192.0, 7.0, 176.0, 30.0, 48.0, 3.0, 176.0, 0.0, 0.0, 0.0, 1.73953659480262E9, 0.0, 2025-02-14 09:36:34.802
228.0, -171867.10052098043, -6676.399013566854, -172021.79694435562, -172037.37611024096, -172014.48792391873, -171951.54541153257, -172099.58101506007, -164471.55648130854, 0.246, 0.966, 0.11800000000000001, 192.0, 0.0, 0.0, 0.0, 0.0, 0.0, 0.0, 0.0, 0.0, 0.0, 1.739536594802632E9, 0.0, 2025-02-14 09:36:34.802
229.0, -171868.08399773645, -6694.995664953669, -172022.91453157837, -172038.49369746374, -172015.49375241922, -171952.55124003306, -172101.32445112758, -164424.0143208521, 0.246, 0.966, 0.11800000000000001, 192.0, 0.0, 0.0, 0.0, 0.0, 0.0, 0.0, 0.0, 0.0, 0.0, 1.7395365948026435E9, 0.0, 2025-02-14 09:36:34.802
230.0, -171869.69332333724, -6630.287364755555, -172024.61326415697, -172040.23713353125, -172017.10307802, -171954.24997261167, -172104.00666046224, -164402.55664617498, 0.246, 0.966, 0.11800000000000001, 192.0, 0.0, 0.0, 0.0, 0.0, 0.0, 0.0, 0.0, 0.0, 0.0, 1.739536594802655E9, 0.0, 2025-02-14 09:36:34.802
231.0, -171872.0179047606, -6473.333415190389, -172027.16136302488, -172042.87463937697, -172019.74058386573, -171956.90983020185, -172107.15825643044, -164413.17372479127, 0.246, 0.966, 0.11800000000000001, 192.0, 0.0, 0.0, 0.0, 0.0, 0.0, 0.0, 0.0, 0.0, 0.0, 1.7395365948026707E9, 0.0, 2025-02-14 09:36:34.802
232.0, -171872.75551232763, -6379.701957667107, -172027.89897059192, -172043.612246944, -172020.50054317722, -171957.64743776887, -172107.44882910835, -164450.83641419845, 0.246, 0.966, 0.11800000000000001, 192.0, 0.0, 0.0, 0.0, 0.0, 0.0, 0.0, 0.0, 0.0, 0.0, 1.739536594802683E9, 0.0, 2025-02-14 09:36:34.802
233.0, -171875.95181178473, -6378.9867018445375, -172031.07291830456, -172046.8085464011, -172023.67449088985, -171960.84373722598, -172110.80159077665, -164437.313608803, 0.246, 0.966, 0.11800000000000001, 192.0, 0.0, 0.0, 0.0, 0.0, 0.0, 0.0, 0.0, 0.0, 0.0, 1.7395365948026948E9, 0.0, 2025-02-14 09:36:34.802
234.0, -171878.14228274135, -6331.399837899189, -172033.48690670574, -172049.22253480228, -172025.88731359094, -171963.12361516044, -172114.15435244495, -164409.37392823386, 0.246, 0.966, 0.11800000000000001, 192.0, 0.0, 0.0, 0.0, 0.0, 0.0, 0.0, 0.0, 0.0, 0.0, 1.7395365948027065E9, 0.0, 2025-02-14 09:36:34.802
235.0, -171880.0198292756, -6188.214562918492, -172035.4538602178, -172051.32359878108, -172027.83191535855, -171965.06821692805, -172116.79185829067, -164427.68000694277, 0.246, 0.966, 0.11800000000000001, 192.0, 0.0, 0.0, 0.0, 0.0, 0.0, 0.0, 0.0, 0.0, 0.0, 1.739536594802718E9, 0.0, 2025-02-14 09:36:34.802
236.0, -171881.51739615411, -6093.5325734058115, -172037.06318581858, -172052.8658691485, -172029.44124095934, -171966.67754252884, -172118.13296295799, -164426.38360576436, 0.246, 0.966, 0.11800000000000001, 192.0, 0.0, 0.0, 0.0, 0.0, 0.0, 0.0, 0.0, 0.0, 0.0, 1.7395365948027296E9, 0.0, 2025-02-14 09:36:34.802
237.0, -171884.04314327755, -6106.87656484563, -172039.74539515324, -172055.48102324977, -172032.23520901625, -171969.35975186346, -172120.4798961258, -164439.68289371527, 0.24, 0.974, 0.12, 192.0, 7.0, 128.0, 30.0, 112.0, 3.0, 192.0, 0.0, 0.0, 0.0, 1.7395365948027413E9, 0.0, 2025-02-14 09:36:34.802
238.0, -171887.68647762376, -6092.549096649778, -172043.47813647726, -172059.28081980717, -172035.92324685137, -171973.0924931875, -172124.9278932724, -164423.43317549626, 0.24, 0.974, 0.12, 192.0, 0.0, 0.0, 0.0, 0.0, 0.0, 0.0, 0.0, 0.0, 0.0, 1.7395365948027532E9, 0.0, 2025-02-14 09:36:34.802
239.0, -171890.27927998058, -5969.569798656678, -172046.1603458119, -172061.9630291418, -172038.62780793046, -171975.7299990332, -172128.21359970732, -164450.65760024282, 0.24, 0.974, 0.12, 192.0, 0.0, 0.0, 0.0, 0.0, 0.0, 0.0, 0.0, 0.0, 0.0, 1.739536594802837E9, 0.0, 2025-02-14 09:36:34.802
240.0, -171891.59803290345, -5864.293082272182, -172047.43439524586, -172063.34883729802, -172039.96891259777, -171977.07110370055, -172129.51000088573, -164435.52546924658, 0.24, 0.974, 0.12, 192.0, 0.0, 0.0, 0.0, 0.0, 0.0, 0.0, 0.0, 0.0, 0.0, 1.7395365952829154E9, 0.0, 2025-02-14 09:36:35.282
241.0, -171893.18500675977, -5872.607931209556, -172049.02136910218, -172064.98051464328, -172041.62294168747, -171978.6804293013, -172130.6722915974, -164436.68775995824, 0.24, 0.974, 0.12, 192.0, 0.0, 0.0, 0.0, 0.0, 0.0, 0.0, 0.0, 0.0, 0.0, 1.7395365952829995E9, 0.0, 2025-02-14 09:36:35.282
242.0, -171894.54846317155, -5879.559323735157, -172050.51893598068, -172066.4557297773, -172043.0534533326, -171980.22269966875, -172132.66159685393, -164427.4564894982, 0.24, 0.974, 0.12, 192.0, 0.0, 0.0, 0.0, 0.0, 0.0, 0.0, 0.0, 0.0, 0.0, 1.7395365952830193E9, 0.0, 2025-02-14 09:36:35.283
243.0, -171897.20832076174, -5773.880275950465, -172053.37995927097, -172069.33910481204, -172045.9591801118, -171983.17312993685, -172136.17082073342, -164464.18040563827, 0.24, 0.974, 0.12, 192.0, 0.0, 0.0, 0.0, 0.0, 0.0, 0.0, 0.0, 0.0, 0.0, 1.739536595283038E9, 0.0, 2025-02-14 09:36:35.283
244.0, -171899.19762601826, -5656.846541982477, -172055.43631976086, -172071.4178170464, -172048.0155406017, -171985.1847869378, -172138.45069866785, -164458.324248591, 0.24, 0.974, 0.12, 192.0, 0.0, 0.0, 0.0, 0.0, 0.0, 0.0, 0.0, 0.0, 0.0, 1.739536595283056E9, 0.0, 2025-02-14 09:36:35.283
245.0, -171901.67866965279, -5654.521960559126, -172057.93971513983, -172073.9212124254, -172050.47423249178, -171987.4870166167, -172140.4400039244, -164423.83550689646, 0.24, 0.974, 0.12, 192.0, 0.0, 0.0, 0.0, 0.0, 0.0, 0.0, 0.0, 0.0, 0.0, 1.7395365952830737E9, 0.0, 2025-02-14 09:36:35.283
246.0, -171903.33269874248, -5679.913542260354, -172059.68315120737, -172075.68700023735, -172052.1506133259, -171989.16339745087, -172142.31755045863, -164433.2679430566, 0.24, 0.974, 0.12, 192.0, 0.0, 0.0, 0.0, 0.0, 0.0, 0.0, 0.0, 0.0, 0.0, 1.7395365952830915E9, 0.0, 2025-02-14 09:36:35.283
247.0, -171905.18789353227, -5603.53763145657, -172061.5606977416, -172077.7210089828, -172054.09521509352, -171991.2421096852, -172144.9327045599, -164483.4252576143, 0.24, 0.976, 0.122, 192.0, 7.0, 128.0, 30.0, 128.0, 3.0, 208.0, 0.0, 0.0, 0.0, 1.7395365952831066E9, 0.0, 2025-02-14 09:36:35.283
248.0, -171904.76321038764, -5490.929542890733, -172061.2030698303, -172077.34102932704, -172053.82699416007, -171990.9962404962, -172144.91035281544, -164502.8265718015, 0.24, 0.976, 0.122, 192.0, 0.0, 0.0, 0.0, 0.0, 0.0, 0.0, 0.0, 0.0, 0.0, 1.7395365952831233E9, 0.0, 2025-02-14 09:36:35.283
249.0, -171908.4288964783, -5485.967455621655, -172065.09227336553, -172081.14082588445, -172057.49268025073, -171994.7513335647, -172148.4866319283, -164470.32713536348, 0.24, 0.976, 0.122, 192.0, 0.0, 0.0, 0.0, 0.0, 0.0, 0.0, 0.0, 0.0, 0.0, 1.7395365952831385E9, 0.0, 2025-02-14 09:36:35.283
250.0, -171910.9322918573, -5533.979002711654, -172067.55096525562, -172083.621869519, -172060.04077911863, -171997.1429702214, -172150.90062032946, -164474.43985634326, 0.24, 0.976, 0.122, 192.0, 0.0, 0.0, 0.0, 0.0, 0.0, 0.0, 0.0, 0.0, 0.0, 1.7395365952831533E9, 0.0, 2025-02-14 09:36:35.283
251.0, -171912.5192657136, -5486.682711444225, -172069.1602908564, -172085.3206020976, -172061.6724564639, -171998.7969993111, -172152.9346290749, -164538.83523211902, 0.24, 0.976, 0.122, 192.0, 0.0, 0.0, 0.0, 0.0, 0.0, 0.0, 0.0, 0.0, 0.0, 1.7395365952831678E9, 0.0, 2025-02-14 09:36:35.283
252.0, -171916.40846924885, -5379.886076436767, -172073.1612531139, -172089.36626784402, -172065.5616599991, -172002.82031331304, -172157.06970179913, -164578.844854694, 0.24, 0.976, 0.122, 192.0, 0.0, 0.0, 0.0, 0.0, 0.0, 0.0, 0.0, 0.0, 0.0, 1.7395365952831824E9, 0.0, 2025-02-14 09:36:35.283
253.0, -171920.54354197308, -5365.402146029728, -172077.38573281595, -172093.54604405715, -172069.74143621224, -172006.9553860373, -172161.27182975673, -164556.67192419435, 0.24, 0.976, 0.122, 192.0, 0.0, 0.0, 0.0, 0.0, 0.0, 0.0, 0.0, 0.0, 0.0, 1.7395365952832384E9, 0.0, 2025-02-14 09:36:35.283
254.0, -171922.1305158294, -5428.210547949141, -172078.9727066723, -172095.15536965794, -172071.4178170464, -172008.52000814915, -172162.94821059087, -164552.2909822811, 0.24, 0.976, 0.122, 192.0, 0.0, 0.0, 0.0, 0.0, 0.0, 0.0, 0.0, 0.0, 0.0, 1.7395365952832537E9, 0.0, 2025-02-14 09:36:35.283
255.0, -171922.39873676287, -5413.726617542103, -172079.24092760574, -172095.44594233585, -172071.6636862354, -172008.87763606044, -172163.26113501325, -164611.79132602114, 0.24, 0.976, 0.122, 192.0, 0.0, 0.0, 0.0, 0.0, 0.0, 0.0, 0.0, 0.0, 0.0, 1.7395365952832685E9, 0.0, 2025-02-14 09:36:35.283
0.0, -171923.04693735208, -5314.373113438262, -172080.0232386617, -172096.22825339178, -172072.40129380242, -172009.6599471164, -172164.02109432474, -164662.5744894236, 0.24, 0.976, 0.122, 192.0, 0.0, 0.0, 0.0, 0.0, 0.0, 0.0, 0.0, 0.0, 0.0, 1.7395365952832937E9, 0.0, 2025-02-14 09:36:35.283
1.0, -171924.85742865293, -5287.975703236545, -172082.03489566265, -172098.19520690385, -172074.39059905894, -172011.62690062844, -172166.18921353688, -164652.4715009298, 0.226, 0.976, 0.12, 192.0, 7.0, 16.0, 30.0, 128.0, 3.0, 192.0, 0.0, 0.0, 0.0, 1.739536595283308E9, 0.0, 2025-02-14 09:36:35.283
2.0, -171926.1314780869, -5361.691756450147, -172083.2195381188, -172099.4692563378, -172075.619945004, -172012.78919134013, -172167.37385599304, -164643.93313454787, 0.226, 0.976, 0.12, 192.0, 0.0, 0.0, 0.0, 0.0, 0.0, 0.0, 0.0, 0.0, 0.0, 1.7395365952833245E9, 0.0, 2025-02-14 09:36:35.283
3.0, -171926.24323680918, -5384.870515450301, -172083.2195381188, -172099.58101506007, -172075.75405547072, -172012.9009500624, -172167.50796645976, -164702.4276497874, 0.226, 0.976, 0.12, 192.0, 0.0, 0.0, 0.0, 0.0, 0.0, 0.0, 0.0, 0.0, 0.0, 1.7395365952833393E9, 0.0, 2025-02-14 09:36:35.283
4.0, -171928.21019032123, -5309.746302336014, -172085.27589860867, -172101.61502380553, -172077.7210089828, -172014.82320008555, -172169.49727171627, -164772.6344791215, 0.226, 0.976, 0.12, 192.0, 0.0, 0.0, 0.0, 0.0, 0.0, 0.0, 0.0, 0.0, 0.0, 1.7395365952833538E9, 0.0, 2025-02-14 09:36:35.283
5.0, -171931.27237931162, -5281.493697344506, -172088.4721980658, -172104.7666197737, -172080.872604951, -172018.06420303156, -172172.71592291785, -164779.63057513602, 0.226, 0.976, 0.12, 192.0, 0.0, 0.0, 0.0, 0.0, 0.0, 0.0, 0.0, 0.0, 0.0, 1.7395365952833946E9, 0.0, 2025-02-14 09:36:35.283
6.0, -171934.96041714674, -5363.457544262117, -172092.0708289231, -172108.4770093533, -172084.65004976394, -172021.81929610006, -172176.47101598635, -164770.86869130956, 0.226, 0.976, 0.12, 192.0, 0.0, 0.0, 0.0, 0.0, 0.0, 0.0, 0.0, 0.0, 0.0, 1.7395365952834136E9, 0.0, 2025-02-14 09:36:35.283
7.0, -171936.97207414772, -5418.956925744645, -172094.14954115744, -172110.4663146098, -172086.50524455373, -172023.69684263432, -172178.41561775396, -164824.22230532437, 0.226, 0.976, 0.12, 192.0, 0.0, 0.0, 0.0, 0.0, 0.0, 0.0, 0.0, 0.0, 0.0, 1.7395365952834332E9, 0.0, 2025-02-14 09:36:35.283
8.0, -171940.12367011592, -5365.804477429924, -172097.32348887008, -172113.617910578, -172089.7685992442, -172026.87079034696, -172181.45545499987, -164902.7216318514, 0.226, 0.976, 0.12, 192.0, 0.0, 0.0, 0.0, 0.0, 0.0, 0.0, 0.0, 0.0, 0.0, 1.7395365952834504E9, 0.0, 2025-02-14 09:36:35.283
9.0, -171941.9341614168, -5330.309907234897, -172099.22338714878, -172115.45075362336, -172091.60144228954, -172028.72598513676, -172183.2435945563, -164925.65452166254, 0.226, 0.976, 0.12, 192.0, 0.0, 0.0, 0.0, 0.0, 0.0, 0.0, 0.0, 0.0, 0.0, 1.7395365952834685E9, 0.0, 2025-02-14 09:36:35.283
10.0, -171943.67759748432, -5410.932649485189, -172100.87741623848, -172117.1718379464, -172093.38958184596, -172030.44706945983, -172185.00938236827, -164916.64676864707, 0.226, 0.976, 0.12, 192.0, 0.0, 0.0, 0.0, 0.0, 0.0, 0.0, 0.0, 0.0, 0.0, 1.7395365952834868E9, 0.0, 2025-02-14 09:36:35.283
11.0, -171944.50461202915, -5498.059749371976, -172101.41385810543, -172117.68592806888, -172093.99307894625, -172031.18467702685, -172183.17653932294, -164924.8275071177, 0.228, 0.974, 0.114, 192.0, 7.0, 32.0, 30.0, 112.0, 3.0, 144.0, 0.0, 0.0, 0.0, 1.7395365952835054E9, 0.0, 2025-02-14 09:36:35.283
12.0, -171946.5386207746, -5483.575818964937, -172103.31375638413, -172119.6305298365, -172096.07179118058, -172033.352796239, -172181.2319375553, -164893.64682360255, 0.228, 0.974, 0.114, 192.0, 0.0, 0.0, 0.0, 0.0, 0.0, 0.0, 0.0, 0.0, 0.0, 1.7395365952835393E9, 0.0, 2025-02-14 09:36:35.283
13.0, -171951.09837664347, -5454.3620889618505, -172108.23114016428, -172124.43615489439, -172100.69860228285, -172037.93490385235, -172189.21151032587, -164963.36191455866, 0.228, 0.974, 0.114, 192.0, 0.0, 0.0, 0.0, 0.0, 0.0, 0.0, 0.0, 0.0, 0.0, 1.7395365952835577E9, 0.0, 2025-02-14 09:36:35.283
14.0, -171952.81946096654, -5533.979002711654, -172110.0192797207, -172126.24664619527, -172102.37498311698, -172039.67833991986, -172192.56427199417, -164975.8788914536, 0.228, 0.974, 0.114, 192.0, 0.0, 0.0, 0.0, 0.0, 0.0, 0.0, 0.0, 0.0, 0.0, 1.7395365952835748E9, 0.0, 2025-02-14 09:36:35.283
15.0, -171954.36173133395, -5645.7824284771, -172111.3156808991, -172127.5206956292, -172103.8725499955, -172041.108851565, -172190.95494639338, -164930.0801670647, 0.228, 0.974, 0.114, 192.0, 0.0, 0.0, 0.0, 0.0, 0.0, 0.0, 0.0, 0.0, 0.0, 1.7395365952836025E9, 0.0, 2025-02-14 09:36:35.283
16.0, -171958.16152789135, -5654.141980903385, -172115.16018094544, -172131.20873346433, -172107.69469829736, -172044.97570335577, -172191.96077489387, -164883.99086999786, 0.228, 0.974, 0.114, 192.0, 0.0, 0.0, 0.0, 0.0, 0.0, 0.0, 0.0, 0.0, 0.0, 1.7395365952836199E9, 0.0, 2025-02-14 09:36:35.283
17.0, -171959.14500464738, -5621.195509576262, -172116.23306467928, -172132.371024176, -172108.70052679785, -172045.9144766229, -172196.11819936257, -164949.14620508507, 0.228, 0.974, 0.114, 192.0, 0.0, 0.0, 0.0, 0.0, 0.0, 0.0, 0.0, 0.0, 0.0, 1.739536595283638E9, 0.0, 2025-02-14 09:36:35.283
18.0, -171961.60369653747, -5685.970865007743, -172118.69175656937, -172135.0308817662, -172111.13686694347, -172048.3955202574, -172201.147341865, -164990.0051939494, 0.228, 0.974, 0.114, 192.0, 0.0, 0.0, 0.0, 0.0, 0.0, 0.0, 0.0, 0.0, 0.0, 1.739536595283659E9, 0.0, 2025-02-14 09:36:35.283
19.0, -171964.19649889428, -5807.072616466596, -172121.0833932261, -172137.4225184229, -172113.70731755585, -172050.87656389197, -172201.08028663162, -164951.26962080834, 0.228, 0.974, 0.114, 192.0, 0.0, 0.0, 0.0, 0.0, 0.0, 0.0, 0.0, 0.0, 0.0, 1.7395365952836745E9, 0.0, 2025-02-14 09:36:35.283
20.0, -171966.40932159536, -5844.5341401736905, -172123.0726984826, -172139.34476844608, -172115.875436768, -172053.08938659306, -172199.4486092864, -164879.56522459572, 0.228, 0.974, 0.114, 192.0, 0.0, 0.0, 0.0, 0.0, 0.0, 0.0, 0.0, 0.0, 0.0, 1.7395365952836897E9, 0.0, 2025-02-14 09:36:35.283
21.0, -171970.52204257515, -5814.269878181205, -172127.5206956292, -172143.6810068704, -172120.1222682145, -172057.24681106172, -172206.7576297233, -164951.20256557496, 0.23600000000000002, 0.976, 0.112, 192.0, 7.0, 96.0, 30.0, 128.0, 3.0, 128.0, 0.0, 0.0, 0.0, 1.7395365952837052E9, 0.0, 2025-02-14 09:36:35.283
22.0, -171971.08083618653, -5863.801343894165, -172128.1688962184, -172144.396262693, -172120.6140065925, -172057.8056046731, -172209.81981871364, -165006.9478162465, 0.23600000000000002, 0.976, 0.112, 192.0, 0.0, 0.0, 0.0, 0.0, 0.0, 0.0, 0.0, 0.0, 0.0, 1.739536595283722E9, 0.0, 2025-02-14 09:36:35.283
23.0, -171971.2820018866, -5991.876839623075, -172128.1688962184, -172144.396262693, -172120.70341357036, -172057.93971513983, -172207.7411064793, -164963.74189421438, 0.23600000000000002, 0.976, 0.112, 192.0, 0.0, 0.0, 0.0, 0.0, 0.0, 0.0, 0.0, 0.0, 0.0, 1.7395365952837374E9, 0.0, 2025-02-14 09:36:35.283
24.0, -171973.67363854335, -6052.315956630226, -172130.35936717503, -172146.51967841623, -172123.20680894936, -172060.37605528548, -172206.42235355644, -164887.94712876645, 0.23600000000000002, 0.976, 0.112, 192.0, 0.0, 0.0, 0.0, 0.0, 0.0, 0.0, 0.0, 0.0, 0.0, 1.7395365952837536E9, 0.0, 2025-02-14 09:36:35.283
25.0, -171977.31697288956, -6029.852453452641, -172134.15916373243, -172150.31947497363, -172126.85014329557, -172064.0193896317, -172212.59143502612, -164936.09278632316, 0.23600000000000002, 0.976, 0.112, 192.0, 0.0, 0.0, 0.0, 0.0, 0.0, 0.0, 0.0, 0.0, 0.0, 1.739536595283769E9, 0.0, 2025-02-14 09:36:35.283
26.0, -171981.72026654726, -6068.140991704583, -172138.80832657914, -172154.9909895648, -172131.34284393108, -172068.40033154492, -172220.66041477447, -165011.06053722627, 0.23600000000000002, 0.976, 0.112, 192.0, 0.0, 0.0, 0.0, 0.0, 0.0, 0.0, 0.0, 0.0, 0.0, 1.7395365952837844E9, 0.0, 2025-02-14 09:36:35.283
27.0, -171983.1954816813, -6201.111519469205, -172140.0823760131, -172156.22033550983, -172132.70630034283, -172069.83084319008, -172220.68276651893, -164987.21122589248, 0.23600000000000002, 0.976, 0.112, 192.0, 0.0, 0.0, 0.0, 0.0, 0.0, 0.0, 0.0, 0.0, 0.0, 1.7395365952838137E9, 0.0, 2025-02-14 09:36:35.283
28.0, -171985.87769101592, -6287.746880977975, -172142.4293091809, -172158.58962042208, -172135.25439921074, -172072.44599729133, -172219.2969583627, -164907.03551853128, 0.23600000000000002, 0.976, 0.112, 192.0, 0.0, 0.0, 0.0, 0.0, 0.0, 0.0, 0.0, 0.0, 0.0, 1.7395365952838297E9, 0.0, 2025-02-14 09:36:35.283
29.0, -171989.61043233998, -6272.614749981732, -172146.29616097166, -172162.50117570176, -172139.0765475126, -172076.35755257102, -172224.03552818723, -164931.2871612653, 0.23600000000000002, 0.976, 0.112, 192.0, 0.0, 0.0, 0.0, 0.0, 0.0, 0.0, 0.0, 0.0, 0.0, 1.7395365952838452E9, 0.0, 2025-02-14 09:36:35.283
30.0, -171990.9962404962, -6292.261933357947, -172147.97254180582, -172164.15520479146, -172140.4400039244, -172077.69865723833, -172229.17642941195, -165012.28988317132, 0.23600000000000002, 0.976, 0.112, 192.0, 0.0, 0.0, 0.0, 0.0, 0.0, 0.0, 0.0, 0.0, 0.0, 1.7395365952838693E9, 0.0, 2025-02-14 09:36:35.283
31.0, -171992.6949730748, -6419.622173264286, -172149.5371639177, -172165.71982690334, -172141.9822742918, -172079.28563109465, -172230.76340326827, -165008.02069998035, 0.24, 0.968, 0.10400000000000001, 192.0, 7.0, 128.0, 30.0, 64.0, 3.0, 64.0, 0.0, 0.0, 0.0, 1.739536595283885E9, 0.0, 2025-02-14 09:36:35.283
32.0, -171995.53364462062, -6528.2516513170785, -172152.21937325233, -172168.31262926015, -172144.79859409315, -172082.14665438494, -172229.19878115642, -164926.90621935204, 0.24, 0.968, 0.10400000000000001, 192.0, 0.0, 0.0, 0.0, 0.0, 0.0, 0.0, 0.0, 0.0, 0.0, 1.7395365952839015E9, 0.0, 2025-02-14 09:36:35.283
33.0, -171998.23820569972, -6535.247747331589, -172154.90158258696, -172171.01719033925, -172147.5925621501, -172084.82886371957, -172231.23278990184, -164921.8770768496, 0.24, 0.968, 0.10400000000000001, 192.0, 0.0, 0.0, 0.0, 0.0, 0.0, 0.0, 0.0, 0.0, 0.0, 1.7395365952839246E9, 0.0, 2025-02-14 09:36:35.283
34.0, -172000.0039935117, -6550.893968450305, -172156.84618435457, -172172.96179210686, -172149.22423949532, -172086.54994804264, -172237.26776090477, -165007.70777555797, 0.24, 0.968, 0.10400000000000001, 192.0, 0.0, 0.0, 0.0, 0.0, 0.0, 0.0, 0.0, 0.0, 0.0, 1.7395365952839432E9, 0.0, 2025-02-14 09:36:35.283
35.0, -172003.6473278579, -6675.840219955471, -172160.40011172296, -172176.5380712197, -172152.82287035263, -172090.03682017766, -172241.82751677366, -165023.75632807688, 0.24, 0.968, 0.10400000000000001, 192.0, 0.0, 0.0, 0.0, 0.0, 0.0, 0.0, 0.0, 0.0, 0.0, 1.7395365952839613E9, 0.0, 2025-02-14 09:36:35.283
36.0, -172005.9942610257, -6810.375369831964, -172162.41176872395, -172178.54972822068, -172155.08039654262, -172092.2719946232, -172240.08408070615, -164952.32015279774, 0.24, 0.968, 0.10400000000000001, 192.0, 0.0, 0.0, 0.0, 0.0, 0.0, 0.0, 0.0, 0.0, 0.0, 1.73953659528398E9, 0.0, 2025-02-14 09:36:35.283
37.0, -172007.02244127064, -6837.041000967146, -172163.43994896888, -172179.55555672117, -172156.19798376536, -172093.43428533486, -172239.7041010504, -164921.0277105603, 0.24, 0.968, 0.10400000000000001, 192.0, 0.0, 0.0, 0.0, 0.0, 0.0, 0.0, 0.0, 0.0, 0.0, 1.7395365952839983E9, 0.0, 2025-02-14 09:36:35.283
38.0, -172008.56471163806, -6843.321841159087, -172165.22808852533, -172181.32134453315, -172157.76260587724, -172094.90950046893, -172244.77794704176, -164998.61061556466, 0.24, 0.968, 0.10400000000000001, 192.0, 0.0, 0.0, 0.0, 0.0, 0.0, 0.0, 0.0, 0.0, 0.0, 1.7395365952840166E9, 0.0, 2025-02-14 09:36:35.284
39.0, -172011.42573492834, -6955.684060535916, -172168.08911181559, -172184.1823678234, -172160.55657393415, -172097.56935805912, -172249.4494616329, -165037.5473544058, 0.24, 0.968, 0.10400000000000001, 192.0, 0.0, 0.0, 0.0, 0.0, 0.0, 0.0, 0.0, 0.0, 0.0, 1.7395365952840362E9, 0.0, 2025-02-14 09:36:35.284
40.0, -172014.08559251853, -7103.250277429853, -172170.36898975004, -172186.46224575787, -172163.08232105762, -172100.13980867146, -172247.9518947544, -164969.35218207267, 0.24, 0.968, 0.10400000000000001, 192.0, 0.0, 0.0, 0.0, 0.0, 0.0, 0.0, 0.0, 0.0, 0.0, 1.739536595284059E9, 0.0, 2025-02-14 09:36:35.284
41.0, -172015.67256637485, -7155.12867631062, -172171.82185313964, -172187.9821643808, -172164.69164665838, -172101.81618950563, -172247.61661858758, -164924.2240100174, 0.23800000000000002, 0.976, 0.10400000000000001, 192.0, 7.0, 112.0, 30.0, 128.0, 3.0, 64.0, 0.0, 0.0, 0.0, 1.7395365952840774E9, 0.0, 2025-02-14 09:36:35.284
42.0, -172018.82416234305, -7162.527103725327, -172175.30872527466, -172191.3349260491, -172167.86559437105, -172105.01248896273, -172254.32214192417, -164992.91092072858, 0.23800000000000002, 0.976, 0.10400000000000001, 192.0, 0.0, 0.0, 0.0, 0.0, 0.0, 0.0, 0.0, 0.0, 0.0, 1.739536595284106E9, 0.0, 2025-02-14 09:36:35.284
43.0, -172022.42279320036, -7267.848523598734, -172178.9297078764, -172194.95590865088, -172171.37481825054, -172108.5664163311, -172260.1112437381, -165049.68435164503, 0.23800000000000002, 0.976, 0.10400000000000001, 192.0, 0.0, 0.0, 0.0, 0.0, 0.0, 0.0, 0.0, 0.0, 0.0, 1.7395365952841215E9, 0.0, 2025-02-14 09:36:35.284
44.0, -172024.16622926787, -7435.285441313439, -172180.3378677771, -172196.3417168071, -172173.02884734023, -172110.15339018745, -172258.4125111595, -164991.81568525024, 0.23800000000000002, 0.976, 0.10400000000000001, 192.0, 0.0, 0.0, 0.0, 0.0, 0.0, 0.0, 0.0, 0.0, 0.0, 1.739536595284137E9, 0.0, 2025-02-14 09:36:35.284
45.0, -172026.64727290242, -7517.718674864612, -172182.70715268937, -172198.71100171938, -172175.5322427192, -172112.6791373109, -172258.36780767058, -164932.49415546586, 0.23800000000000002, 0.976, 0.10400000000000001, 192.0, 0.0, 0.0, 0.0, 0.0, 0.0, 0.0, 0.0, 0.0, 0.0, 1.7395365952841525E9, 0.0, 2025-02-14 09:36:35.284
46.0, -172029.91062759288, -7531.085018048885, -172186.10461784658, -172202.1531703655, -172178.8850043875, -172115.94249200137, -172263.9110402955, -164985.95952820298, 0.23800000000000002, 0.976, 0.10400000000000001, 192.0, 0.0, 0.0, 0.0, 0.0, 0.0, 0.0, 0.0, 0.0, 0.0, 1.7395365952841685E9, 0.0, 2025-02-14 09:36:35.284
47.0, -172032.07874680505, -7623.241260438116, -172188.384495781, -172204.388344811, -172180.96371662186, -172118.0659077246, -172268.8060723312, -165058.69210466053, 0.23800000000000002, 0.976, 0.10400000000000001, 192.0, 0.0, 0.0, 0.0, 0.0, 0.0, 0.0, 0.0, 0.0, 0.0, 1.7395365952841835E9, 0.0, 2025-02-14 09:36:35.284
48.0, -172033.53161019465, -7799.171841045838, -172189.50208300378, -172205.4388768004, -172182.17071082245, -172119.36230890302, -172267.33085719717, -165010.5464471038, 0.23800000000000002, 0.976, 0.10400000000000001, 192.0, 0.0, 0.0, 0.0, 0.0, 0.0, 0.0, 0.0, 0.0, 0.0, 1.7395365952841992E9, 0.0, 2025-02-14 09:36:35.284
49.0, -172034.73860439524, -7914.28332499067, -172190.396152782, -172206.31059483418, -172183.17653932294, -172120.39048914798, -172265.14038624053, -164935.89162062306, 0.23800000000000002, 0.976, 0.10400000000000001, 192.0, 0.0, 0.0, 0.0, 0.0, 0.0, 0.0, 0.0, 0.0, 0.0, 1.7395365952842145E9, 0.0, 2025-02-14 09:36:35.284
50.0, -172037.93490385235, -7943.899386393951, -172193.72656270582, -172209.66335650248, -172186.4845975023, -172123.60914034952, -172270.23658397634, -164983.56789154623, 0.23800000000000002, 0.976, 0.10400000000000001, 192.0, 0.0, 0.0, 0.0, 0.0, 0.0, 0.0, 0.0, 0.0, 0.0, 1.73953659528423E9, 0.0, 2025-02-14 09:36:35.284
51.0, -172041.86881087648, -8031.853500825585, -172197.9957458968, -172213.88783620452, -172190.53026324871, -172127.6324543515, -172277.23267999085, -165064.9729448525, 0.232, 0.98, 0.10400000000000001, 192.0, 7.0, 64.0, 30.0, 160.0, 3.0, 64.0, 0.0, 0.0, 0.0, 1.7395365952842455E9, 0.0, 2025-02-14 09:36:35.284
52.0, -172043.6569504329, -8217.618848993641, -172199.56036800868, -172215.43010657193, -172192.16194059397, -172129.3311869301, -172277.47854917988, -165031.98177003645, 0.232, 0.98, 0.10400000000000001, 192.0, 0.0, 0.0, 0.0, 0.0, 0.0, 0.0, 0.0, 0.0, 0.0, 1.739536595284262E9, 0.0, 2025-02-14 09:36:35.284
53.0, -172048.73079642426, -8360.580606529786, -172204.36599306657, -172220.23573162983, -172197.1910830964, -172134.15916373243, -172279.35609571412, -164962.15492035807, 0.232, 0.98, 0.10400000000000001, 192.0, 0.0, 0.0, 0.0, 0.0, 0.0, 0.0, 0.0, 0.0, 0.0, 1.7395365952842777E9, 0.0, 2025-02-14 09:36:35.284
54.0, -172050.8095086586, -8407.161641974646, -172206.400001812, -172222.29209211972, -172199.22509184183, -172136.14846898898, -172281.5689184152, -164967.47463553844, 0.232, 0.98, 0.10400000000000001, 192.0, 0.0, 0.0, 0.0, 0.0, 0.0, 0.0, 0.0, 0.0, 0.0, 1.7395365952842934E9, 0.0, 2025-02-14 09:36:35.284
55.0, -172050.47423249178, -8491.941808693626, -172206.2435396008, -172222.11327816406, -172198.82276044163, -172135.7908410777, -172284.78756961675, -165058.22271802698, 0.232, 0.98, 0.10400000000000001, 192.0, 0.0, 0.0, 0.0, 0.0, 0.0, 0.0, 0.0, 0.0, 0.0, 1.7395365952843091E9, 0.0, 2025-02-14 09:36:35.284
56.0, -172053.89404939342, -8691.140555279322, -172209.52924603573, -172225.37663285455, -172202.17552210993, -172139.143602746, -172287.4250754625, -165051.58424992373, 0.232, 0.98, 0.10400000000000001, 192.0, 0.0, 0.0, 0.0, 0.0, 0.0, 0.0, 0.0, 0.0, 0.0, 1.739536595284325E9, 0.0, 2025-02-14 09:36:35.284
57.0, -172057.67149420638, -8887.522982063649, -172213.01611817075, -172228.84115324513, -172205.81885645614, -172142.7869370922, -172287.7156481404, -164975.6330222646, 0.232, 0.98, 0.10400000000000001, 192.0, 0.0, 0.0, 0.0, 0.0, 0.0, 0.0, 0.0, 0.0, 0.0, 1.739536595284348E9, 0.0, 2025-02-14 09:36:35.284
58.0, -172061.6724564639, -8985.49067801126, -172216.92767345044, -172232.86446724707, -172209.8421704581, -172146.76554760523, -172291.98483133136, -164971.2297286069, 0.232, 0.98, 0.10400000000000001, 192.0, 0.0, 0.0, 0.0, 0.0, 0.0, 0.0, 0.0, 0.0, 0.0, 1.7395365952843635E9, 0.0, 2025-02-14 09:36:35.284
59.0, -172064.68994196533, -9095.125984564542, -172219.92280720745, -172235.85960100408, -172212.72554549284, -172149.80538485115, -172296.38812498905, -165032.18293573655, 0.232, 0.98, 0.10400000000000001, 192.0, 0.0, 0.0, 0.0, 0.0, 0.0, 0.0, 0.0, 0.0, 0.0, 1.7395365952843792E9, 0.0, 2025-02-14 09:36:35.284
60.0, -172067.28274432218, -9320.185699485028, -172222.51560956426, -172238.29594114973, -172215.16188563846, -172152.21937325233, -172299.13738955706, -165056.92631684858, 0.232, 0.98, 0.10400000000000001, 192.0, 0.0, 0.0, 0.0, 0.0, 0.0, 0.0, 0.0, 0.0, 0.0, 1.7395365952844E9, 0.0, 2025-02-14 09:36:35.284
61.0, -172070.09906412353, -9554.968423243574, -172225.01900494326, -172240.73228129535, -172217.84409497312, -172154.90158258696, -172298.44448547895, -164988.37351660413, 0.24, 0.978, 0.114, 192.0, 7.0, 128.0, 30.0, 144.0, 3.0, 144.0, 0.0, 0.0, 0.0, 1.739536595284416E9, 0.0, 2025-02-14 09:36:35.284
62.0, -172073.18360485835, -9676.092526446882, -172228.05884218917, -172243.81682203017, -172220.9062839635, -172157.87436459953, -172301.35021225814, -164976.86236820967, 0.24, 0.978, 0.114, 192.0, 0.0, 0.0, 0.0, 0.0, 0.0, 0.0, 0.0, 0.0, 0.0, 1.739536595284433E9, 0.0, 2025-02-14 09:36:35.284
63.0, -172074.48000603679, -9769.88044618135, -172229.46700208986, -172245.18027844196, -172222.13562990853, -172159.10371054456, -172304.47945648187, -165039.4025491956, 0.24, 0.978, 0.114, 192.0, 0.0, 0.0, 0.0, 0.0, 0.0, 0.0, 0.0, 0.0, 0.0, 1.7395365952844484E9, 0.0, 2025-02-14 09:36:35.284
64.0, -172076.84929094903, -9960.87610255195, -172231.9033422355, -172247.5048598653, -172224.48256307634, -172161.33888499008, -172308.52512222828, -165095.2148551005, 0.24, 0.978, 0.114, 192.0, 0.0, 0.0, 0.0, 0.0, 0.0, 0.0, 0.0, 0.0, 0.0, 1.739536595284464E9, 0.0, 2025-02-14 09:36:35.284
65.0, -172079.08446539455, -10179.073831924657, -172233.84794400312, -172249.4494616329, -172226.49422007732, -172163.46230071335, -172307.34047977216, -165031.28886595834, 0.24, 0.978, 0.114, 192.0, 0.0, 0.0, 0.0, 0.0, 0.0, 0.0, 0.0, 0.0, 0.0, 1.73953659528448E9, 0.0, 2025-02-14 09:36:35.284
66.0, -172080.85025320653, -10289.536153022786, -172235.47962134835, -172251.0587872337, -172228.21530440036, -172165.16103329195, -172306.84874139415, -164990.1393044161, 0.24, 0.978, 0.114, 192.0, 0.0, 0.0, 0.0, 0.0, 0.0, 0.0, 0.0, 0.0, 0.0, 1.739536595284495E9, 0.0, 2025-02-14 09:36:35.284
67.0, -172083.08542765205, -10339.782874558316, -172237.93831323844, -172253.47277563487, -172230.51753407926, -172167.39620773747, -172311.63201470757, -165056.43457847054, 0.24, 0.978, 0.114, 192.0, 0.0, 0.0, 0.0, 0.0, 0.0, 0.0, 0.0, 0.0, 0.0, 1.7395365952845104E9, 0.0, 2025-02-14 09:36:35.284
68.0, -172085.5217677977, -10477.022585513902, -172240.46406036188, -172256.13263322506, -172232.97622596935, -172169.92195486094, -172316.95172988795, -165111.0175384304, 0.24, 0.978, 0.114, 192.0, 0.0, 0.0, 0.0, 0.0, 0.0, 0.0, 0.0, 0.0, 0.0, 1.7395365952845259E9, 0.0, 2025-02-14 09:36:35.284
69.0, -172087.44401782085, -10669.135829107265, -172242.16279294048, -172257.92077278148, -172234.92082773696, -172171.84420488408, -172316.0129566208, -165078.40634327012, 0.24, 0.978, 0.114, 192.0, 0.0, 0.0, 0.0, 0.0, 0.0, 0.0, 0.0, 0.0, 0.0, 1.7395365952845411E9, 0.0, 2025-02-14 09:36:35.284
70.0, -172088.78512248816, -10768.22111227764, -172243.3027319077, -172258.99365651532, -172236.15017368202, -172173.16295780696, -172313.64367170856, -165018.03428149634, 0.24, 0.978, 0.114, 192.0, 0.0, 0.0, 0.0, 0.0, 0.0, 0.0, 0.0, 0.0, 0.0, 1.7395365952845569E9, 0.0, 2025-02-14 09:36:35.284
71.0, -172092.16023590093, -10782.36976651785, -172246.83430753165, -172262.5028803948, -172239.45823186138, -172176.42631249744, -172319.70099445595, -165078.1157705922, 0.242, 0.978, 0.112, 192.0, 7.0, 144.0, 30.0, 144.0, 3.0, 128.0, 0.0, 0.0, 0.0, 1.7395365952845724E9, 0.0, 2025-02-14 09:36:35.284
72.0, -172094.82009349111, -10866.948767536733, -172249.76238605528, -172265.34155194063, -172242.09573770713, -172179.10852183207, -172325.44539278097, -165110.83872447477, 0.242, 0.978, 0.112, 192.0, 0.0, 0.0, 0.0, 0.0, 0.0, 0.0, 0.0, 0.0, 0.0, 1.739536595284597E9, 0.0, 2025-02-14 09:36:35.284
73.0, -172096.25060513624, -11032.284621272638, -172251.12584246707, -172266.68265660797, -172243.57095284117, -172180.51668173276, -172326.20535209245, -165107.44125931757, 0.242, 0.978, 0.112, 192.0, 0.0, 0.0, 0.0, 0.0, 0.0, 0.0, 0.0, 0.0, 0.0, 1.739536595284613E9, 0.0, 2025-02-14 09:36:35.284
74.0, -172098.6198900485, -11120.126976981996, -172253.2045547014, -172268.78372058677, -172245.98494124235, -172182.885966645, -172323.79136369127, -165065.28586927484, 0.242, 0.978, 0.112, 192.0, 0.0, 0.0, 0.0, 0.0, 0.0, 0.0, 0.0, 0.0, 0.0, 1.7395365952846284E9, 0.0, 2025-02-14 09:36:35.284
75.0, -172099.22338714878, -11104.637218074467, -172253.8974587795, -172269.4542729204, -172246.52138310927, -172183.4447602564, -172325.7136137144, -165085.69301196255, 0.242, 0.978, 0.112, 192.0, 0.0, 0.0, 0.0, 0.0, 0.0, 0.0, 0.0, 0.0, 0.0, 1.739536595284644E9, 0.0, 2025-02-14 09:36:35.284
76.0, -172102.75496277274, -11136.600212645557, -172257.652551848, -172273.29877296672, -172250.07531047767, -172187.02103936925, -172332.88852368458, -165114.43735533208, 0.242, 0.978, 0.112, 192.0, 0.0, 0.0, 0.0, 0.0, 0.0, 0.0, 0.0, 0.0, 0.0, 1.7395365952846596E9, 0.0, 2025-02-14 09:36:35.284
77.0, -172106.2194831633, -11263.424010684968, -172261.07236874968, -172276.6738863795, -172253.51747912378, -172190.41850452646, -172336.80007896427, -165093.15849461063, 0.242, 0.978, 0.112, 192.0, 0.0, 0.0, 0.0, 0.0, 0.0, 0.0, 0.0, 0.0, 0.0, 1.739536595284675E9, 0.0, 2025-02-14 09:36:35.284
78.0, -172106.95709073034, -11336.268345864815, -172261.6535141055, -172277.2103282464, -172254.23273494636, -172191.17846383792, -172335.83895395268, -165111.7774977419, 0.242, 0.978, 0.112, 192.0, 0.0, 0.0, 0.0, 0.0, 0.0, 0.0, 0.0, 0.0, 0.0, 1.7395365952846904E9, 0.0, 2025-02-14 09:36:35.284
79.0, -172109.1699134314, -11287.988577841352, -172263.7545780843, -172279.44550269193, -172256.42320590297, -172193.45834177238, -172336.64361675308, -165117.0301576889, 0.242, 0.978, 0.112, 192.0, 0.0, 0.0, 0.0, 0.0, 0.0, 0.0, 0.0, 0.0, 0.0, 1.739536595284706E9, 0.0, 2025-02-14 09:36:35.284
80.0, -172110.30985239864, -11260.98767053934, -172265.14038624053, -172280.8089591037, -172257.67490359247, -172194.62063248406, -172340.6892824995, -165116.24784663296, 0.242, 0.978, 0.112, 192.0, 0.0, 0.0, 0.0, 0.0, 0.0, 0.0, 0.0, 0.0, 0.0, 1.7395365952847211E9, 0.0, 2025-02-14 09:36:35.284
81.0, -172113.03676522218, -11344.069104679716, -172267.93435429747, -172283.58057541616, -172260.42416816048, -172197.28049007422, -172344.4220238235, -165073.64542170113, 0.248, 0.984, 0.116, 192.0, 7.0, 192.0, 30.0, 192.0, 3.0, 160.0, 0.0, 0.0, 0.0, 1.7395365952847366E9, 0.0, 2025-02-14 09:36:35.284
82.0, -172115.38369838998, -11405.312884487259, -172270.2589357208, -172285.8157498617, -172262.79345307272, -172199.71683021987, -172346.81366048023, -165082.04967761633, 0.248, 0.984, 0.116, 192.0, 0.0, 0.0, 0.0, 0.0, 0.0, 0.0, 0.0, 0.0, 0.0, 1.7395365952847528E9, 0.0, 2025-02-14 09:36:35.284
83.0, -172117.26124492422, -11344.33732561318, -172272.18118574398, -172287.7156481404, -172264.69335135142, -172201.68378373192, -172348.7359105034, -165119.9135327236, 0.248, 0.984, 0.116, 192.0, 0.0, 0.0, 0.0, 0.0, 0.0, 0.0, 0.0, 0.0, 0.0, 1.7395365952847683E9, 0.0, 2025-02-14 09:36:35.284
84.0, -172119.58582634758, -11282.244179516338, -172274.63987763404, -172290.2190435194, -172267.0626362637, -172203.96366166638, -172351.82045123822, -165106.39072732817, 0.248, 0.984, 0.116, 192.0, 0.0, 0.0, 0.0, 0.0, 0.0, 0.0, 0.0, 0.0, 0.0, 1.739536595284784E9, 0.0, 2025-02-14 09:36:35.284
85.0, -172121.7762973042, -11338.570575543712, -172276.89740382403, -172292.40951447602, -172269.23075547587, -172206.13178087852, -172354.65912278404, -165054.37821798067, 0.248, 0.984, 0.116, 192.0, 0.0, 0.0, 0.0, 0.0, 0.0, 0.0, 0.0, 0.0, 0.0, 1.739536595284799E9, 0.0, 2025-02-14 09:36:35.284
86.0, -172123.98912000528, -11407.68216939952, -172279.15493001402, -172294.59998543264, -172271.4212264325, -172208.41165881298, -172356.96135246294, -165050.01962781188, 0.248, 0.984, 0.116, 192.0, 0.0, 0.0, 0.0, 0.0, 0.0, 0.0, 0.0, 0.0, 0.0, 1.7395365952848144E9, 0.0, 2025-02-14 09:36:35.284
87.0, -172124.7267275723, -11359.5812153317, -172279.93724106994, -172295.33759299965, -172272.2035374884, -172209.26102510229, -172357.85542224115, -165091.75033470994, 0.248, 0.984, 0.116, 192.0, 0.0, 0.0, 0.0, 0.0, 0.0, 0.0, 0.0, 0.0, 0.0, 1.7395365952848363E9, 0.0, 2025-02-14 09:36:35.284
88.0, -172128.63828285199, -11287.720356907888, -172283.8264446052, -172299.29385176825, -172276.159796257, -172213.0608216597, -172362.16930892103, -165092.30912832133, 0.248, 0.984, 0.116, 192.0, 0.0, 0.0, 0.0, 0.0, 0.0, 0.0, 0.0, 0.0, 0.0, 1.7395365952848516E9, 0.0, 2025-02-14 09:36:35.284
89.0, -172130.3817189195, -11336.424808076003, -172285.43577020595, -172300.94788085794, -172277.79147360224, -172214.71485074935, -172364.06920719973, -165047.69504638852, 0.248, 0.984, 0.116, 192.0, 0.0, 0.0, 0.0, 0.0, 0.0, 0.0, 0.0, 0.0, 0.0, 1.7395365952848668E9, 0.0, 2025-02-14 09:36:35.284
90.0, -172131.94634103138, -11432.984344122928, -172287.00039231783, -172302.60190994764, -172279.40079920302, -172216.36887983905, -172365.49971884486, -165040.8554125852, 0.248, 0.984, 0.116, 192.0, 0.0, 0.0, 0.0, 0.0, 0.0, 0.0, 0.0, 0.0, 0.0, 1.7395365952848828E9, 0.0, 2025-02-14 09:36:35.284
91.0, -172134.2709224547, -11424.02129459635, -172289.414380719, -172305.10530532664, -172281.79243585974, -172218.78286824023, -172367.86900375714, -165090.20806434253, 0.24, 0.976, 0.116, 192.0, 7.0, 128.0, 30.0, 128.0, 3.0, 160.0, 0.0, 0.0, 0.0, 1.7395365952849042E9, 0.0, 2025-02-14 09:36:35.284
92.0, -172136.886076556, -11361.212892676938, -172292.07423830917, -172307.74281117236, -172284.4746451944, -172221.46507757486, -172370.77473053633, -165112.98449194248, 0.24, 0.976, 0.116, 192.0, 0.0, 0.0, 0.0, 0.0, 0.0, 0.0, 0.0, 0.0, 0.0, 1.7395365952849202E9, 0.0, 2025-02-14 09:36:35.284
93.0, -172140.0823760131, -11399.993169306896, -172295.20348253293, -172310.80500016274, -172287.7156481404, -172224.59432179862, -172374.2839544158, -165078.54045373684, 0.24, 0.976, 0.116, 192.0, 0.0, 0.0, 0.0, 0.0, 0.0, 0.0, 0.0, 0.0, 0.0, 1.7395365952849357E9, 0.0, 2025-02-14 09:36:35.284
94.0, -172140.37294869102, -11507.058025247816, -172295.67286916648, -172311.18497981847, -172288.00622081832, -172224.84019098763, -172374.57452709373, -165063.43067448505, 0.24, 0.976, 0.116, 192.0, 0.0, 0.0, 0.0, 0.0, 0.0, 0.0, 0.0, 0.0, 0.0, 1.7395365952849517E9, 0.0, 2025-02-14 09:36:35.284
95.0, -172143.65865512594, -11520.334961454268, -172298.89152036805, -172314.49303799786, -172291.13546504205, -172228.1035456781, -172377.59201259518, -165107.3742040842, 0.24, 0.976, 0.116, 192.0, 0.0, 0.0, 0.0, 0.0, 0.0, 0.0, 0.0, 0.0, 0.0, 1.7395365952849684E9, 0.0, 2025-02-14 09:36:35.284
96.0, -172146.00558829374, -11447.401219296602, -172301.14904655804, -172316.8176194212, -172293.50474995433, -172230.45047884592, -172380.09540797418, -165137.10202420974, 0.24, 0.976, 0.116, 192.0, 0.0, 0.0, 0.0, 0.0, 0.0, 0.0, 0.0, 0.0, 0.0, 1.7395365952849877E9, 0.0, 2025-02-14 09:36:35.284
97.0, -172147.12317551652, -11453.88322518864, -172302.35604075863, -172317.9128548995, -172294.68939241045, -172231.56806606866, -172381.6376783416, -165105.22843661648, 0.24, 0.976, 0.116, 192.0, 0.0, 0.0, 0.0, 0.0, 0.0, 0.0, 0.0, 0.0, 0.0, 1.7395365952850065E9, 0.0, 2025-02-14 09:36:35.285
98.0, -172148.30781797264, -11550.018078090916, -172303.40657274803, -172319.09749735566, -172295.87403486657, -172232.75270852481, -172382.84467254218, -165077.0652386028, 0.24, 0.976, 0.116, 192.0, 0.0, 0.0, 0.0, 0.0, 0.0, 0.0, 0.0, 0.0, 0.0, 1.7395365952850256E9, 0.0, 2025-02-14 09:36:35.285
99.0, -172149.42540519542, -11575.09673536977, -172304.63591869306, -172320.3268433007, -172297.12573255607, -172234.02675795875, -172383.96225976496, -165110.10111690775, 0.24, 0.976, 0.116, 192.0, 0.0, 0.0, 0.0, 0.0, 0.0, 0.0, 0.0, 0.0, 0.0, 1.739536595285045E9, 0.0, 2025-02-14 09:36:35.285
100.0, -172153.06873954163, -11498.586714099254, -172308.25690129484, -172323.8807706691, -172300.70201166894, -172237.64774056053, -172387.65029760008, -165147.24971619245, 0.24, 0.976, 0.116, 192.0, 0.0, 0.0, 0.0, 0.0, 0.0, 0.0, 0.0, 0.0, 0.0, 1.739536595285064E9, 0.0, 2025-02-14 09:36:35.285
101.0, -172155.639190154, -11479.118344678682, -172310.8720553961, -172326.4735730259, -172303.31716577022, -172240.24054291734, -172390.80189356828, -165120.3829193572, 0.23800000000000002, 0.978, 0.114, 192.0, 7.0, 112.0, 30.0, 144.0, 3.0, 144.0, 0.0, 0.0, 0.0, 1.7395365952850852E9, 0.0, 2025-02-14 09:36:35.285
102.0, -172156.33209423212, -11559.405810762146, -172311.65436645204, -172327.23353233738, -172303.98771810386, -172240.91109525098, -172391.6289081131, -165080.4180002711, 0.23800000000000002, 0.978, 0.114, 192.0, 0.0, 0.0, 0.0, 0.0, 0.0, 0.0, 0.0, 0.0, 0.0, 1.7395365952851198E9, 0.0, 2025-02-14 09:36:35.285
103.0, -172161.11536754554, -11591.637026266699, -172316.39293627656, -172332.10621262863, -172308.8156949062, -172245.69436856444, -172396.434533171, -165098.74643072445, 0.23800000000000002, 0.978, 0.114, 192.0, 0.0, 0.0, 0.0, 0.0, 0.0, 0.0, 0.0, 0.0, 0.0, 1.739536595285138E9, 0.0, 2025-02-14 09:36:35.285
104.0, -172163.23878326878, -11519.843223076252, -172318.58340723318, -172334.20727660743, -172311.0732210962, -172247.92954300996, -172398.66970761656, -165139.3819021442, 0.23800000000000002, 0.978, 0.114, 192.0, 0.0, 0.0, 0.0, 0.0, 0.0, 0.0, 0.0, 0.0, 0.0, 1.739536595327032E9, 0.0, 2025-02-14 09:36:35.327
105.0, -172162.23295476832, -11479.855952245707, -172317.64463396606, -172333.15674461803, -172310.08974434016, -172246.901362765, -172397.97680353842, -165125.38971011518, 0.23800000000000002, 0.978, 0.114, 192.0, 0.0, 0.0, 0.0, 0.0, 0.0, 0.0, 0.0, 0.0, 0.0, 1.7395365953270736E9, 0.0, 2025-02-14 09:36:35.327
106.0, -172163.10467280206, -11559.025831106404, -172318.58340723318, -172334.14022137408, -172310.916758885, -172247.66132207648, -172398.96028029447, -165086.49767476294, 0.23800000000000002, 0.978, 0.114, 192.0, 0.0, 0.0, 0.0, 0.0, 0.0, 0.0, 0.0, 0.0, 0.0, 1.739536595327102E9, 0.0, 2025-02-14 09:36:35.327
107.0, -172166.18921353688, -11624.20351793808, -172321.60089273466, -172337.2247621089, -172313.95659613094, -172250.7458628113, -172401.91071056257, -165103.14972438215, 0.23800000000000002, 0.978, 0.114, 192.0, 0.0, 0.0, 0.0, 0.0, 0.0, 0.0, 0.0, 0.0, 0.0, 1.7395365953271155E9, 0.0, 2025-02-14 09:36:35.327
108.0, -172169.85489962756, -11567.117162599227, -172325.35598580315, -172341.04691041078, -172317.75639268834, -172254.5009558798, -172405.62110014213, -165153.50820463995, 0.23800000000000002, 0.978, 0.114, 192.0, 0.0, 0.0, 0.0, 0.0, 0.0, 0.0, 0.0, 0.0, 0.0, 1.7395365953271406E9, 0.0, 2025-02-14 09:36:35.327
109.0, -172172.60416419557, -11502.788842056852, -172328.1723056045, -172343.8408784677, -172320.55036074526, -172257.406682659, -172408.7503443659, -165150.20014646056, 0.23800000000000002, 0.978, 0.114, 192.0, 0.0, 0.0, 0.0, 0.0, 0.0, 0.0, 0.0, 0.0, 0.0, 1.7395365953271532E9, 0.0, 2025-02-14 09:36:35.327
110.0, -172173.69939967387, -11556.120104327216, -172329.24518933837, -172344.8914104571, -172321.53383750128, -172258.39015941505, -172410.0020420554, -165106.79305872836, 0.23800000000000002, 0.978, 0.114, 192.0, 0.0, 0.0, 0.0, 0.0, 0.0, 0.0, 0.0, 0.0, 0.0, 1.7395365953271656E9, 0.0, 2025-02-14 09:36:35.327
111.0, -172174.34760026308, -11621.834233025818, -172329.80398294976, -172345.49490755738, -172322.04792762376, -172258.9489530264, -172410.6502426446, -165105.7201749945, 0.242, 0.986, 0.12, 192.0, 7.0, 144.0, 30.0, 208.0, 3.0, 192.0, 0.0, 0.0, 0.0, 1.7395365953271775E9, 0.0, 2025-02-14 09:36:35.327
112.0, -172176.18044330843, -11556.880063638695, -172331.7262329729, -172347.3277506027, -172324.03723288028, -172260.8041478162, -172412.66189964558, -165144.41104464664, 0.242, 0.986, 0.12, 192.0, 0.0, 0.0, 0.0, 0.0, 0.0, 0.0, 0.0, 0.0, 0.0, 1.7395365953271909E9, 0.0, 2025-02-14 09:36:35.327
113.0, -172177.49919623128, -11443.02027738336, -172333.04498589577, -172348.6912070145, -172325.4677445254, -172262.167604228, -172414.2935769908, -165139.24779167745, 0.242, 0.986, 0.12, 192.0, 0.0, 0.0, 0.0, 0.0, 0.0, 0.0, 0.0, 0.0, 0.0, 1.7395365957948167E9, 0.0, 2025-02-14 09:36:35.794
114.0, -172179.6896671879, -11429.139844076615, -172335.2801603413, -172350.85932622664, -172327.5688085042, -172264.38042692907, -172416.7522688809, -165078.02636361436, 0.242, 0.986, 0.12, 192.0, 0.0, 0.0, 0.0, 0.0, 0.0, 0.0, 0.0, 0.0, 0.0, 1.7395365957948816E9, 0.0, 2025-02-14 09:36:35.794
115.0, -172181.12017883305, -11443.869643672662, -172336.68832024198, -172352.4910035719, -172328.99932014936, -172265.92269729648, -172418.47335320394, -165042.46473818598, 0.242, 0.986, 0.12, 192.0, 0.0, 0.0, 0.0, 0.0, 0.0, 0.0, 0.0, 0.0, 0.0, 1.7395365957949026E9, 0.0, 2025-02-14 09:36:35.794
116.0, -172184.2941265457, -11332.133273140584, -172339.9740266769, -172355.91082047354, -172332.30737832873, -172269.23075547587, -172422.07198406124, -165057.03807557083, 0.242, 0.986, 0.12, 192.0, 0.0, 0.0, 0.0, 0.0, 0.0, 0.0, 0.0, 0.0, 0.0, 1.7395365957949224E9, 0.0, 2025-02-14 09:36:35.794
117.0, -172186.7304666913, -11139.997677802763, -172342.61153252263, -172358.59302980817, -172335.01193940782, -172271.84590957712, -172425.06711781825, -165040.14015676262, 0.242, 0.986, 0.12, 192.0, 0.0, 0.0, 0.0, 0.0, 0.0, 0.0, 0.0, 0.0, 0.0, 1.7395365957949767E9, 0.0, 2025-02-14 09:36:35.794
118.0, -172187.42337076945, -11032.865766628476, -172343.2820848563, -172359.35298911965, -172335.70484348593, -172272.5611653997, -172426.07294631875, -164959.15978660106, 0.242, 0.986, 0.12, 192.0, 0.0, 0.0, 0.0, 0.0, 0.0, 0.0, 0.0, 0.0, 0.0, 1.7395365957949903E9, 0.0, 2025-02-14 09:36:35.794
119.0, -172191.82666442712, -10987.782298062122, -172347.8865442141, -172363.84568975517, -172340.0857853992, -172277.0762177797, -172430.6550539321, -164895.1220387366, 0.242, 0.986, 0.12, 192.0, 0.0, 0.0, 0.0, 0.0, 0.0, 0.0, 0.0, 0.0, 0.0, 1.7395365957950027E9, 0.0, 2025-02-14 09:36:35.795
120.0, -172192.51956850526, -10843.568842836481, -172348.64650352555, -172364.62800081112, -172341.00220692184, -172277.925584069, -172431.79499289932, -164889.75762006734, 0.242, 0.986, 0.12, 192.0, 0.0, 0.0, 0.0, 0.0, 0.0, 0.0, 0.0, 0.0, 0.0, 1.739536595795015E9, 0.0, 2025-02-14 09:36:35.795
121.0, -172192.899548161, -10609.009636522489, -172349.31705585922, -172365.27620140032, -172341.65040751104, -172278.50672942481, -172432.77846965534, -164875.54191059375, 0.242, 0.972, 0.112, 192.0, 7.0, 144.0, 30.0, 96.0, 3.0, 128.0, 0.0, 0.0, 0.0, 1.7395365957950296E9, 0.0, 2025-02-14 09:36:35.795
122.0, -172195.6935162179, -10451.653355557128, -172352.22278263842, -172368.31603864624, -172344.51143080133, -172281.412456204, -172435.79595515682, -164800.88708411303, 0.242, 0.972, 0.112, 192.0, 0.0, 0.0, 0.0, 0.0, 0.0, 0.0, 0.0, 0.0, 0.0, 1.7395365957950408E9, 0.0, 2025-02-14 09:36:35.795
123.0, -172199.67212673093, -10390.789555405327, -172356.22374489592, -172372.33935264818, -172348.5347448033, -172285.3687149726, -172439.59575171422, -164731.39551060146, 0.242, 0.972, 0.112, 192.0, 0.0, 0.0, 0.0, 0.0, 0.0, 0.0, 0.0, 0.0, 0.0, 1.7395365957950509E9, 0.0, 2025-02-14 09:36:35.795
124.0, -172202.53315002122, -10269.307824290732, -172359.2859338863, -172375.40154163857, -172351.57458204922, -172288.45325570743, -172442.79205117133, -164729.5850193006, 0.242, 0.972, 0.112, 192.0, 0.0, 0.0, 0.0, 0.0, 0.0, 0.0, 0.0, 0.0, 0.0, 1.739536595795061E9, 0.0, 2025-02-14 09:36:35.795
125.0, -172203.22605409933, -10053.144103663457, -172360.20235540895, -172376.29561141678, -172352.44630008296, -172289.48143595236, -172444.06610060527, -164742.19140317338, 0.242, 0.972, 0.112, 192.0, 0.0, 0.0, 0.0, 0.0, 0.0, 0.0, 0.0, 0.0, 0.0, 1.7395365957950716E9, 0.0, 2025-02-14 09:36:35.795
126.0, -172203.96366166638, -9893.686758719297, -172361.05172169826, -172377.18968119498, -172353.429776839, -172290.35315398613, -172444.46843200547, -164767.4935778968, 0.242, 0.972, 0.112, 192.0, 0.0, 0.0, 0.0, 0.0, 0.0, 0.0, 0.0, 0.0, 0.0, 1.7395365957950819E9, 0.0, 2025-02-14 09:36:35.795
127.0, -172204.41069655548, -9847.888034330374, -172361.52110833183, -172377.72612306193, -172353.94386696146, -172290.8672441086, -172444.87076340566, -164767.0912464966, 0.242, 0.972, 0.112, 192.0, 0.0, 0.0, 0.0, 0.0, 0.0, 0.0, 0.0, 0.0, 0.0, 1.739536595795092E9, 0.0, 2025-02-14 09:36:35.795
128.0, -172207.56229252368, -9768.092306624927, -172364.85151825566, -172381.05653298576, -172357.20722165194, -172294.2200057769, -172449.0505396188, -164739.37508337203, 0.242, 0.972, 0.112, 192.0, 0.0, 0.0, 0.0, 0.0, 0.0, 0.0, 0.0, 0.0, 0.0, 1.739536595795102E9, 0.0, 2025-02-14 09:36:35.795
129.0, -172209.5963012691, -9575.397917675724, -172367.13139619012, -172383.31405917575, -172359.46474784194, -172296.43282847796, -172451.7998041868, -164760.92216502695, 0.242, 0.972, 0.112, 192.0, 0.0, 0.0, 0.0, 0.0, 0.0, 0.0, 0.0, 0.0, 0.0, 1.7395365957951124E9, 0.0, 2025-02-14 09:36:35.795
130.0, -172211.4514960589, -9416.812290765321, -172369.09834970217, -172385.3927714101, -172361.36464612064, -172298.42213373448, -172453.6549989766, -164752.5849643451, 0.242, 0.972, 0.112, 192.0, 0.0, 0.0, 0.0, 0.0, 0.0, 0.0, 0.0, 0.0, 0.0, 1.7395365957951224E9, 0.0, 2025-02-14 09:36:35.795
131.0, -172214.58074028263, -9380.602464747722, -172372.11583520364, -172388.52201563385, -172364.44918685546, -172301.43961923596, -172456.31485656678, -164758.4411213924, 0.244, 0.982, 0.114, 192.0, 7.0, 160.0, 30.0, 176.0, 3.0, 144.0, 0.0, 0.0, 0.0, 1.739536595795138E9, 0.0, 2025-02-14 09:36:35.795
132.0, -172215.76538273875, -9339.385847972137, -172373.50164335986, -172389.77371332335, -172365.72323628943, -172302.78072390327, -172458.21475484548, -164753.1884614454, 0.244, 0.982, 0.114, 192.0, 0.0, 0.0, 0.0, 0.0, 0.0, 0.0, 0.0, 0.0, 0.0, 1.7395365957951486E9, 0.0, 2025-02-14 09:36:35.795
133.0, -172218.49229556232, -9181.984863517864, -172376.27325967234, -172392.6794401025, -172368.67366655753, -172305.68645068246, -172461.63457174716, -164793.01927006475, 0.244, 0.982, 0.114, 192.0, 0.0, 0.0, 0.0, 0.0, 0.0, 0.0, 0.0, 0.0, 0.0, 1.7395365957951586E9, 0.0, 2025-02-14 09:36:35.795
134.0, -172221.57683629714, -9018.906535971944, -172379.69307657398, -172396.12160874865, -172372.04877997027, -172308.90510188404, -172465.03203690436, -164795.5450171882, 0.244, 0.982, 0.114, 192.0, 0.0, 0.0, 0.0, 0.0, 0.0, 0.0, 0.0, 0.0, 0.0, 1.7395365957951689E9, 0.0, 2025-02-14 09:36:35.795
135.0, -172222.73912700883, -8976.281759295674, -172380.87771903013, -172397.32860294922, -172373.14401544858, -172310.11209608463, -172465.99316191592, -164757.07766498064, 0.244, 0.982, 0.114, 192.0, 0.0, 0.0, 0.0, 0.0, 0.0, 0.0, 0.0, 0.0, 0.0, 1.739536595795179E9, 0.0, 2025-02-14 09:36:35.795
136.0, -172224.14728690952, -8952.63361366196, -172382.37528590864, -172398.75911459437, -172374.64158232708, -172311.58731121867, -172467.49072879442, -164760.65394409347, 0.244, 0.982, 0.114, 192.0, 0.0, 0.0, 0.0, 0.0, 0.0, 0.0, 0.0, 0.0, 0.0, 1.739536595795189E9, 0.0, 2025-02-14 09:36:35.795
137.0, -172226.13659216603, -8818.143167274377, -172384.54340512078, -172400.97193729543, -172376.76499805035, -172313.8671891531, -172470.1058828957, -164817.33796803214, 0.244, 0.982, 0.114, 192.0, 0.0, 0.0, 0.0, 0.0, 0.0, 0.0, 0.0, 0.0, 0.0, 1.7395365957951992E9, 0.0, 2025-02-14 09:36:35.795
138.0, -172228.08119393364, -8651.510912360061, -172386.66682084405, -172403.16240825207, -172378.84371028468, -172315.94590138746, -172472.47516780798, -164842.4613287999, 0.244, 0.982, 0.114, 192.0, 0.0, 0.0, 0.0, 0.0, 0.0, 0.0, 0.0, 0.0, 0.0, 1.7395365957952092E9, 0.0, 2025-02-14 09:36:35.795
139.0, -172229.1540776675, -8600.638341979784, -172387.6279458556, -172404.25764373038, -172379.938945763, -172316.9740816324, -172473.59275503072, -164817.09209884313, 0.244, 0.982, 0.114, 192.0, 0.0, 0.0, 0.0, 0.0, 0.0, 0.0, 0.0, 0.0, 0.0, 1.7395365957952194E9, 0.0, 2025-02-14 09:36:35.795
140.0, -172229.93638872344, -8602.51588851403, -172388.5890708672, -172405.1517135086, -172380.7883120523, -172317.89050315507, -172474.48682480893, -164823.08236635715, 0.244, 0.982, 0.114, 192.0, 0.0, 0.0, 0.0, 0.0, 0.0, 0.0, 0.0, 0.0, 0.0, 1.7395365957952294E9, 0.0, 2025-02-14 09:36:35.795
