%OpenBCI Raw EXG Data
%Number of channels = 8
%Sample Rate = 250 Hz
%Board = OpenBCI_GUI$BoardCytonSerial
Sample Index, EXG Channel 0, EXG Channel 1, EXG Channel 2, EXG Channel 3, EXG Channel 4, EXG Channel 5, EXG Channel 6, EXG Channel 7, Accel Channel 0, Accel Channel 1, Accel Channel 2, Not Used, Digital Channel 0 (D11), Digital Channel 1 (D12), Digital Channel 2 (D13), Digital Channel 3 (D17), Not Used, Digital Channel 4 (D18), Analog Channel 0, Analog Channel 1, Analog Channel 2, Timestamp, Marker Channel, Timestamp (Formatted)
0.0, -140880.83247909934, -140939.6175670168, -141055.55606550648, -141082.8475454864, 165369.20253863366, 165318.0617473199, -141160.13987781285, -94267.56581873487, 0.01, 0.452, 0.20400000000000001, 192.0, 0.0, 80.0, 14.0, 32.0, 6.0, 96.0, 0.0, 0.0, 0.0, 1.7307447089905925E9, 0.0, 2024-11-04 15:25:08.990
1.0, -140883.98407506754, -140942.74681124053, -141058.52884751902, -141085.77562401004, 165319.78283164298, 165311.9597210836, -141163.13501156986, -94910.26787880277, 0.01, 0.452, 0.20400000000000001, 192.0, 0.0, 0.0, 0.0, 0.0, 0.0, 0.0, 0.0, 0.0, 0.0, 1.730744708993562E9, 0.0, 2024-11-04 15:25:08.993
2.0, -140887.13567103574, -140945.9207589532, -141061.65809174278, -141088.7484060226, 165304.85186634684, 165345.80026218895, -141166.28660753806, -95175.53838199835, 0.01, 0.452, 0.20400000000000001, 192.0, 0.0, 0.0, 0.0, 0.0, 0.0, 0.0, 0.0, 0.0, 0.0, 1.730744708997424E9, 0.0, 2024-11-04 15:25:08.997
3.0, -140887.98503732504, -140946.70307000913, -141062.4404027987, -141089.66482754526, 165242.4457958276, 165308.7187181376, -141166.95715987173, -95884.28984693169, 0.01, 0.452, 0.20400000000000001, 192.0, 0.0, 0.0, 0.0, 0.0, 0.0, 0.0, 0.0, 0.0, 0.0, 1.7307447090017436E9, 0.0, 2024-11-04 15:25:09.001
4.0, -140890.33197049284, -140949.1170584103, -141064.87674294433, -141092.27998164654, 165145.95331501405, 165235.494403302, -141169.1699825728, -96956.30186275266, 0.01, 0.452, 0.20400000000000001, 192.0, 0.0, 0.0, 0.0, 0.0, 0.0, 0.0, 0.0, 0.0, 0.0, 1.7307447090044873E9, 0.0, 2024-11-04 15:25:09.004
5.0, -140893.97530483906, -140952.8274479899, -141068.63183601282, -141095.94566773722, 165088.26346257492, 165218.52942926044, -141172.70155819674, -97680.16310693779, 0.01, 0.452, 0.20400000000000001, 192.0, 0.0, 0.0, 0.0, 0.0, 0.0, 0.0, 0.0, 0.0, 0.0, 1.7307447090105245E9, 0.0, 2024-11-04 15:25:09.010
6.0, -140896.18812754014, -140954.95086371314, -141070.7552517361, -141097.93497299374, 165071.14202632214, 165251.83352849886, -141174.78027043107, -97952.85438929254, 0.01, 0.452, 0.20400000000000001, 192.0, 0.0, 0.0, 0.0, 0.0, 0.0, 0.0, 0.0, 0.0, 0.0, 1.7307447090134912E9, 0.0, 2024-11-04 15:25:09.013
7.0, -140896.85867987378, -140955.5767125579, -141071.4034523253, -141098.6055253274, 165020.89530478662, 165230.68877824413, -141175.22730532018, -98530.1552450842, 0.038, 0.68, 0.31, 192.0, 1.0, 48.0, 21.0, 64.0, 9.0, 176.0, 0.0, 0.0, 0.0, 1.7307447090175009E9, 0.0, 2024-11-04 15:25:09.017
8.0, -140898.35624675232, -140957.20838990313, -141073.03512967052, -141100.43836837274, 164923.7769751283, 165154.62579186272, -141176.50135475415, -99586.94572293112, 0.038, 0.68, 0.31, 192.0, 0.0, 0.0, 0.0, 0.0, 0.0, 0.0, 0.0, 0.0, 0.0, 1.7307447090214913E9, 0.0, 2024-11-04 15:25:09.021
9.0, -140900.12203456427, -140959.04123294845, -141074.77856573803, -141102.22650792915, 164855.9617824509, 165124.3168263813, -141178.11068035493, -100382.71252902897, 0.038, 0.68, 0.31, 192.0, 0.0, 0.0, 0.0, 0.0, 0.0, 0.0, 0.0, 0.0, 0.0, 1.7307447090254433E9, 0.0, 2024-11-04 15:25:09.025
10.0, -140903.18422355465, -140961.94695972765, -141077.61723728388, -141104.90871726378, 164836.02402639677, 165155.07282675183, -141181.03875887857, -100695.18991651415, 0.038, 0.68, 0.31, 192.0, 0.0, 0.0, 0.0, 0.0, 0.0, 0.0, 0.0, 0.0, 0.0, 1.7307447090294435E9, 0.0, 2024-11-04 15:25:09.029
11.0, -140907.54281372344, -140966.30554989644, -141081.93112396373, -141109.24495568813, 164800.9541393464, 165153.86583255124, -141185.28559032507, -101148.95268070135, 0.038, 0.68, 0.31, 192.0, 0.0, 0.0, 0.0, 0.0, 0.0, 0.0, 0.0, 0.0, 0.0, 1.7307447090325131E9, 0.0, 2024-11-04 15:25:09.032
12.0, -140909.21919455758, -140967.93722724167, -141083.6522082868, -141111.12250222237, 164706.33920506708, 165078.94278513704, -141186.73845371467, -102176.8200012231, 0.038, 0.68, 0.31, 192.0, 0.0, 0.0, 0.0, 0.0, 0.0, 0.0, 0.0, 0.0, 0.0, 1.7307447090364568E9, 0.0, 2024-11-04 15:25:09.036
13.0, -140909.33095327986, -140968.13839294176, -141083.87572573134, -141111.30131617803, 164628.53278261816, 165035.53569740485, -141186.7161019702, -103042.5701192105, 0.038, 0.68, 0.31, 192.0, 0.0, 0.0, 0.0, 0.0, 0.0, 0.0, 0.0, 0.0, 0.0, 1.7307447090404716E9, 0.0, 2024-11-04 15:25:09.040
14.0, -140911.58847946985, -140970.41827087622, -141086.04384494352, -141113.42473190126, 164601.73304101624, 165058.6026976827, -141188.99597990466, -103416.5148039478, 0.038, 0.68, 0.31, 192.0, 0.0, 0.0, 0.0, 0.0, 0.0, 0.0, 0.0, 0.0, 0.0, 1.7307447090454597E9, 0.0, 2024-11-04 15:25:09.045
15.0, -140913.44367425964, -140972.25111392155, -141087.8543362444, -141115.2575749466, 164573.9051191694, 165069.48799723244, -141190.76176771664, -103766.9454535181, 0.038, 0.68, 0.31, 192.0, 0.0, 0.0, 0.0, 0.0, 0.0, 0.0, 0.0, 0.0, 0.0, 1.7307447090494149E9, 0.0, 2024-11-04 15:25:09.049
16.0, -140914.53890973795, -140973.34634939986, -141089.061330445, -141116.57632786946, 164484.45343785925, 164999.3929266206, -141191.63348575038, -104731.57968897578, 0.038, 0.68, 0.31, 192.0, 0.0, 0.0, 0.0, 0.0, 0.0, 0.0, 0.0, 0.0, 0.0, 1.7307447090533724E9, 0.0, 2024-11-04 15:25:09.053
17.0, -140915.88001440527, -140974.66510232273, -141090.4024351123, -141118.0068395146, 164399.94149207373, 164946.10636783915, -141192.75107297316, -105664.78737172931, 0.076, 0.8180000000000001, 0.384, 192.0, 2.0, 96.0, 25.0, 144.0, 12.0, 0.0, 0.0, 0.0, 0.0, 1.7307447090575633E9, 0.0, 2024-11-04 15:25:09.057
18.0, -140918.3163545509, -140977.03438723498, -141092.8611270024, -141120.28671744905, 164364.96101200118, 164959.87504242364, -141195.09800614096, -106116.20320274869, 0.076, 0.8180000000000001, 0.384, 192.0, 0.0, 0.0, 0.0, 0.0, 0.0, 0.0, 0.0, 0.0, 0.0, 1.7307447090606031E9, 0.0, 2024-11-04 15:25:09.060
19.0, -140920.9091569077, -140979.64954133626, -141095.34217063693, -141122.72305759467, 164344.21859314665, 164982.96439444597, -141197.69080849778, -106388.62626416997, 0.076, 0.8180000000000001, 0.384, 192.0, 0.0, 0.0, 0.0, 0.0, 0.0, 0.0, 0.0, 0.0, 0.0, 1.730744709064533E9, 0.0, 2024-11-04 15:25:09.064
20.0, -140922.6525929752, -140981.48238438158, -141097.1526619378, -141124.77941808457, 164263.26057472953, 164922.50292569434, -141199.2777823541, -107264.21114971771, 0.076, 0.8180000000000001, 0.384, 192.0, 0.0, 0.0, 0.0, 0.0, 0.0, 0.0, 0.0, 0.0, 0.0, 1.7307447090687857E9, 0.0, 2024-11-04 15:25:09.068
21.0, -140923.18903484216, -140981.99647450406, -141097.73380729364, -141125.38291518486, 164171.6631259517, 164858.88986097454, -141199.59070677648, -108246.16798712827, 0.076, 0.8180000000000001, 0.384, 192.0, 0.0, 0.0, 0.0, 0.0, 0.0, 0.0, 0.0, 0.0, 0.0, 1.7307447090724728E9, 0.0, 2024-11-04 15:25:09.072
22.0, -140925.62537498778, -140984.3210559274, -141100.03603697254, -141127.59573788592, 164128.07722426383, 164861.63912554254, -141201.75882598863, -108783.30275813375, 0.076, 0.8180000000000001, 0.384, 192.0, 0.0, 0.0, 0.0, 0.0, 0.0, 0.0, 0.0, 0.0, 0.0, 1.7307447090776577E9, 0.0, 2024-11-04 15:25:09.077
23.0, -140928.57580525588, -140987.2267827066, -141102.91941200726, -141130.300298965, 164111.51458162244, 164892.52923637978, -141204.6198492789, -109017.41492955864, 0.076, 0.8180000000000001, 0.384, 192.0, 0.0, 0.0, 0.0, 0.0, 0.0, 0.0, 0.0, 0.0, 0.0, 1.730744709081734E9, 0.0, 2024-11-04 15:25:09.081
24.0, -140929.17930235618, -140987.9196867847, -141103.67937131875, -141131.1496652543, 164040.21251681002, 164843.89184044502, -141205.08923591248, -109782.80571494171, 0.076, 0.8180000000000001, 0.384, 192.0, 0.0, 0.0, 0.0, 0.0, 0.0, 0.0, 0.0, 0.0, 0.0, 1.730744709084702E9, 0.0, 2024-11-04 15:25:09.084
25.0, -140929.514578523, -140988.29966644046, -141104.10405446342, -141131.7531623546, 163944.3011813523, 164773.10386575508, -141205.26804986811, -110798.29016903523, 0.076, 0.8180000000000001, 0.384, 192.0, 0.0, 0.0, 0.0, 0.0, 0.0, 0.0, 0.0, 0.0, 0.0, 1.7307447090884347E9, 0.0, 2024-11-04 15:25:09.088
26.0, -140932.017973902, -140990.780710075, -141106.42863588675, -141134.14479901132, 163892.02045107132, 164764.29727843968, -141207.61498303592, -111413.03019678954, 0.076, 0.8180000000000001, 0.384, 192.0, 0.0, 0.0, 0.0, 0.0, 0.0, 0.0, 0.0, 0.0, 0.0, 1.7307447090924354E9, 0.0, 2024-11-04 15:25:09.092
27.0, -140934.76723847, -140993.50762289856, -141108.9543830102, -141136.5587874125, 163875.5695671522, 164797.98135733383, -141210.1854336483, -111630.17739417285, 0.076, 0.866, 0.434, 192.0, 2.0, 96.0, 27.0, 16.0, 13.0, 144.0, 0.0, 0.0, 0.0, 1.7307447090965564E9, 0.0, 2024-11-04 15:25:09.096
28.0, -140936.48832279307, -140995.1840037327, -141110.78722605555, -141138.39163045783, 163816.33744434567, 164764.96783077336, -141211.9288697158, -112272.32066062935, 0.076, 0.866, 0.434, 192.0, 0.0, 0.0, 0.0, 0.0, 0.0, 0.0, 0.0, 0.0, 0.0, 1.7307447091006236E9, 0.0, 2024-11-04 15:25:09.100
29.0, -140937.82942746038, -140996.59216363338, -141112.28479293405, -141140.0233078031, 163719.06265247616, 164689.8659694035, -141213.00175344967, -113302.49021083, 0.076, 0.866, 0.434, 192.0, 0.0, 0.0, 0.0, 0.0, 0.0, 0.0, 0.0, 0.0, 0.0, 1.730744709105589E9, 0.0, 2024-11-04 15:25:09.105
30.0, -140938.49997979403, -140997.35212294487, -141112.97769701216, -141140.7162118812, 163656.00838136775, 164666.73191389226, -141213.5381953166, -114003.2621029928, 0.076, 0.866, 0.434, 192.0, 0.0, 0.0, 0.0, 0.0, 0.0, 0.0, 0.0, 0.0, 0.0, 1.7307447091096296E9, 0.0, 2024-11-04 15:25:09.109
31.0, -140940.69045075064, -140999.31907645692, -141114.94465052424, -141142.4596479487, 163636.33884624706, 164698.0690596186, -141215.57220406202, -114247.79018733386, 0.076, 0.866, 0.434, 192.0, 0.0, 0.0, 0.0, 0.0, 0.0, 0.0, 0.0, 0.0, 0.0, 1.7307447091125455E9, 0.0, 2024-11-04 15:25:09.112
32.0, -140943.95380544112, -141002.5824311474, -141118.2080052147, -141145.70065089472, 163590.3613079025, 164682.13226582197, -141218.65674479684, -114762.81908307303, 0.076, 0.866, 0.434, 192.0, 0.0, 0.0, 0.0, 0.0, 0.0, 0.0, 0.0, 0.0, 0.0, 1.7307447091164484E9, 0.0, 2024-11-04 15:25:09.116
33.0, -140946.01016593102, -141004.79525384848, -141120.5549383825, -141148.18169452928, 163494.71819337824, 164606.24809339622, -141220.62369830892, -115780.06932497851, 0.076, 0.866, 0.434, 192.0, 0.0, 0.0, 0.0, 0.0, 0.0, 0.0, 0.0, 0.0, 0.0, 1.7307447091205292E9, 0.0, 2024-11-04 15:25:09.120
34.0, -140947.30656710942, -141006.1810620047, -141121.82898781647, -141149.5675026855, 163424.01962566611, 164571.31231681257, -141221.76363727613, -116555.65250583322, 0.076, 0.866, 0.434, 192.0, 0.0, 0.0, 0.0, 0.0, 0.0, 0.0, 0.0, 0.0, 0.0, 1.7307447091245224E9, 0.0, 2024-11-04 15:25:09.124
35.0, -140948.7817822435, -141007.6786288832, -141123.2594994616, -141150.7744968861, 163398.58334047598, 164595.96629094676, -141223.2388524102, -116853.71301814474, 0.076, 0.866, 0.434, 192.0, 0.0, 0.0, 0.0, 0.0, 0.0, 0.0, 0.0, 0.0, 0.0, 1.7307447091285567E9, 0.0, 2024-11-04 15:25:09.128
36.0, -140950.50286656653, -141009.3326579729, -141124.89117680685, -141152.4732294647, 163361.07711327996, 164593.12761940094, -141224.80347452205, -117256.96083986294, 0.076, 0.866, 0.434, 192.0, 0.0, 0.0, 0.0, 0.0, 0.0, 0.0, 0.0, 0.0, 0.0, 1.73074470913353E9, 0.0, 2024-11-04 15:25:09.133
37.0, -140953.8779799793, -141012.77482661902, -141128.37804894187, -141156.20597078872, 163270.10551334688, 164520.7303191102, -141228.06682921253, -118229.01585447977, 0.074, 0.878, 0.468, 192.0, 2.0, 80.0, 27.0, 112.0, 14.0, 160.0, 0.0, 0.0, 0.0, 1.7307447091376047E9, 0.0, 2024-11-04 15:25:09.137
38.0, -140954.25795963503, -141013.11010278584, -141128.8027320865, -141156.63065393336, 163190.73446878608, 164473.43402784277, -141228.1338844459, -119074.91762339088, 0.074, 0.878, 0.468, 192.0, 0.0, 0.0, 0.0, 0.0, 0.0, 0.0, 0.0, 0.0, 0.0, 1.7307447091405592E9, 0.0, 2024-11-04 15:25:09.140
39.0, -140956.40372710273, -141015.278221998, -141130.9037960653, -141158.55290395653, 163159.21850910407, 164490.60016758446, -141230.14554144687, -119442.49206095841, 0.074, 0.878, 0.468, 192.0, 0.0, 0.0, 0.0, 0.0, 0.0, 0.0, 0.0, 0.0, 0.0, 1.7307447091446435E9, 0.0, 2024-11-04 15:25:09.144
40.0, -140956.94016896965, -141015.65820165374, -141131.12731350987, -141158.91053186782, 163129.1554128117, 164499.4738101332, -141230.48081761372, -119749.40386407422, 0.074, 0.878, 0.468, 192.0, 0.0, 0.0, 0.0, 0.0, 0.0, 0.0, 0.0, 0.0, 0.0, 1.73074470914859E9, 0.0, 2024-11-04 15:25:09.148
41.0, -140958.41538410372, -141017.0887132989, -141132.7589908551, -141160.63161619086, 163043.05649316986, 164431.52450698908, -141231.79957053656, -120654.09072090278, 0.074, 0.878, 0.468, 192.0, 0.0, 0.0, 0.0, 0.0, 0.0, 0.0, 0.0, 0.0, 0.0, 1.7307447091526065E9, 0.0, 2024-11-04 15:25:09.152
42.0, -140960.0694131934, -141018.6980388997, -141134.43537168927, -141162.46445923622, 162959.10334099573, 164376.31569818445, -141233.29713741507, -121548.47342353743, 0.074, 0.878, 0.468, 192.0, 0.0, 0.0, 0.0, 0.0, 0.0, 0.0, 0.0, 0.0, 0.0, 1.7307447091566973E9, 0.0, 2024-11-04 15:25:09.156
43.0, -140962.63986380576, -141021.3355447454, -141137.07287753499, -141164.87844763737, 162920.99361669942, 164384.4070296773, -141235.77818104962, -121989.13806547382, 0.074, 0.878, 0.468, 192.0, 0.0, 0.0, 0.0, 0.0, 0.0, 0.0, 0.0, 0.0, 0.0, 1.7307447091617296E9, 0.0, 2024-11-04 15:25:09.161
44.0, -140965.88086675177, -141024.57654769142, -141140.33623222547, -141167.89593313885, 162899.93827342254, 164406.1552770323, -141239.04153574008, -122227.49706834521, 0.074, 0.878, 0.468, 192.0, 0.0, 0.0, 0.0, 0.0, 0.0, 0.0, 0.0, 0.0, 0.0, 1.730744709164638E9, 0.0, 2024-11-04 15:25:09.164
45.0, -140967.51254409703, -141026.23057678112, -141142.0126130596, -141169.70642443973, 162823.40590040755, 164348.82305250445, -141240.5391026186, -123031.9363512917, 0.074, 0.878, 0.468, 192.0, 0.0, 0.0, 0.0, 0.0, 0.0, 0.0, 0.0, 0.0, 0.0, 1.7307447091685607E9, 0.0, 2024-11-04 15:25:09.168
46.0, -140969.41244237573, -141028.13047505982, -141144.0242700606, -141171.94159888526, 162735.6082481871, 164286.68520291868, -141242.17077996384, -123959.33258048685, 0.074, 0.878, 0.468, 192.0, 0.0, 0.0, 0.0, 0.0, 0.0, 0.0, 0.0, 0.0, 0.0, 1.7307447091726348E9, 0.0, 2024-11-04 15:25:09.172
47.0, -140969.39009063126, -141028.15282680426, -141143.93486308277, -141171.78513667407, 162687.52964586375, 164281.8795778608, -141241.99196600818, -124473.31094423664, 0.058, 0.872, 0.488, 192.0, 1.0, 208.0, 27.0, 64.0, 15.0, 64.0, 0.0, 0.0, 0.0, 1.7307447091765764E9, 0.0, 2024-11-04 15:25:09.176
48.0, -140970.5747330874, -141029.15865530475, -141144.8736363499, -141172.61215121893, 162667.68129678743, 164307.96406364013, -141242.93073927533, -124671.70502802194, 0.058, 0.872, 0.488, 192.0, 0.0, 0.0, 0.0, 0.0, 0.0, 0.0, 0.0, 0.0, 0.0, 1.7307447091807053E9, 0.0, 2024-11-04 15:25:09.180
49.0, -140973.88279126678, -141032.39965825077, -141148.1146392959, -141176.00961637613, 162603.7329559008, 164266.16630150873, -141246.17174222134, -125353.25441995317, 0.058, 0.872, 0.488, 192.0, 0.0, 0.0, 0.0, 0.0, 0.0, 0.0, 0.0, 0.0, 0.0, 1.7307447091845825E9, 0.0, 2024-11-04 15:25:09.184
50.0, -140976.54264885696, -141035.17127456324, -141150.95331084172, -141178.96004664424, 162514.3706815685, 164199.75926873198, -141248.74219283368, -126295.71572491119, 0.058, 0.872, 0.488, 192.0, 0.0, 0.0, 0.0, 0.0, 0.0, 0.0, 0.0, 0.0, 0.0, 1.7307447091895769E9, 0.0, 2024-11-04 15:25:09.189
51.0, -140978.46489888013, -141037.22763505313, -141152.9649678427, -141180.94935190075, 162460.72649487574, 164186.01294589197, -141250.55268413457, -126881.77846452934, 0.058, 0.872, 0.488, 192.0, 0.0, 0.0, 0.0, 0.0, 0.0, 0.0, 0.0, 0.0, 0.0, 1.7307447091926124E9, 0.0, 2024-11-04 15:25:09.192
52.0, -140980.58831460337, -141039.30634728746, -141154.8648661214, -141182.69278796826, 162441.48164289971, 164214.57847530587, -141252.5419893911, -127076.8421383908, 0.058, 0.872, 0.488, 192.0, 0.0, 0.0, 0.0, 0.0, 0.0, 0.0, 0.0, 0.0, 0.0, 1.7307447091959572E9, 0.0, 2024-11-04 15:25:09.195
53.0, -140980.94594251466, -141039.64162345428, -141155.31190101051, -141183.1174711129, 162385.87050269492, 164184.8059516914, -141252.83256206903, -127628.88552294798, 0.058, 0.872, 0.488, 192.0, 0.0, 0.0, 0.0, 0.0, 0.0, 0.0, 0.0, 0.0, 0.0, 1.73074470920061E9, 0.0, 2024-11-04 15:25:09.200
54.0, -140983.56109661594, -141042.23442581113, -141157.99411034514, -141186.09025312547, 162295.77062079558, 164115.35908166875, -141255.26890221465, -128565.13304294743, 0.058, 0.872, 0.488, 192.0, 0.0, 0.0, 0.0, 0.0, 0.0, 0.0, 0.0, 0.0, 0.0, 1.7307447092046616E9, 0.0, 2024-11-04 15:25:09.204
55.0, -140985.282180939, -141043.84375141189, -141159.6704911793, -141187.69957872626, 162234.66095145477, 164090.727459279, -141256.85587607097, -129216.46287637507, 0.058, 0.872, 0.488, 192.0, 0.0, 0.0, 0.0, 0.0, 0.0, 0.0, 0.0, 0.0, 0.0, 1.7307447092088184E9, 0.0, 2024-11-04 15:25:09.208
56.0, -140988.61259086285, -141047.15180959128, -141162.97854935867, -141190.78411946108, 162214.72319540064, 164118.57773287033, -141260.16393425036, -129434.45944004768, 0.058, 0.872, 0.488, 192.0, 0.0, 0.0, 0.0, 0.0, 0.0, 0.0, 0.0, 0.0, 0.0, 1.7307447092126763E9, 0.0, 2024-11-04 15:25:09.212
57.0, -140989.86428855231, -141048.62702472534, -141164.2749505371, -141192.1252241284, 162171.36081115733, 164105.12198270822, -141261.4826871732, -129864.7975760457, 0.056, 0.864, 0.482, 192.0, 1.0, 192.0, 27.0, 0.0, 15.0, 16.0, 0.0, 0.0, 0.0, 1.7307447092178335E9, 0.0, 2024-11-04 15:25:09.217
58.0, -140990.49013739708, -141049.31992880345, -141164.9231511263, -141193.10870088445, 162081.43974321365, 164034.4234149961, -141262.0414807846, -130771.3172759196, 0.056, 0.864, 0.482, 192.0, 0.0, 0.0, 0.0, 0.0, 0.0, 0.0, 0.0, 0.0, 0.0, 1.73074470922071E9, 0.0, 2024-11-04 15:25:09.220
59.0, -140994.15582348776, -141052.82915268294, -141168.49943023914, -141196.70733174175, 162015.72561451505, 164002.03573728036, -141265.52835291962, -131470.74806341506, 0.056, 0.864, 0.482, 192.0, 0.0, 0.0, 0.0, 0.0, 0.0, 0.0, 0.0, 0.0, 0.0, 1.730744709224674E9, 0.0, 2024-11-04 15:25:09.224
60.0, -140999.76611134602, -141058.3947370523, -141174.08736635296, -141201.9823434332, 161993.26211133745, 164026.44384222553, -141271.11628903347, -131739.28192130112, 0.056, 0.864, 0.482, 192.0, 0.0, 0.0, 0.0, 0.0, 0.0, 0.0, 0.0, 0.0, 0.0, 1.7307447092286584E9, 0.0, 2024-11-04 15:25:09.228
61.0, -141000.86134682433, -141059.57937950842, -141175.16025008683, -141203.1222824004, 161959.19805278757, 164026.68971141454, -141272.2338762562, -132062.0187594913, 0.056, 0.864, 0.482, 192.0, 0.0, 0.0, 0.0, 0.0, 0.0, 0.0, 0.0, 0.0, 0.0, 1.730744709232712E9, 0.0, 2024-11-04 15:25:09.232
62.0, -140999.74375960158, -141058.37238530786, -141174.04266286406, -141202.20586087776, 161872.09330464524, 163958.27102163684, -141270.8927715889, -132903.60664172252, 0.056, 0.864, 0.482, 192.0, 0.0, 0.0, 0.0, 0.0, 0.0, 0.0, 0.0, 0.0, 0.0, 1.7307447092367198E9, 0.0, 2024-11-04 15:25:09.236
63.0, -141002.20245149167, -141060.786373709, -141176.54605824305, -141204.70925625673, 161799.5395421433, 163915.84741066067, -141272.88207684542, -133509.0706955279, 0.056, 0.864, 0.482, 192.0, 0.0, 0.0, 0.0, 0.0, 0.0, 0.0, 0.0, 0.0, 0.0, 1.73074470924072E9, 0.0, 2024-11-04 15:25:09.240
64.0, -141004.8399573374, -141063.51328653257, -141179.13886059987, -141207.2350033802, 161768.0459342058, 163929.12434686715, -141275.63134141342, -133666.71754917115, 0.056, 0.864, 0.482, 192.0, 0.0, 0.0, 0.0, 0.0, 0.0, 0.0, 0.0, 0.0, 0.0, 1.7307447092458377E9, 0.0, 2024-11-04 15:25:09.245
65.0, -141008.6397538948, -141067.42484181223, -141182.91630541283, -141211.0347999376, 161743.70488449396, 163943.22829761842, -141279.38643448192, -133732.25286391412, 0.056, 0.864, 0.482, 192.0, 0.0, 0.0, 0.0, 0.0, 0.0, 0.0, 0.0, 0.0, 0.0, 1.7307447092486973E9, 0.0, 2024-11-04 15:25:09.248
66.0, -141011.72429462962, -141070.48703080261, -141186.15730835884, -141214.32050637252, 161666.54666263424, 163885.65020390158, -141282.8956583614, -134198.28673580728, 0.056, 0.864, 0.482, 192.0, 0.0, 0.0, 0.0, 0.0, 0.0, 0.0, 0.0, 0.0, 0.0, 1.7307447092516787E9, 0.0, 2024-11-04 15:25:09.251
67.0, -141016.06053305394, -141074.73386224912, -141190.56060201654, -141218.81320700803, 161589.5896064746, 163836.14108993305, -141287.5001177192, -134708.93468963323, 0.052000000000000005, 0.91, 0.48, 192.0, 1.0, 160.0, 28.0, 112.0, 15.0, 0.0, 0.0, 0.0, 0.0, 1.7307447092566955E9, 0.0, 2024-11-04 15:25:09.256
68.0, -141018.8321493664, -141077.52783030603, -141193.2651630956, -141221.3389541315, 161550.5858124001, 163839.15857543453, -141290.31643752055, -134851.38235704688, 0.052000000000000005, 0.91, 0.48, 192.0, 0.0, 0.0, 0.0, 0.0, 0.0, 0.0, 0.0, 0.0, 0.0, 1.7307447092606473E9, 0.0, 2024-11-04 15:25:09.260
69.0, -141021.26848951203, -141079.94181870722, -141195.61209626342, -141223.5964803215, 161529.03873074517, 163859.14103497757, -141292.68572243283, -134772.19012644174, 0.052000000000000005, 0.91, 0.48, 192.0, 0.0, 0.0, 0.0, 0.0, 0.0, 0.0, 0.0, 0.0, 0.0, 1.7307447092646422E9, 0.0, 2024-11-04 15:25:09.264
70.0, -141023.34720174636, -141082.06523443048, -141197.89197419788, -141225.85400651145, 161459.74832293374, 163811.12948788758, -141294.8985451339, -135192.5593844127, 0.052000000000000005, 0.91, 0.48, 192.0, 0.0, 0.0, 0.0, 0.0, 0.0, 0.0, 0.0, 0.0, 0.0, 1.7307447092687373E9, 0.0, 2024-11-04 15:25:09.268
71.0, -141027.86225412635, -141086.46852808815, -141202.36232308892, -141230.48081761372, 161379.97494697274, 163756.16654827198, -141299.43594925833, -135757.20915284267, 0.052000000000000005, 0.91, 0.48, 192.0, 0.0, 0.0, 0.0, 0.0, 0.0, 0.0, 0.0, 0.0, 0.0, 1.730744709273782E9, 0.0, 2024-11-04 15:25:09.273
72.0, -141032.24319603958, -141090.93887697923, -141206.69856151327, -141234.79470429357, 161336.21023132923, 163751.3609232141, -141303.86159466047, -135970.60125715748, 0.052000000000000005, 0.91, 0.48, 192.0, 0.0, 0.0, 0.0, 0.0, 0.0, 0.0, 0.0, 0.0, 0.0, 1.7307447092766776E9, 0.0, 2024-11-04 15:25:09.276
73.0, -141036.24415829708, -141094.98454272564, -141210.6324685374, -141238.70625957326, 161318.19472529826, 163777.19953980442, -141307.97431564025, -135873.66174145482, 0.052000000000000005, 0.91, 0.48, 192.0, 0.0, 0.0, 0.0, 0.0, 0.0, 0.0, 0.0, 0.0, 0.0, 1.7307447092797716E9, 0.0, 2024-11-04 15:25:09.279
74.0, -141039.66397519875, -141098.42671137175, -141214.2758028836, -141242.39429740838, 161260.14724494782, 163743.0907777656, -141311.57294649756, -136191.145919698, 0.052000000000000005, 0.91, 0.48, 192.0, 0.0, 0.0, 0.0, 0.0, 0.0, 0.0, 0.0, 0.0, 0.0, 1.7307447092848835E9, 0.0, 2024-11-04 15:25:09.284
75.0, -141042.3908880223, -141101.10892070638, -141217.1368261739, -141245.34472767648, 161176.68583115173, 163682.56225378063, -141314.41161804338, -136773.1853453142, 0.052000000000000005, 0.91, 0.48, 192.0, 0.0, 0.0, 0.0, 0.0, 0.0, 0.0, 0.0, 0.0, 0.0, 1.7307447092889066E9, 0.0, 2024-11-04 15:25:09.288
76.0, -141046.97299563565, -141105.62397308636, -141221.65187855385, -141249.88213180093, 161126.19324042718, 163668.4359512849, -141319.03842914564, -137060.78524122064, 0.052000000000000005, 0.91, 0.48, 192.0, 0.0, 0.0, 0.0, 0.0, 0.0, 0.0, 0.0, 0.0, 0.0, 1.7307447092917645E9, 0.0, 2024-11-04 15:25:09.291
77.0, -141050.3928125373, -141109.06614173247, -141224.87052975543, -141253.01137602466, 161111.68695827568, 163696.01800394274, -141322.4582460473, -136987.40446417386, 0.038, 0.896, 0.466, 192.0, 1.0, 48.0, 28.0, 0.0, 14.0, 144.0, 0.0, 0.0, 0.0, 1.7307447092958496E9, 0.0, 2024-11-04 15:25:09.295
78.0, -141052.15860034927, -141110.76487431108, -141226.6363175674, -141254.77716383664, 161084.1272573623, 163692.86640797454, -141324.31344083708, -137133.3166519781, 0.038, 0.896, 0.466, 192.0, 0.0, 0.0, 0.0, 0.0, 0.0, 0.0, 0.0, 0.0, 0.0, 1.7307447093008294E9, 0.0, 2024-11-04 15:25:09.300
79.0, -141054.95256840618, -141113.64824934583, -141229.45263736875, -141257.70524236027, 161032.71824511507, 163664.81496868315, -141327.353278083, -137535.46923821798, 0.038, 0.896, 0.466, 192.0, 0.0, 0.0, 0.0, 0.0, 0.0, 0.0, 0.0, 0.0, 0.0, 1.7307447093048398E9, 0.0, 2024-11-04 15:25:09.304
80.0, -141059.4899725306, -141118.27506044807, -141233.9900414932, -141262.0414807846, 161000.12940169923, 163672.95100366487, -141331.9130339519, -137678.92273413215, 0.038, 0.896, 0.466, 192.0, 0.0, 0.0, 0.0, 0.0, 0.0, 0.0, 0.0, 0.0, 0.0, 1.730744709308746E9, 0.0, 2024-11-04 15:25:09.308
81.0, -141062.2839405875, -141120.9125662938, -141236.69460257227, -141264.5448761636, 160985.06432593637, 163709.07142270464, -141334.7070020088, -137519.82301709926, 0.038, 0.896, 0.466, 192.0, 0.0, 0.0, 0.0, 0.0, 0.0, 0.0, 0.0, 0.0, 0.0, 1.73074470931274E9, 0.0, 2024-11-04 15:25:09.312
82.0, -141066.53077203402, -141125.13704599586, -141240.91908227434, -141268.7470041212, 160947.736912696, 163707.66326280395, -141338.9091299664, -137597.58473605927, 0.038, 0.896, 0.466, 192.0, 0.0, 0.0, 0.0, 0.0, 0.0, 0.0, 0.0, 0.0, 0.0, 1.73074470931679E9, 0.0, 2024-11-04 15:25:09.316
83.0, -141070.8893622028, -141129.562691398, -141245.41178290985, -141273.57498092353, 160870.6233943252, 163655.2260703118, -141343.58064455757, -138140.5086088787, 0.038, 0.896, 0.466, 192.0, 0.0, 0.0, 0.0, 0.0, 0.0, 0.0, 0.0, 0.0, 0.0, 1.7307447093198624E9, 0.0, 2024-11-04 15:25:09.319
84.0, -141074.53269654902, -141133.2060257442, -141249.14452423388, -141277.17361178083, 160810.13957382913, 163630.03565431066, -141347.42514460388, -138526.187959455, 0.038, 0.896, 0.466, 192.0, 0.0, 0.0, 0.0, 0.0, 0.0, 0.0, 0.0, 0.0, 0.0, 1.7307447093247118E9, 0.0, 2024-11-04 15:25:09.324
85.0, -141080.6570745298, -141139.3080519805, -141255.11244000346, -141282.96271359478, 160785.77617237286, 163652.7226749328, -141353.52717084019, -138533.0499450028, 0.038, 0.896, 0.466, 192.0, 0.0, 0.0, 0.0, 0.0, 0.0, 0.0, 0.0, 0.0, 0.0, 1.730744709328683E9, 0.0, 2024-11-04 15:25:09.328
86.0, -141086.1556036658, -141144.7171741387, -141260.5439139061, -141288.3941874974, 160756.27186969185, 163662.24451807077, -141359.1598104429, -138561.30254999432, 0.038, 0.896, 0.466, 192.0, 0.0, 0.0, 0.0, 0.0, 0.0, 0.0, 0.0, 0.0, 0.0, 1.7307447093327992E9, 0.0, 2024-11-04 15:25:09.332
87.0, -141088.4131298558, -141146.95234858422, -141262.9355505628, -141290.8528793875, 160683.87456940112, 163614.6800058699, -141361.73026105526, -139072.48694568718, 0.032, 0.89, 0.47400000000000003, 192.0, 1.0, 0.0, 27.0, 208.0, 14.0, 208.0, 0.0, 0.0, 0.0, 1.730744709336798E9, 0.0, 2024-11-04 15:25:09.336
88.0, -141091.38591186833, -141150.0145375746, -141265.90833257537, -141293.8480131445, 160623.36839716058, 163588.17083694588, -141364.99361574574, -139490.68808444598, 0.032, 0.89, 0.47400000000000003, 192.0, 0.0, 0.0, 0.0, 0.0, 0.0, 0.0, 0.0, 0.0, 0.0, 1.7307447093398647E9, 0.0, 2024-11-04 15:25:09.339
89.0, -141093.93401073624, -141152.5626364425, -141268.41172795437, -141296.23964980122, 160591.22658863384, 163603.34767143102, -141367.4746593803, -139539.7278117809, 0.032, 0.89, 0.47400000000000003, 192.0, 0.0, 0.0, 0.0, 0.0, 0.0, 0.0, 0.0, 0.0, 0.0, 1.730744709343832E9, 0.0, 2024-11-04 15:25:09.343
90.0, -141097.77851078255, -141156.317729511, -141272.21152451177, -141299.9500393808, 160560.76116094127, 163616.35638670402, -141371.40856640443, -139514.15741612404, 0.032, 0.89, 0.47400000000000003, 192.0, 0.0, 0.0, 0.0, 0.0, 0.0, 0.0, 0.0, 0.0, 0.0, 1.7307447093478055E9, 0.0, 2024-11-04 15:25:09.347
91.0, -141099.63370557234, -141158.1282208119, -141274.13377453492, -141301.93934463733, 160488.83324728408, 163570.26708963717, -141373.53198212766, -140016.28935531253, 0.032, 0.89, 0.47400000000000003, 192.0, 0.0, 0.0, 0.0, 0.0, 0.0, 0.0, 0.0, 0.0, 0.0, 1.7307447093518534E9, 0.0, 2024-11-04 15:25:09.351
92.0, -141103.79113004103, -141162.4197557473, -141278.35825423698, -141306.29793480612, 160423.47674649677, 163536.96299039878, -141378.20349671884, -140506.73133215087, 0.032, 0.89, 0.47400000000000003, 192.0, 0.0, 0.0, 0.0, 0.0, 0.0, 0.0, 0.0, 0.0, 0.0, 1.730744709357885E9, 0.0, 2024-11-04 15:25:09.357
93.0, -141108.97673475466, -141167.62771220537, -141283.4544519728, -141311.37178079746, 160386.59636814552, 163545.0990253805, -141383.54556364365, -140649.26840654237, 0.032, 0.89, 0.47400000000000003, 192.0, 0.0, 0.0, 0.0, 0.0, 0.0, 0.0, 0.0, 0.0, 0.0, 1.73074470936087E9, 0.0, 2024-11-04 15:25:09.360
94.0, -141112.84358654544, -141171.42750876278, -141287.2989520191, -141315.1045221215, 160357.02501023115, 163560.96876394376, -141387.3677119455, -140596.87591753912, 0.032, 0.89, 0.47400000000000003, 192.0, 0.0, 0.0, 0.0, 0.0, 0.0, 0.0, 0.0, 0.0, 0.0, 1.7307447093649237E9, 0.0, 2024-11-04 15:25:09.364
95.0, -141115.81636855798, -141174.33323554197, -141290.38349275393, -141318.21141460078, 160290.66268094335, 163522.36730126946, -141391.27926722518, -140933.4708372916, 0.032, 0.89, 0.47400000000000003, 192.0, 0.0, 0.0, 0.0, 0.0, 0.0, 0.0, 0.0, 0.0, 0.0, 1.7307447093677857E9, 0.0, 2024-11-04 15:25:09.367
96.0, -141118.56563312598, -141177.23896232116, -141293.3562747665, -141321.22890010226, 160220.25468590914, 163482.089457761, -141396.2637062387, -141237.25339618366, 0.032, 0.89, 0.47400000000000003, 192.0, 0.0, 0.0, 0.0, 0.0, 0.0, 0.0, 0.0, 0.0, 0.0, 1.730744709371826E9, 0.0, 2024-11-04 15:25:09.371
97.0, -141122.03015351656, -141180.81524143403, -141296.7984434126, -141324.78282747066, 160176.24410107662, 163480.45778041575, -141400.1752615184, -141272.5020971897, 0.018000000000000002, 0.878, 0.47800000000000004, 192.0, 0.0, 144.0, 27.0, 112.0, 14.0, 240.0, 0.0, 0.0, 0.0, 1.7307447093759012E9, 0.0, 2024-11-04 15:25:09.375
98.0, -141126.54520589652, -141185.28559032507, -141301.24644055922, -141329.23082461726, 160147.43270247374, 163498.18271376882, -141404.7797208762, -141276.346597236, 0.018000000000000002, 0.878, 0.47800000000000004, 192.0, 0.0, 0.0, 0.0, 0.0, 0.0, 0.0, 0.0, 0.0, 0.0, 1.730744709379926E9, 0.0, 2024-11-04 15:25:09.379
99.0, -141130.4567611762, -141189.08538688248, -141305.13564409444, -141333.0529729191, 160087.79824826698, 163468.85722504347, -141408.5795174336, -141282.82860312803, 0.018000000000000002, 0.878, 0.47800000000000004, 192.0, 0.0, 0.0, 0.0, 0.0, 0.0, 0.0, 0.0, 0.0, 0.0, 1.7307447093848224E9, 0.0, 2024-11-04 15:25:09.384
100.0, -141132.02138328808, -141190.65000899436, -141306.83437667304, -141334.72935375327, 160013.54575318645, 163423.68434949926, -141410.14413954547, -141287.2542485302, 0.018000000000000002, 0.878, 0.47800000000000004, 192.0, 0.0, 0.0, 0.0, 0.0, 0.0, 0.0, 0.0, 0.0, 0.0, 1.7307447093888817E9, 0.0, 2024-11-04 15:25:09.388
101.0, -141135.7541246121, -141194.3827503184, -141310.45535927478, -141338.43974333286, 159964.12604619577, 163414.45307903923, -141413.8768808695, -141291.9481148658, 0.018000000000000002, 0.878, 0.47800000000000004, 192.0, 0.0, 0.0, 0.0, 0.0, 0.0, 0.0, 0.0, 0.0, 0.0, 1.730744709392913E9, 0.0, 2024-11-04 15:25:09.392
102.0, -141141.74439212613, -141200.3283143435, -141316.42327504436, -141344.29590038012, 159935.00172317048, 163431.55216354755, -141419.9342036169, -141297.98308586873, 0.018000000000000002, 0.878, 0.47800000000000004, 192.0, 0.0, 0.0, 0.0, 0.0, 0.0, 0.0, 0.0, 0.0, 0.0, 1.730744709395934E9, 0.0, 2024-11-04 15:25:09.395
103.0, -141144.6724706498, -141203.21168937822, -141319.32900182356, -141347.33573762607, 159880.37405972174, 163410.65328248183, -141422.81757865162, -141301.44760625932, 0.018000000000000002, 0.878, 0.47800000000000004, 192.0, 0.0, 0.0, 0.0, 0.0, 0.0, 0.0, 0.0, 0.0, 0.0, 1.7307447093998625E9, 0.0, 2024-11-04 15:25:09.399
104.0, -141145.70065089472, -141204.39633183437, -141320.4018855574, -141348.58743531554, 159803.97579717348, 163363.44639819223, -141424.0916280856, -141303.79453942712, 0.018000000000000002, 0.878, 0.47800000000000004, 192.0, 0.0, 0.0, 0.0, 0.0, 0.0, 0.0, 0.0, 0.0, 0.0, 1.7307447094039106E9, 0.0, 2024-11-04 15:25:09.403
105.0, -141149.2098747742, -141207.95025920277, -141323.97816467026, -141352.09665919503, 159749.5492994248, 163347.5543078845, -141427.62320370952, -141307.86255691797, 0.018000000000000002, 0.878, 0.47800000000000004, 192.0, 0.0, 0.0, 0.0, 0.0, 0.0, 0.0, 0.0, 0.0, 0.0, 1.730744709407873E9, 0.0, 2024-11-04 15:25:09.407
106.0, -141153.70257540973, -141212.331201116, -141328.47086530578, -141356.3211388971, 159716.35695890867, 163359.89247082383, -141432.16060783394, -141312.44466453133, 0.018000000000000002, 0.878, 0.47800000000000004, 192.0, 0.0, 0.0, 0.0, 0.0, 0.0, 0.0, 0.0, 0.0, 0.0, 1.730744709412814E9, 0.0, 2024-11-04 15:25:09.412
107.0, -141158.08351732296, -141216.82390175152, -141333.0082694302, -141360.83619127705, 159668.52422577434, 163349.051874763, -141436.630956725, -141317.22793784476, 0.008, 0.914, 0.454, 192.0, 0.0, 64.0, 28.0, 144.0, 14.0, 48.0, 0.0, 0.0, 0.0, 1.7307447094179623E9, 0.0, 2024-11-04 15:25:09.417
108.0, -141162.93384586976, -141221.67423029832, -141337.92565321038, -141365.93238901286, 159594.36113767163, 163304.75071725258, -141441.59304399407, -141323.01703965868, 0.008, 0.914, 0.454, 192.0, 0.0, 0.0, 0.0, 0.0, 0.0, 0.0, 0.0, 0.0, 0.0, 1.7307447094220316E9, 0.0, 2024-11-04 15:25:09.422
109.0, -141166.51012498263, -141225.27286115562, -141341.4125253454, -141369.4192611479, 159534.48081427586, 163281.9519379082, -141445.16932310694, -141327.04035366065, 0.008, 0.914, 0.454, 192.0, 0.0, 0.0, 0.0, 0.0, 0.0, 0.0, 0.0, 0.0, 0.0, 1.7307447094259057E9, 0.0, 2024-11-04 15:25:09.425
110.0, -141169.61701746192, -141228.42445712382, -141344.47471433578, -141372.39204316045, 159495.87935160153, 163287.20459785516, -141448.25386384176, -141330.23665311775, 0.008, 0.914, 0.454, 192.0, 0.0, 0.0, 0.0, 0.0, 0.0, 0.0, 0.0, 0.0, 0.0, 1.7307447094287844E9, 0.0, 2024-11-04 15:25:09.428
111.0, -141173.26035180813, -141232.00073623666, -141348.05099344862, -141375.99067401775, 159451.22056617984, 163281.1919785967, -141451.80779121016, -141333.9470426973, 0.008, 0.914, 0.454, 192.0, 0.0, 0.0, 0.0, 0.0, 0.0, 0.0, 0.0, 0.0, 0.0, 1.7307447094318516E9, 0.0, 2024-11-04 15:25:09.431
112.0, -141176.25548556514, -141234.8394077825, -141350.9567202278, -141379.23167696377, 159375.00111758724, 163235.43795769667, -141454.71351798935, -141337.63508053246, 0.008, 0.914, 0.454, 192.0, 0.0, 0.0, 0.0, 0.0, 0.0, 0.0, 0.0, 0.0, 0.0, 1.7307447094359927E9, 0.0, 2024-11-04 15:25:09.435
113.0, -141179.51884025562, -141238.05805898405, -141354.2647784072, -141382.58443863207, 159309.354044122, 163205.46426838211, -141458.0886314021, -141341.5019323232, 0.008, 0.914, 0.454, 192.0, 0.0, 0.0, 0.0, 0.0, 0.0, 0.0, 0.0, 0.0, 0.0, 1.7307447094409158E9, 0.0, 2024-11-04 15:25:09.440
114.0, -141182.55867750154, -141241.18730320781, -141357.39402263094, -141385.49016541126, 159266.841026168, 163205.017233493, -141461.26257911476, -141344.78763875816, 0.008, 0.914, 0.454, 192.0, 0.0, 0.0, 0.0, 0.0, 0.0, 0.0, 0.0, 0.0, 0.0, 1.7307447094448073E9, 0.0, 2024-11-04 15:25:09.444
115.0, -141187.29724732606, -141245.94822477677, -141361.99848198873, -141390.29579046916, 159228.37367396042, 163206.64891083824, -141465.95644545037, -141349.54856032712, 0.008, 0.914, 0.454, 192.0, 0.0, 0.0, 0.0, 0.0, 0.0, 0.0, 0.0, 0.0, 0.0, 1.7307447094489648E9, 0.0, 2024-11-04 15:25:09.448
116.0, -141191.63348575038, -141250.26211145666, -141366.35707215752, -141394.74378761576, 159157.071609148, 163167.35454408583, -141470.31503561916, -141354.39888887393, 0.008, 0.914, 0.454, 192.0, 0.0, 0.0, 0.0, 0.0, 0.0, 0.0, 0.0, 0.0, 0.0, 1.7307447094518793E9, 0.0, 2024-11-04 15:25:09.451
117.0, -141192.84047995097, -141251.46910565725, -141367.6758250804, -141396.06254053864, 159086.1048205024, 163131.1000145793, -141471.61143679757, -141356.14232494144, -0.01, 0.918, 0.428, 192.0, 255.0, 176.0, 28.0, 176.0, 13.0, 96.0, 0.0, 0.0, 0.0, 1.7307447094559717E9, 0.0, 2024-11-04 15:25:09.455
118.0, -141194.49450904067, -141253.14548649138, -141369.28515068116, -141397.64951439496, 159039.12145365734, 163124.32743600936, -141473.3325211206, -141357.95281624232, -0.01, 0.918, 0.428, 192.0, 0.0, 0.0, 0.0, 0.0, 0.0, 0.0, 0.0, 0.0, 0.0, 1.7307447094598606E9, 0.0, 2024-11-04 15:25:09.459
119.0, -141199.34483758747, -141258.085222016, -141374.13547922796, -141402.49984294176, 159004.45389800717, 163130.13888956772, -141478.2946083897, -141362.95960700032, -0.01, 0.918, 0.428, 192.0, 0.0, 0.0, 0.0, 0.0, 0.0, 0.0, 0.0, 0.0, 0.0, 1.730744709463968E9, 0.0, 2024-11-04 15:25:09.463
120.0, -141204.86571846792, -141263.56139940757, -141379.65636010843, -141408.0654273111, 158939.7679495535, 163099.02526128595, -141483.8378410146, -141368.79341230314, -0.01, 0.918, 0.428, 192.0, 0.0, 0.0, 0.0, 0.0, 0.0, 0.0, 0.0, 0.0, 0.0, 1.730744709467936E9, 0.0, 2024-11-04 15:25:09.467
121.0, -141207.2797068691, -141265.9306843198, -141382.20445897634, -141410.5688226901, 158867.68357368512, 163061.11670268973, -141486.2965329047, -141371.65443559343, -0.01, 0.918, 0.428, 192.0, 0.0, 0.0, 0.0, 0.0, 0.0, 0.0, 0.0, 0.0, 0.0, 1.7307447094730256E9, 0.0, 2024-11-04 15:25:09.473
122.0, -141209.40312259237, -141268.00939655417, -141384.23846772176, -141412.5804796911, 158817.92859052762, 163049.8290717398, -141488.3528933946, -141373.91196178342, -0.01, 0.918, 0.428, 192.0, 0.0, 0.0, 0.0, 0.0, 0.0, 0.0, 0.0, 0.0, 0.0, 1.7307447094759693E9, 0.0, 2024-11-04 15:25:09.475
123.0, -141213.64995403888, -141272.3456349785, -141388.5747061461, -141416.84966288207, 158784.28921512238, 163056.1322636762, -141492.71148356338, -141378.31525544112, -0.01, 0.918, 0.428, 192.0, 0.0, 0.0, 0.0, 0.0, 0.0, 0.0, 0.0, 0.0, 0.0, 1.7307447094799E9, 0.0, 2024-11-04 15:25:09.479
124.0, -141217.7850267631, -141276.57011468057, -141392.79918584815, -141421.11884607302, 158723.3583597372, 163029.82426045233, -141496.8018527987, -141382.76325258773, -0.01, 0.918, 0.428, 192.0, 0.0, 0.0, 0.0, 0.0, 0.0, 0.0, 0.0, 0.0, 0.0, 1.7307447094840248E9, 0.0, 2024-11-04 15:25:09.484
125.0, -141221.87539599842, -141280.5934286825, -141396.88955508347, -141425.32097403062, 158649.41878907906, 162989.79228613287, -141500.91457377846, -141387.27830496768, -0.01, 0.918, 0.428, 192.0, 0.0, 0.0, 0.0, 0.0, 0.0, 0.0, 0.0, 0.0, 0.0, 1.7307447094878888E9, 0.0, 2024-11-04 15:25:09.487
126.0, -141225.76459953364, -141284.3932252399, -141400.84581385207, -141429.29958454365, 158597.00394833137, 162974.59309990326, -141504.91553603596, -141391.48043292528, -0.01, 0.918, 0.428, 192.0, 0.0, 0.0, 0.0, 0.0, 0.0, 0.0, 0.0, 0.0, 0.0, 1.7307447094919682E9, 0.0, 2024-11-04 15:25:09.491
127.0, -141228.06682921253, -141286.6954549188, -141403.1256917865, -141431.42300026692, 158561.84465430316, 162978.10232378275, -141507.28482094823, -141393.76031085974, -0.02, 0.93, 0.406, 192.0, 255.0, 96.0, 29.0, 16.0, 12.0, 176.0, 0.0, 0.0, 0.0, 1.7307447094959743E9, 0.0, 2024-11-04 15:25:09.495
128.0, -141230.72668680272, -141289.4000159979, -141405.6737906544, -141434.19461657936, 158506.34527282065, 162958.09751249524, -141509.8999750495, -141396.62133415, -0.02, 0.93, 0.406, 192.0, 0.0, 0.0, 0.0, 0.0, 0.0, 0.0, 0.0, 0.0, 0.0, 1.7307447095009735E9, 0.0, 2024-11-04 15:25:09.500
129.0, -141233.63241358192, -141292.21633579925, -141408.55716568913, -141437.34621254756, 158428.80707130517, 162914.444555574, -141512.76099833977, -141399.99644756276, -0.02, 0.93, 0.406, 192.0, 0.0, 0.0, 0.0, 0.0, 0.0, 0.0, 0.0, 0.0, 0.0, 1.7307447095038707E9, 0.0, 2024-11-04 15:25:09.503
130.0, -141235.01822173814, -141293.57979221104, -141410.01002907872, -141438.7320207038, 158367.11625660854, 162888.65064247258, -141514.19150998493, -141401.60577316355, -0.02, 0.93, 0.406, 192.0, 0.0, 0.0, 0.0, 0.0, 0.0, 0.0, 0.0, 0.0, 0.0, 1.7307447095079377E9, 0.0, 2024-11-04 15:25:09.507
131.0, -141237.81218979505, -141296.5078707347, -141412.871052369, -141441.45893352735, 158331.68874164685, 162888.96356689496, -141517.11958850856, -141404.53385168719, -0.02, 0.93, 0.406, 192.0, 0.0, 0.0, 0.0, 0.0, 0.0, 0.0, 0.0, 0.0, 0.0, 1.7307447095119152E9, 0.0, 2024-11-04 15:25:09.511
132.0, -141243.08720148652, -141301.69347544832, -141418.0790088271, -141446.68924172988, 158286.42645912486, 162880.17933132403, -141522.32754496665, -141409.78651163419, -0.02, 0.93, 0.406, 192.0, 0.0, 0.0, 0.0, 0.0, 0.0, 0.0, 0.0, 0.0, 0.0, 1.7307447095161402E9, 0.0, 2024-11-04 15:25:09.516
133.0, -141247.51284688865, -141306.16382433937, -141422.6834681849, -141451.42781155443, 158200.1487255274, 162829.46322315495, -141526.84259734664, -141414.6815436699, -0.02, 0.93, 0.406, 192.0, 0.0, 0.0, 0.0, 0.0, 0.0, 0.0, 0.0, 0.0, 0.0, 1.7307447095199609E9, 0.0, 2024-11-04 15:25:09.519
134.0, -141250.4856289012, -141309.04719937412, -141425.65625019744, -141454.42294531144, 158123.23637285669, 162784.9161964555, -141529.83773110365, -141418.05665708263, -0.02, 0.93, 0.406, 192.0, 0.0, 0.0, 0.0, 0.0, 0.0, 0.0, 0.0, 0.0, 0.0, 1.7307447095240097E9, 0.0, 2024-11-04 15:25:09.524
135.0, -141253.81603882505, -141312.44466453133, -141429.00901186574, -141457.73100349083, 158079.22578802417, 162772.2651090938, -141533.19049277194, -141421.52117747322, -0.02, 0.93, 0.406, 192.0, 0.0, 0.0, 0.0, 0.0, 0.0, 0.0, 0.0, 0.0, 0.0, 1.7307447095289447E9, 0.0, 2024-11-04 15:25:09.528
136.0, -141258.15227724938, -141316.93736516684, -141433.389953779, -141462.11194540406, 158038.1432817153, 162764.5090537678, -141537.68319340746, -141426.01387810873, -0.02, 0.93, 0.406, 192.0, 0.0, 0.0, 0.0, 0.0, 0.0, 0.0, 0.0, 0.0, 0.0, 1.7307447095319533E9, 0.0, 2024-11-04 15:25:09.531
137.0, -141262.75673660717, -141321.43006580236, -141437.79324743667, -141466.67170127295, 157954.83833013038, 162715.42462294397, -141542.1535422985, -141430.90891014444, -0.02, 0.922, 0.386, 192.0, 255.0, 96.0, 28.0, 208.0, 12.0, 16.0, 0.0, 0.0, 0.0, 1.7307447095360084E9, 0.0, 2024-11-04 15:25:09.536
138.0, -141263.8966755744, -141322.59235651404, -141439.00024163726, -141467.7892884957, 157871.51102680102, 162662.5403955627, -141543.2487777768, -141432.4288287674, -0.02, 0.922, 0.386, 192.0, 0.0, 0.0, 0.0, 0.0, 0.0, 0.0, 0.0, 0.0, 0.0, 1.7307447095401635E9, 0.0, 2024-11-04 15:25:09.540
139.0, -141267.67412038735, -141326.43685656035, -141442.86709342804, -141471.61143679757, 157823.56653494437, 162643.27319184222, -141547.13798131206, -141436.49684625826, -0.02, 0.922, 0.386, 192.0, 0.0, 0.0, 0.0, 0.0, 0.0, 0.0, 0.0, 0.0, 0.0, 1.7307447095440428E9, 0.0, 2024-11-04 15:25:09.544
140.0, -141271.16099252237, -141329.8119699731, -141446.37631730753, -141475.1877159104, 157788.4519444051, 162638.2440493398, -141550.7142604249, -141440.02842188222, -0.02, 0.922, 0.386, 192.0, 0.0, 0.0, 0.0, 0.0, 0.0, 0.0, 0.0, 0.0, 0.0, 1.7307447095480676E9, 0.0, 2024-11-04 15:25:09.548
141.0, -141274.87138210196, -141333.52235955268, -141450.15376212046, -141478.9875124678, 157713.21597256852, 162595.26164475223, -141554.44700174892, -141444.09643937307, -0.02, 0.922, 0.386, 192.0, 0.0, 0.0, 0.0, 0.0, 0.0, 0.0, 0.0, 0.0, 0.0, 1.7307447095520775E9, 0.0, 2024-11-04 15:25:09.552
142.0, -141277.3971292254, -141336.1598653984, -141452.67950924393, -141481.4462043579, 157630.78273901733, 162541.34923712604, -141556.8609901501, -141446.95746266335, -0.02, 0.922, 0.386, 192.0, 0.0, 0.0, 0.0, 0.0, 0.0, 0.0, 0.0, 0.0, 0.0, 1.7307447095570347E9, 0.0, 2024-11-04 15:25:09.557
143.0, -141280.0569868156, -141338.73031601077, -141455.27231160074, -141484.01665497027, 157592.96358739896, 162517.72344323678, -141559.43144076248, -141449.61732025354, -0.02, 0.922, 0.386, 192.0, 0.0, 0.0, 0.0, 0.0, 0.0, 0.0, 0.0, 0.0, 0.0, 1.730744709560055E9, 0.0, 2024-11-04 15:25:09.560
144.0, -141283.7003211618, -141342.3065951236, -141458.9379976914, -141487.7046928054, 157600.16084911357, 162530.44158583184, -141563.0747751087, -141453.19359936638, -0.02, 0.922, 0.386, 192.0, 0.0, 0.0, 0.0, 0.0, 0.0, 0.0, 0.0, 0.0, 0.0, 1.7307447095640967E9, 0.0, 2024-11-04 15:25:09.564
145.0, -141288.41653924185, -141347.04516494813, -141463.631864027, -141492.398559141, 157570.0530493323, 162523.40078632842, -141567.8133449332, -141458.02157616874, -0.02, 0.922, 0.386, 192.0, 0.0, 0.0, 0.0, 0.0, 0.0, 0.0, 0.0, 0.0, 0.0, 1.730744709568107E9, 0.0, 2024-11-04 15:25:09.568
146.0, -141289.4447194868, -141348.05099344862, -141464.6823960164, -141493.51614636375, 157514.9783509944, 162496.9586726378, -141568.84152517814, -141459.31797734715, -0.02, 0.922, 0.386, 192.0, 0.0, 0.0, 0.0, 0.0, 0.0, 0.0, 0.0, 0.0, 0.0, 1.7307447095721107E9, 0.0, 2024-11-04 15:25:09.572
147.0, -141294.22799280024, -141352.9683772288, -141469.5327245632, -141498.38882665502, 157476.77921972028, 162496.93632089335, -141573.80361244723, -141464.34711984958, -0.016, 0.9400000000000001, 0.372, 192.0, 255.0, 128.0, 29.0, 96.0, 11.0, 160.0, 0.0, 0.0, 0.0, 1.7307447095759933E9, 0.0, 2024-11-04 15:25:09.575
148.0, -141296.7984434126, -141355.53882784114, -141472.0361199422, -141500.82516680064, 157450.40416126302, 162513.23074260127, -141576.39641480404, -141466.6940530174, -0.016, 0.9400000000000001, 0.372, 192.0, 0.0, 0.0, 0.0, 0.0, 0.0, 0.0, 0.0, 0.0, 0.0, 1.7307447095810905E9, 0.0, 2024-11-04 15:25:09.581
149.0, -141299.59241146952, -141358.28809240914, -141474.87479148802, -141503.7085418354, 157406.25946596378, 162499.5067715057, -141579.23508634986, -141469.6444832855, -0.016, 0.9400000000000001, 0.372, 192.0, 0.0, 0.0, 0.0, 0.0, 0.0, 0.0, 0.0, 0.0, 0.0, 1.7307447095841415E9, 0.0, 2024-11-04 15:25:09.584
150.0, -141302.67695220435, -141361.3279296551, -141477.91462873397, -141506.79308257022, 157345.50742453427, 162462.4028757099, -141582.27492359577, -141472.95254146488, -0.016, 0.9400000000000001, 0.372, 192.0, 0.0, 0.0, 0.0, 0.0, 0.0, 0.0, 0.0, 0.0, 0.0, 1.7307447095871167E9, 0.0, 2024-11-04 15:25:09.587
151.0, -141306.47674876175, -141365.2171331903, -141481.78148052472, -141510.68228610544, 157299.01579606722, 162449.2376982257, -141586.14177538655, -141476.95350372238, -0.016, 0.9400000000000001, 0.372, 192.0, 0.0, 0.0, 0.0, 0.0, 0.0, 0.0, 0.0, 0.0, 0.0, 1.730744709592107E9, 0.0, 2024-11-04 15:25:09.592
152.0, -141311.28237381965, -141370.0227582482, -141486.654160816, -141515.42085592996, 157271.5231503872, 162462.58168966553, -141591.01445567783, -141481.75912878028, -0.016, 0.9400000000000001, 0.372, 192.0, 0.0, 0.0, 0.0, 0.0, 0.0, 0.0, 0.0, 0.0, 0.0, 1.730744709596104E9, 0.0, 2024-11-04 15:25:09.596
153.0, -141314.2551558322, -141372.88378153846, -141489.53753585072, -141518.25952747578, 157231.4688243233, 162453.66334362785, -141593.98723769037, -141484.77661428173, -0.016, 0.9400000000000001, 0.372, 192.0, 0.0, 0.0, 0.0, 0.0, 0.0, 0.0, 0.0, 0.0, 0.0, 1.730744709600042E9, 0.0, 2024-11-04 15:25:09.600
154.0, -141318.43493204535, -141377.15296472944, -141493.78436729722, -141522.59576590013, 157171.6555561609, 162415.10658444246, -141598.23406913687, -141489.22461142833, -0.016, 0.9400000000000001, 0.372, 192.0, 0.0, 0.0, 0.0, 0.0, 0.0, 0.0, 0.0, 0.0, 0.0, 1.7307447096039946E9, 0.0, 2024-11-04 15:25:09.603
155.0, -141320.4018855574, -141379.11991824151, -141495.7513208093, -141524.58507115665, 157120.1347851914, 162393.20187487625, -141600.20102264895, -141491.3480271516, -0.016, 0.9400000000000001, 0.372, 192.0, 0.0, 0.0, 0.0, 0.0, 0.0, 0.0, 0.0, 0.0, 0.0, 1.7307447096081407E9, 0.0, 2024-11-04 15:25:09.608
156.0, -141327.1521123829, -141385.84779332255, -141502.4568441459, -141531.29059449324, 157092.99976742265, 162404.44480233727, -141607.0183047078, -141498.03119874373, -0.016, 0.9400000000000001, 0.372, 192.0, 0.0, 0.0, 0.0, 0.0, 0.0, 0.0, 0.0, 0.0, 0.0, 1.7307447096120424E9, 0.0, 2024-11-04 15:25:09.612
157.0, -141331.22012987378, -141389.98286604678, -141506.52486163675, -141535.42566721747, 157059.94153737326, 162403.39427034787, -141611.24278440987, -141502.16627146796, 0.006, 0.96, 0.358, 192.0, 0.0, 48.0, 30.0, 0.0, 11.0, 48.0, 0.0, 0.0, 0.0, 1.7307447096151266E9, 0.0, 2024-11-04 15:25:09.615
158.0, -141332.114199652, -141390.78752884717, -141507.48598664833, -141536.23033001786, 156999.4130133883, 162363.0270198616, -141612.09215069917, -141503.32856217964, 0.006, 0.96, 0.358, 192.0, 0.0, 0.0, 0.0, 0.0, 0.0, 0.0, 0.0, 0.0, 0.0, 1.7307447096200082E9, 0.0, 2024-11-04 15:25:09.620
159.0, -141333.87998746397, -141392.59802014806, -141509.2517744603, -141538.13022829656, 156945.8358819289, 162336.33903698195, -141613.85793851112, -141505.29551569172, 0.006, 0.96, 0.358, 192.0, 0.0, 0.0, 0.0, 0.0, 0.0, 0.0, 0.0, 0.0, 0.0, 1.7307447096241293E9, 0.0, 2024-11-04 15:25:09.624
160.0, -141337.5009700657, -141396.1742992609, -141512.73864659533, -141541.68415566496, 156913.58231467992, 162341.79286262905, -141617.434217624, -141508.87179480455, 0.006, 0.96, 0.358, 192.0, 0.0, 0.0, 0.0, 0.0, 0.0, 0.0, 0.0, 0.0, 0.0, 1.7307447096280391E9, 0.0, 2024-11-04 15:25:09.628
161.0, -141343.7594585132, -141402.4774911973, -141519.06419027617, -141547.9649958569, 156887.11784924482, 162350.33122901098, -141623.80446479373, -141515.17498674095, 0.006, 0.96, 0.358, 192.0, 0.0, 0.0, 0.0, 0.0, 0.0, 0.0, 0.0, 0.0, 0.0, 1.7307447096320288E9, 0.0, 2024-11-04 15:25:09.632
162.0, -141346.15109516992, -141404.84677610957, -141521.52288216626, -141550.4013360025, 156831.95374392913, 162315.8648390609, -141626.173749706, -141517.74543735333, 0.006, 0.96, 0.358, 192.0, 0.0, 0.0, 0.0, 0.0, 0.0, 0.0, 0.0, 0.0, 0.0, 1.7307447096361644E9, 0.0, 2024-11-04 15:25:09.636
163.0, -141346.77694401468, -141405.4279214654, -141522.14873101102, -141551.07188833618, 156775.26971999047, 162284.08065844545, -141626.84430203968, -141518.52774840925, 0.006, 0.96, 0.358, 192.0, 0.0, 0.0, 0.0, 0.0, 0.0, 0.0, 0.0, 0.0, 0.0, 1.730744709640154E9, 0.0, 2024-11-04 15:25:09.640
164.0, -141349.95089172732, -141408.5348139447, -141525.27797523476, -141554.22348430438, 156739.86455677327, 162285.26530090158, -141629.9735462634, -141521.61228914408, 0.006, 0.96, 0.358, 192.0, 0.0, 0.0, 0.0, 0.0, 0.0, 0.0, 0.0, 0.0, 0.0, 1.7307447096432996E9, 0.0, 2024-11-04 15:25:09.643
165.0, -141354.3765371295, -141413.0275145802, -141529.7483241258, -141558.671481451, 156714.85295472777, 162297.53640860756, -141634.55565387674, -141526.03793454624, 0.006, 0.96, 0.358, 192.0, 0.0, 0.0, 0.0, 0.0, 0.0, 0.0, 0.0, 0.0, 0.0, 1.730744709647215E9, 0.0, 2024-11-04 15:25:09.647
166.0, -141358.39985113143, -141417.1849390489, -141533.8610451056, -141562.78420243075, 156666.0367448374, 162270.93783270573, -141638.66837485653, -141530.3071177372, 0.006, 0.96, 0.358, 192.0, 0.0, 0.0, 0.0, 0.0, 0.0, 0.0, 0.0, 0.0, 0.0, 1.7307447096522708E9, 0.0, 2024-11-04 15:25:09.652
167.0, -141360.50091511023, -141419.30835477213, -141535.98446082885, -141564.75115594282, 156609.3750726432, 162237.43256776722, -141640.70238360195, -141532.56464392718, 0.006, 0.96, 0.356, 192.0, 0.0, 48.0, 30.0, 0.0, 11.0, 32.0, 0.0, 0.0, 0.0, 1.730744709656204E9, 0.0, 2024-11-04 15:25:09.656
168.0, -141364.8148017901, -141423.66694494092, -141540.38775448655, -141569.08739436715, 156572.8076187143, 162235.7338351886, -141645.15038074856, -141536.99028932935, 0.006, 0.96, 0.356, 192.0, 0.0, 0.0, 0.0, 0.0, 0.0, 0.0, 0.0, 0.0, 0.0, 1.7307447096600916E9, 0.0, 2024-11-04 15:25:09.660
169.0, -141369.75453731473, -141428.56197697663, -141545.4616004779, -141574.1165368696, 156549.8970806476, 162250.82126269594, -141650.17952325102, -141541.9076731095, 0.006, 0.96, 0.356, 192.0, 0.0, 0.0, 0.0, 0.0, 0.0, 0.0, 0.0, 0.0, 0.0, 1.730744709664135E9, 0.0, 2024-11-04 15:25:09.664
170.0, -141374.76132807272, -141433.52406424572, -141550.37898425807, -141579.10097588314, 156506.42293768204, 162231.82227990893, -141655.16396226455, -141546.98151910087, 0.006, 0.96, 0.356, 192.0, 0.0, 0.0, 0.0, 0.0, 0.0, 0.0, 0.0, 0.0, 0.0, 1.7307447096682305E9, 0.0, 2024-11-04 15:25:09.668
171.0, -141377.64470310745, -141436.29568055816, -141553.1058970816, -141581.96199917342, 156449.5824515322, 162199.83693359338, -141657.91322683255, -141549.97665285788, 0.006, 0.96, 0.356, 192.0, 0.0, 0.0, 0.0, 0.0, 0.0, 0.0, 0.0, 0.0, 0.0, 1.7307447096711223E9, 0.0, 2024-11-04 15:25:09.671
172.0, -141380.88570605346, -141439.62609048202, -141556.48101049438, -141585.42651956397, 156408.90227662353, 162193.9360730572, -141661.31069198975, -141553.44117324843, 0.006, 0.96, 0.356, 192.0, 0.0, 0.0, 0.0, 0.0, 0.0, 0.0, 0.0, 0.0, 0.0, 1.7307447096751387E9, 0.0, 2024-11-04 15:25:09.675
173.0, -141385.91484855593, -141444.72228821783, -141561.59955997462, -141590.50036555534, 156384.7176891229, 162206.78832611899, -141666.45159321447, -141558.33620528414, 0.006, 0.96, 0.356, 192.0, 0.0, 0.0, 0.0, 0.0, 0.0, 0.0, 0.0, 0.0, 0.0, 1.7307447096802812E9, 0.0, 2024-11-04 15:25:09.680
174.0, -141389.13349975747, -141447.80682895266, -141564.70645245392, -141593.62960977908, 156342.47289210235, 162189.57748288842, -141669.62554092714, -141561.64426346353, 0.006, 0.96, 0.356, 192.0, 0.0, 0.0, 0.0, 0.0, 0.0, 0.0, 0.0, 0.0, 0.0, 1.7307447096843765E9, 0.0, 2024-11-04 15:25:09.684
175.0, -141392.70977887034, -141451.45016329887, -141568.2603798223, -141597.1164819141, 156283.888969885, 162153.88174699328, -141673.20182003998, -141565.3770047876, 0.006, 0.96, 0.356, 192.0, 0.0, 0.0, 0.0, 0.0, 0.0, 0.0, 0.0, 0.0, 0.0, 1.7307447096882298E9, 0.0, 2024-11-04 15:25:09.688
176.0, -141397.2695347392, -141456.00991916776, -141572.79778394673, -141601.58683080517, 156239.118425741, 162142.4153020877, -141677.7839276533, -141570.00381588982, 0.006, 0.96, 0.356, 192.0, 0.0, 0.0, 0.0, 0.0, 0.0, 0.0, 0.0, 0.0, 0.0, 1.7307447096911843E9, 0.0, 2024-11-04 15:25:09.691
177.0, -141400.6669998964, -141459.47443955834, -141576.30700782622, -141605.09605468466, 156210.10586143803, 162150.8642614918, -141681.36020676617, -141573.4683362804, 0.02, 0.9520000000000001, 0.362, 192.0, 0.0, 160.0, 29.0, 192.0, 11.0, 80.0, 0.0, 0.0, 0.0, 1.730744709695186E9, 0.0, 2024-11-04 15:25:09.695
178.0, -141402.74571213077, -141461.55315179267, -141578.45277529393, -141607.2194704079, 156169.62685222947, 162137.74378749655, -141683.3942155116, -141575.52469677027, 0.02, 0.9520000000000001, 0.362, 192.0, 0.0, 0.0, 0.0, 0.0, 0.0, 0.0, 0.0, 0.0, 0.0, 1.7307447096991322E9, 0.0, 2024-11-04 15:25:09.699
179.0, -141406.4337499659, -141465.19648613888, -141581.98435091786, -141610.8628047541, 156109.7912323226, 162099.83522890034, -141686.9928463689, -141579.41390030552, 0.02, 0.9520000000000001, 0.362, 192.0, 0.0, 0.0, 0.0, 0.0, 0.0, 0.0, 0.0, 0.0, 0.0, 1.7307447097032957E9, 0.0, 2024-11-04 15:25:09.703
180.0, -141409.56299418962, -141468.2363233848, -141585.15829863053, -141614.03675246678, 156059.41040032034, 162081.0597635579, -141690.2338493149, -141582.81136546272, 0.02, 0.9520000000000001, 0.362, 192.0, 0.0, 0.0, 0.0, 0.0, 0.0, 0.0, 0.0, 0.0, 0.0, 1.730744709708261E9, 0.0, 2024-11-04 15:25:09.708
181.0, -141413.36279074702, -141472.0361199422, -141588.89103995456, -141617.7694937908, 156027.60386796045, 162087.2064932831, -141693.9889423834, -141586.52175504228, 0.02, 0.9520000000000001, 0.362, 192.0, 0.0, 0.0, 0.0, 0.0, 0.0, 0.0, 0.0, 0.0, 0.0, 1.7307447097123013E9, 0.0, 2024-11-04 15:25:09.712
182.0, -141418.0790088271, -141476.70763453338, -141593.62960977908, -141622.5304153598, 155993.6292163884, 162083.07142055887, -141698.63810523011, -141591.21562137792, 0.02, 0.9520000000000001, 0.362, 192.0, 0.0, 0.0, 0.0, 0.0, 0.0, 0.0, 0.0, 0.0, 0.0, 1.730744709716286E9, 0.0, 2024-11-04 15:25:09.716
183.0, -141421.05179083964, -141479.72512003483, -141596.669447025, -141625.50319737234, 155934.307686604, 162045.31932417385, -141701.7449977094, -141594.43427257947, 0.02, 0.9520000000000001, 0.362, 192.0, 0.0, 0.0, 0.0, 0.0, 0.0, 0.0, 0.0, 0.0, 0.0, 1.7307447097191744E9, 0.0, 2024-11-04 15:25:09.719
184.0, -141424.27044204122, -141483.01082646978, -141599.99985694885, -141628.8336072962, 155881.26699701155, 162022.16291691817, -141705.12011112215, -141597.80938599224, 0.02, 0.9520000000000001, 0.362, 192.0, 0.0, 0.0, 0.0, 0.0, 0.0, 0.0, 0.0, 0.0, 0.0, 1.7307447097232077E9, 0.0, 2024-11-04 15:25:09.723
185.0, -141429.29958454365, -141488.0399689722, -141604.98429596238, -141633.8403980542, 155848.45463615117, 162026.1862309201, -141710.1492536246, -141602.8161767502, 0.02, 0.9520000000000001, 0.362, 192.0, 0.0, 0.0, 0.0, 0.0, 0.0, 0.0, 0.0, 0.0, 0.0, 1.7307447097272203E9, 0.0, 2024-11-04 15:25:09.727
186.0, -141432.11590434503, -141490.8562887736, -141607.7782640193, -141636.54495913326, 155816.08931017987, 162025.62743730872, -141712.94322168152, -141605.54308957377, 0.02, 0.9520000000000001, 0.362, 192.0, 0.0, 0.0, 0.0, 0.0, 0.0, 0.0, 0.0, 0.0, 0.0, 1.730744709731138E9, 0.0, 2024-11-04 15:25:09.731
187.0, -141433.97109913483, -141492.7561870523, -141609.74521753137, -141638.4895609009, 155757.97477459608, 161989.32820431332, -141714.91017519357, -141607.7782640193, 0.02, 0.9420000000000001, 0.374, 192.0, 0.0, 160.0, 29.0, 112.0, 11.0, 176.0, 0.0, 0.0, 0.0, 1.730744709735162E9, 0.0, 2024-11-04 15:25:09.735
188.0, -141436.45214276935, -141495.1925271979, -141612.2262611659, -141641.10471500215, 155701.6930820576, 161960.49445396598, -141717.36886708366, -141610.5275285873, 0.02, 0.9420000000000001, 0.374, 192.0, 0.0, 0.0, 0.0, 0.0, 0.0, 0.0, 0.0, 0.0, 0.0, 1.7307447097401903E9, 0.0, 2024-11-04 15:25:09.740
189.0, -141440.1401806045, -141498.81350979966, -141615.89194725658, -141644.72569760392, 155665.68442174012, 161959.51097720992, -141721.05690491878, -141614.19321467797, 0.02, 0.9420000000000001, 0.374, 192.0, 0.0, 0.0, 0.0, 0.0, 0.0, 0.0, 0.0, 0.0, 0.0, 1.7307447097442887E9, 0.0, 2024-11-04 15:25:09.744
190.0, -141443.82821843962, -141502.56860286815, -141619.71409555842, -141648.50314241686, 155637.8341481488, 161964.96480285702, -141724.9014049651, -141617.83654902418, 0.02, 0.9420000000000001, 0.374, 192.0, 0.0, 0.0, 0.0, 0.0, 0.0, 0.0, 0.0, 0.0, 0.0, 1.7307447097473662E9, 0.0, 2024-11-04 15:25:09.747
191.0, -141447.58331150812, -141506.27899244774, -141623.3797816491, -141652.25823548535, 155584.5252376229, 161935.43814843157, -141728.61179454467, -141621.81515953722, 0.02, 0.9420000000000001, 0.374, 192.0, 0.0, 0.0, 0.0, 0.0, 0.0, 0.0, 0.0, 0.0, 0.0, 1.730744709751232E9, 0.0, 2024-11-04 15:25:09.751
192.0, -141451.83014295463, -141510.54817563872, -141627.51485437332, -141656.34860472067, 155527.6623997286, 161904.39157538314, -141732.74686726893, -141626.21845319492, 0.02, 0.9420000000000001, 0.374, 192.0, 0.0, 0.0, 0.0, 0.0, 0.0, 0.0, 0.0, 0.0, 0.0, 1.7307447097552204E9, 0.0, 2024-11-04 15:25:09.755
193.0, -141455.09349764508, -141513.74447509582, -141630.8229125527, -141659.6343111556, 155487.7868876203, 161898.64717705813, -141735.96551847048, -141629.3253456742, 0.02, 0.9420000000000001, 0.374, 192.0, 0.0, 0.0, 0.0, 0.0, 0.0, 0.0, 0.0, 0.0, 0.0, 1.7307447097591977E9, 0.0, 2024-11-04 15:25:09.759
194.0, -141458.35685233556, -141517.03018153075, -141634.19802596545, -141663.00942456836, 155460.38364891813, 161906.2244184285, -141739.31828013877, -141632.72281083142, 0.02, 0.9420000000000001, 0.374, 192.0, 0.0, 0.0, 0.0, 0.0, 0.0, 0.0, 0.0, 0.0, 0.0, 1.7307447097642014E9, 0.0, 2024-11-04 15:25:09.764
195.0, -141460.30145410317, -141519.01948678726, -141636.05322075525, -141664.97637808044, 155412.1262326391, 161881.5480925498, -141741.26288190638, -141634.80152306575, 0.02, 0.9420000000000001, 0.374, 192.0, 0.0, 0.0, 0.0, 0.0, 0.0, 0.0, 0.0, 0.0, 0.0, 1.7307447097682085E9, 0.0, 2024-11-04 15:25:09.768
196.0, -141461.91077970396, -141520.67351587696, -141637.75195333385, -141666.60805542566, 155352.424723199, 161845.6064874657, -141742.93926274055, -141636.6790696, 0.02, 0.9420000000000001, 0.374, 192.0, 0.0, 0.0, 0.0, 0.0, 0.0, 0.0, 0.0, 0.0, 0.0, 1.7307447097722166E9, 0.0, 2024-11-04 15:25:09.772
197.0, -141465.21883788335, -141523.89216707853, -141641.0376597688, -141669.87141011615, 155310.04581571172, 161836.19640305, -141746.4037831311, -141640.09888650166, 0.014, 0.9380000000000001, 0.376, 192.0, 0.0, 112.0, 29.0, 80.0, 11.0, 192.0, 0.0, 0.0, 0.0, 1.7307447097752748E9, 0.0, 2024-11-04 15:25:09.775
198.0, -141470.31503561916, -141528.92130958097, -141646.17856099352, -141675.01231134086, 155284.92245494397, 161846.9028886441, -141751.4999808669, -141645.15038074856, 0.014, 0.9380000000000001, 0.376, 192.0, 0.0, 0.0, 0.0, 0.0, 0.0, 0.0, 0.0, 0.0, 0.0, 1.7307447097791803E9, 0.0, 2024-11-04 15:25:09.779
199.0, -141474.71832927686, -141533.39165847204, -141650.58185465122, -141679.46030848747, 155245.22575679133, 161832.08368207022, -141755.8585710357, -141649.53132266182, 0.014, 0.9380000000000001, 0.376, 192.0, 0.0, 0.0, 0.0, 0.0, 0.0, 0.0, 0.0, 0.0, 0.0, 1.7307447097833652E9, 0.0, 2024-11-04 15:25:09.783
200.0, -141478.07109094516, -141536.8114753737, -141653.97931980842, -141682.81307015577, 155187.91588400793, 161796.29853919728, -141759.1666292151, -141653.12995351912, 0.014, 0.9380000000000001, 0.376, 192.0, 0.0, 0.0, 0.0, 0.0, 0.0, 0.0, 0.0, 0.0, 0.0, 1.7307447097871976E9, 0.0, 2024-11-04 15:25:09.787
201.0, -141480.82035551316, -141539.58309168616, -141656.68388088752, -141685.60703821268, 155142.54184276366, 161781.99342274587, -141761.960597272, -141655.92392157603, 0.014, 0.9380000000000001, 0.376, 192.0, 0.0, 0.0, 0.0, 0.0, 0.0, 0.0, 0.0, 0.0, 0.0, 1.7307447097912638E9, 0.0, 2024-11-04 15:25:09.791
202.0, -141483.05552995868, -141542.01943183178, -141659.14257277758, -141688.06573010277, 155114.13277556095, 161789.99534726088, -141764.4192891621, -141658.33790997718, 0.014, 0.9380000000000001, 0.376, 192.0, 0.0, 0.0, 0.0, 0.0, 0.0, 0.0, 0.0, 0.0, 0.0, 1.7307447097962196E9, 0.0, 2024-11-04 15:25:09.796
203.0, -141488.2411346723, -141547.09327782312, -141664.21641876895, -141693.20663132748, 155080.82867632256, 161784.1391902136, -141769.44843166452, -141663.434107713, 0.014, 0.9380000000000001, 0.376, 192.0, 0.0, 0.0, 0.0, 0.0, 0.0, 0.0, 0.0, 0.0, 0.0, 1.7307447097994332E9, 0.0, 2024-11-04 15:25:09.799
204.0, -141490.81158528468, -141549.57432145768, -141666.69746240348, -141695.62061972864, 155023.0941203945, 161744.9789339279, -141771.99653053243, -141666.11631704765, 0.014, 0.9380000000000001, 0.376, 192.0, 0.0, 0.0, 0.0, 0.0, 0.0, 0.0, 0.0, 0.0, 0.0, 1.7307447098032768E9, 0.0, 2024-11-04 15:25:09.803
205.0, -141492.4432626299, -141551.29540578072, -141668.50795370436, -141697.31935230724, 154973.54030293706, 161721.75547143884, -141773.8740770667, -141668.0385670708, 0.014, 0.9380000000000001, 0.376, 192.0, 0.0, 0.0, 0.0, 0.0, 0.0, 0.0, 0.0, 0.0, 0.0, 1.730744709807423E9, 0.0, 2024-11-04 15:25:09.807
206.0, -141498.58999235512, -141557.35272852812, -141674.60997994067, -141703.3543233102, 154947.50052064666, 161731.70199772145, -141779.99845504743, -141674.1405933071, 0.014, 0.9380000000000001, 0.376, 192.0, 0.0, 0.0, 0.0, 0.0, 0.0, 0.0, 0.0, 0.0, 0.0, 1.7307447098113632E9, 0.0, 2024-11-04 15:25:09.811
207.0, -141502.5462511237, -141561.24193206333, -141678.47683173142, -141707.26587858985, 154919.02439821057, 161735.01005590084, -141783.8653068382, -141677.96274160896, 0.014, 0.9380000000000001, 0.384, 192.0, 0.0, 112.0, 29.0, 80.0, 12.0, 0.0, 0.0, 0.0, 0.0, 1.7307447098153346E9, 0.0, 2024-11-04 15:25:09.815
208.0, -141504.33439068013, -141563.03007161978, -141680.26497128786, -141709.0987216352, 154864.21792080617, 161699.60489268362, -141785.69814988354, -141679.8402881432, 0.014, 0.9380000000000001, 0.384, 192.0, 0.0, 0.0, 0.0, 0.0, 0.0, 0.0, 0.0, 0.0, 0.0, 1.7307447098193977E9, 0.0, 2024-11-04 15:25:09.819
209.0, -141509.83291981614, -141568.6180077336, -141685.7858521683, -141714.68665774903, 154816.63105686082, 161676.403781939, -141791.21903076398, -141685.62938995712, 0.014, 0.9380000000000001, 0.384, 192.0, 0.0, 0.0, 0.0, 0.0, 0.0, 0.0, 0.0, 0.0, 0.0, 1.7307447098243587E9, 0.0, 2024-11-04 15:25:09.824
210.0, -141515.42085592996, -141574.20594384742, -141691.37378828213, -141720.27459386285, 154787.70789953566, 161682.19288375293, -141796.94107734456, -141691.1949743265, 0.014, 0.9380000000000001, 0.384, 192.0, 0.0, 0.0, 0.0, 0.0, 0.0, 0.0, 0.0, 0.0, 0.0, 1.730744709827299E9, 0.0, 2024-11-04 15:25:09.827
211.0, -141518.59480364263, -141577.33518807116, -141694.5477359948, -141723.47089331996, 154761.86928294532, 161690.1724565235, -141800.1150250572, -141694.27951506132, 0.014, 0.9380000000000001, 0.384, 192.0, 0.0, 0.0, 0.0, 0.0, 0.0, 0.0, 0.0, 0.0, 0.0, 1.7307447098314052E9, 0.0, 2024-11-04 15:25:09.831
212.0, -141521.27701297725, -141580.12915612807, -141697.2522970739, -141726.19780614352, 154711.26493349852, 161659.77408406427, -141802.79723439185, -141697.11818660714, 0.014, 0.9380000000000001, 0.384, 192.0, 0.0, 0.0, 0.0, 0.0, 0.0, 0.0, 0.0, 0.0, 0.0, 1.7307447098354027E9, 0.0, 2024-11-04 15:25:09.835
213.0, -141525.00975430128, -141583.81719396322, -141700.98503839792, -141729.86349223417, 154659.5429968289, 161630.3591883611, -141806.4629204825, -141700.940334909, 0.014, 0.9380000000000001, 0.384, 192.0, 0.0, 0.0, 0.0, 0.0, 0.0, 0.0, 0.0, 0.0, 0.0, 1.7307447098394089E9, 0.0, 2024-11-04 15:25:09.839
214.0, -141528.36251596958, -141587.19230737595, -141704.4495587885, -141733.32801262476, 154625.52364176794, 161629.33100811613, -141809.92744087309, -141704.38250355513, 0.014, 0.9380000000000001, 0.384, 192.0, 0.0, 0.0, 0.0, 0.0, 0.0, 0.0, 0.0, 0.0, 0.0, 1.7307447098434093E9, 0.0, 2024-11-04 15:25:09.843
215.0, -141532.09525729364, -141590.90269695554, -141708.204651857, -141737.1501609266, 154602.25547578998, 161641.64681931102, -141813.7272374305, -141708.02583790134, 0.014, 0.9380000000000001, 0.384, 192.0, 0.0, 0.0, 0.0, 0.0, 0.0, 0.0, 0.0, 0.0, 0.0, 1.73074470984737E9, 0.0, 2024-11-04 15:25:09.847
216.0, -141534.97863232836, -141593.78607199027, -141711.08802689172, -141740.03353596135, 154555.9426612786, 161617.7975079772, -141816.54355723187, -141711.02097165835, 0.014, 0.9380000000000001, 0.384, 192.0, 0.0, 0.0, 0.0, 0.0, 0.0, 0.0, 0.0, 0.0, 0.0, 1.7307447098523324E9, 0.0, 2024-11-04 15:25:09.852
217.0, -141537.41497247398, -141596.2224121359, -141713.56907052625, -141742.4028208736, 154500.97972166297, 161583.6887459384, -141818.95754563302, -141713.59142227072, 0.016, 0.9420000000000001, 0.384, 192.0, 0.0, 128.0, 29.0, 112.0, 12.0, 0.0, 0.0, 0.0, 0.0, 1.73074470985535E9, 0.0, 2024-11-04 15:25:09.855
218.0, -141540.54421669772, -141599.39635984856, -141716.78772172783, -141745.66617556408, 154463.6076049337, 161577.20674004636, -141822.19854857906, -141716.8994804501, 0.016, 0.9420000000000001, 0.384, 192.0, 0.0, 0.0, 0.0, 0.0, 0.0, 0.0, 0.0, 0.0, 0.0, 1.730744709859423E9, 0.0, 2024-11-04 15:25:09.859
219.0, -141544.2546062773, -141603.10674942815, -141720.45340781848, -141749.37656514367, 154441.03234303385, 161590.72954544183, -141826.04304862538, -141720.52046305186, 0.016, 0.9420000000000001, 0.384, 192.0, 0.0, 0.0, 0.0, 0.0, 0.0, 0.0, 0.0, 0.0, 0.0, 1.7307447098635025E9, 0.0, 2024-11-04 15:25:09.863
220.0, -141546.4674289784, -141605.20781340695, -141722.50976830837, -141751.3658704002, 154398.67578729102, 161572.9375568554, -141828.21116783752, -141722.62152703066, 0.016, 0.9420000000000001, 0.384, 192.0, 0.0, 0.0, 0.0, 0.0, 0.0, 0.0, 0.0, 0.0, 0.0, 1.730744709867638E9, 0.0, 2024-11-04 15:25:09.867
221.0, -141549.48491447986, -141608.2700023973, -141725.54960555432, -141754.47276287948, 154343.35521976414, 161536.884193049, -141831.228653339, -141725.9519369545, 0.016, 0.9420000000000001, 0.384, 192.0, 0.0, 0.0, 0.0, 0.0, 0.0, 0.0, 0.0, 0.0, 0.0, 1.730744709871503E9, 0.0, 2024-11-04 15:25:09.871
222.0, -141552.99413835933, -141611.75687453232, -141729.05882943378, -141757.98198675897, 154303.01032102233, 161525.4177481434, -141834.76022896293, -141729.48351257844, 0.016, 0.9420000000000001, 0.384, 192.0, 0.0, 0.0, 0.0, 0.0, 0.0, 0.0, 0.0, 0.0, 0.0, 1.7307447098754966E9, 0.0, 2024-11-04 15:25:09.875
223.0, -141558.00092911732, -141616.76366529032, -141734.11032368068, -141763.03348100584, 154281.6644050675, 161540.0804925061, -141839.81172320983, -141734.46795159197, 0.016, 0.9420000000000001, 0.384, 192.0, 0.0, 0.0, 0.0, 0.0, 0.0, 0.0, 0.0, 0.0, 0.0, 1.7307447098805618E9, 0.0, 2024-11-04 15:25:09.880
224.0, -141559.25262680682, -141618.10476995763, -141735.451428348, -141764.3075304398, 154243.28645983775, 161529.374006912, -141841.1304761327, -141735.78670451485, 0.016, 0.9420000000000001, 0.384, 192.0, 0.0, 0.0, 0.0, 0.0, 0.0, 0.0, 0.0, 0.0, 0.0, 1.7307447098833675E9, 0.0, 2024-11-04 15:25:09.883
225.0, -141561.55485648572, -141620.40699963653, -141737.73130628245, -141766.6544636076, 154184.635482387, 161491.24193087124, -141843.4774093005, -141738.26774814937, 0.016, 0.9420000000000001, 0.384, 192.0, 0.0, 0.0, 0.0, 0.0, 0.0, 0.0, 0.0, 0.0, 0.0, 1.7307447098864653E9, 0.0, 2024-11-04 15:25:09.886
226.0, -141564.92996989845, -141623.80446479373, -141741.1511231841, -141769.962521787, 154140.1331591765, 161473.44994228482, -141846.80781922434, -141741.82167551777, 0.016, 0.9420000000000001, 0.384, 192.0, 0.0, 0.0, 0.0, 0.0, 0.0, 0.0, 0.0, 0.0, 0.0, 1.730744709891569E9, 0.0, 2024-11-04 15:25:09.891
227.0, -141568.88622866705, -141627.69366832898, -141745.08503020825, -141773.85172532222, 154123.39170257948, 161485.09520114603, -141850.7864297374, -141745.66617556408, 0.022, 0.932, 0.37, 192.0, 0.0, 176.0, 29.0, 32.0, 11.0, 144.0, 0.0, 0.0, 0.0, 1.7307447098954663E9, 0.0, 2024-11-04 15:25:09.895
228.0, -141571.926065913, -141630.688802086, -141748.19192268752, -141777.02567303486, 154096.9719406333, 161488.2691488587, -141853.96037745004, -141748.63895757665, 0.022, 0.932, 0.37, 192.0, 0.0, 0.0, 0.0, 0.0, 0.0, 0.0, 0.0, 0.0, 0.0, 1.7307447098996384E9, 0.0, 2024-11-04 15:25:09.899
229.0, -141573.84831593613, -141632.61105210913, -141750.1141727107, -141778.99262654694, 154030.18492820085, 161452.68517168585, -141855.86027572874, -141750.7623732999, 0.022, 0.932, 0.37, 192.0, 0.0, 0.0, 0.0, 0.0, 0.0, 0.0, 0.0, 0.0, 0.0, 1.730744709903492E9, 0.0, 2024-11-04 15:25:09.903
230.0, -141575.59175200365, -141634.30978468774, -141751.79055354482, -141780.64665563664, 153975.40080254088, 161424.61138065, -141857.51430481844, -141752.6622715786, 0.022, 0.932, 0.37, 192.0, 0.0, 0.0, 0.0, 0.0, 0.0, 0.0, 0.0, 0.0, 0.0, 1.7307447099074116E9, 0.0, 2024-11-04 15:25:09.907
231.0, -141578.56453401622, -141637.30491844474, -141754.78568730186, -141783.64178939365, 153955.48539823122, 161429.0593777966, -141860.53179031992, -141755.5679983578, 0.022, 0.932, 0.37, 192.0, 0.0, 0.0, 0.0, 0.0, 0.0, 0.0, 0.0, 0.0, 0.0, 1.7307447099104395E9, 0.0, 2024-11-04 15:25:09.910
232.0, -141583.57132477418, -141642.37876443611, -141759.8148298043, -141788.71563538502, 153938.31925848953, 161440.2576017687, -141865.5832845668, -141760.57478911578, 0.022, 0.932, 0.37, 192.0, 0.0, 0.0, 0.0, 0.0, 0.0, 0.0, 0.0, 0.0, 0.0, 1.7307447099144375E9, 0.0, 2024-11-04 15:25:09.914
233.0, -141586.54410678675, -141645.32919470422, -141762.78761181684, -141791.68841739756, 153867.2630628661, 161409.92628454283, -141868.57841832383, -141763.68168159507, 0.022, 0.932, 0.37, 192.0, 0.0, 0.0, 0.0, 0.0, 0.0, 0.0, 0.0, 0.0, 0.0, 1.730744709919414E9, 0.0, 2024-11-04 15:25:09.919
234.0, -141591.01445567783, -141649.84424708417, -141767.59323687473, -141796.47169071098, 153662.99047028905, 161378.56678707205, -141873.3840433817, -141768.59906537522, 0.022, 0.932, 0.37, 192.0, 0.0, 0.0, 0.0, 0.0, 0.0, 0.0, 0.0, 0.0, 0.0, 1.7307447099234056E9, 0.0, 2024-11-04 15:25:09.923
235.0, -141596.28946736926, -141654.98514830892, -141773.0694142663, -141801.970219847, 153371.9931092254, 161377.65036554937, -141878.94962775108, -141774.14229800014, 0.022, 0.932, 0.37, 192.0, 0.0, 0.0, 0.0, 0.0, 0.0, 0.0, 0.0, 0.0, 0.0, 1.730744709927368E9, 0.0, 2024-11-04 15:25:09.927
236.0, -141599.15049065955, -141657.91322683255, -141776.04219627884, -141804.965353604, 153148.52036816126, 161389.7426592997, -141881.96711325255, -141777.02567303486, 0.022, 0.932, 0.37, 192.0, 0.0, 0.0, 0.0, 0.0, 0.0, 0.0, 0.0, 0.0, 0.0, 1.7307447099313974E9, 0.0, 2024-11-04 15:25:09.931
237.0, -141602.05621743875, -141660.93071233403, -141779.12673701366, -141808.04989433885, 152361.13546623415, 161364.08285666502, -141885.05165398738, -141780.17726900306, 0.026000000000000002, 0.9440000000000001, 0.36, 192.0, 0.0, 208.0, 29.0, 128.0, 11.0, 64.0, 0.0, 0.0, 0.0, 1.7307447099355102E9, 0.0, 2024-11-04 15:25:09.935
238.0, -141606.8171390077, -141665.7363373919, -141783.97706556047, -141812.967278119, 151487.02579582046, 161330.2199638152, -141889.92433427862, -141785.27346673887, 0.026000000000000002, 0.9440000000000001, 0.36, 192.0, 0.0, 0.0, 0.0, 0.0, 0.0, 0.0, 0.0, 0.0, 0.0, 1.730744709938414E9, 0.0, 2024-11-04 15:25:09.938
239.0, -141609.34288613117, -141668.2397327709, -141786.54751617284, -141815.44832175356, 151042.11432243758, 161321.61454219994, -141892.42772965762, -141787.91097258462, 0.026000000000000002, 0.9440000000000001, 0.36, 192.0, 0.0, 0.0, 0.0, 0.0, 0.0, 0.0, 0.0, 0.0, 0.0, 1.7307447099424E9, 0.0, 2024-11-04 15:25:09.942
240.0, -141612.6285925661, -141671.45838397247, -141789.87792609667, -141818.7787316774, 150854.94081436883, 161335.1820510843, -141895.735787837, -141790.99551331945, 0.026000000000000002, 0.9440000000000001, 0.36, 192.0, 0.0, 0.0, 0.0, 0.0, 0.0, 0.0, 0.0, 0.0, 0.0, 1.730744709947584E9, 0.0, 2024-11-04 15:25:09.947
241.0, -141616.4283891235, -141675.12407006315, -141793.58831567626, -141822.5785282348, 150207.0531495873, 161317.0771380755, -141899.5355843944, -141794.92942034357, 0.026000000000000002, 0.9440000000000001, 0.36, 192.0, 0.0, 0.0, 0.0, 0.0, 0.0, 0.0, 0.0, 0.0, 0.0, 1.7307447099514709E9, 0.0, 2024-11-04 15:25:09.951
242.0, -141621.4351798815, -141680.17556431002, -141798.72921690097, -141827.6300224817, 149348.96967994806, 161280.9790707802, -141904.60943038578, -141800.13737680166, 0.026000000000000002, 0.9440000000000001, 0.36, 192.0, 0.0, 0.0, 0.0, 0.0, 0.0, 0.0, 0.0, 0.0, 0.0, 1.730744709955602E9, 0.0, 2024-11-04 15:25:09.955
243.0, -141625.41379039452, -141684.2435818009, -141802.77488264738, -141831.69803997257, 148840.84747324558, 161267.813893296, -141908.61039264328, -141804.25009778145, 0.026000000000000002, 0.9440000000000001, 0.36, 192.0, 0.0, 0.0, 0.0, 0.0, 0.0, 0.0, 0.0, 0.0, 0.0, 1.7307447099596379E9, 0.0, 2024-11-04 15:25:09.959
244.0, -141629.86178754113, -141688.5351167363, -141807.2675832829, -141836.10133363024, 148656.62439544493, 161281.78373358058, -141913.1030932788, -141808.49692922796, 0.026000000000000002, 0.9440000000000001, 0.36, 192.0, 0.0, 0.0, 0.0, 0.0, 0.0, 0.0, 0.0, 0.0, 0.0, 1.7307447099625132E9, 0.0, 2024-11-04 15:25:09.962
245.0, -141632.4322381535, -141691.12791909312, -141809.88273738418, -141838.85059819825, 148114.86281333718, 161270.29493693053, -141915.78530261343, -141811.2238420515, 0.026000000000000002, 0.9440000000000001, 0.36, 192.0, 0.0, 0.0, 0.0, 0.0, 0.0, 0.0, 0.0, 0.0, 0.0, 1.7307447099667332E9, 0.0, 2024-11-04 15:25:09.966
246.0, -141636.41084866654, -141695.1065296062, -141813.8166444083, -141842.7845052224, 147244.3070702919, 161232.58754403444, -141919.6968578931, -141815.44832175356, 0.026000000000000002, 0.9440000000000001, 0.36, 192.0, 0.0, 0.0, 0.0, 0.0, 0.0, 0.0, 0.0, 0.0, 0.0, 1.7307447099707186E9, 0.0, 2024-11-04 15:25:09.970
247.0, -141638.3778021786, -141697.0064278849, -141815.8283014093, -141844.66205175663, 146668.1685052119, 161211.93453215773, -141921.66381140516, -141817.39292352117, 0.012, 0.96, 0.34, 192.0, 0.0, 96.0, 30.0, 0.0, 10.0, 160.0, 0.0, 0.0, 0.0, 1.7307447099757235E9, 0.0, 2024-11-04 15:25:09.975
248.0, -141640.1882934795, -141699.01808488584, -141817.63879271018, -141846.49489480196, 146469.39444177086, 161221.18815436223, -141923.56370968386, -141819.2257665665, 0.012, 0.96, 0.34, 192.0, 0.0, 0.0, 0.0, 0.0, 0.0, 0.0, 0.0, 0.0, 0.0, 1.7307447099796376E9, 0.0, 2024-11-04 15:25:09.979
249.0, -141643.71986910343, -141702.5496605098, -141821.2821270564, -141850.1382291482, 146035.41297142662, 161218.57300026095, -141927.16234054117, -141822.84674916827, 0.012, 0.96, 0.34, 192.0, 0.0, 0.0, 0.0, 0.0, 0.0, 0.0, 0.0, 0.0, 0.0, 1.7307447099835863E9, 0.0, 2024-11-04 15:25:09.983
250.0, -141644.72569760392, -141703.3990267991, -141822.19854857906, -141851.09935415976, 145052.226788071, 161181.17853178724, -141928.1011138083, -141823.98668813548, 0.012, 0.96, 0.34, 192.0, 0.0, 0.0, 0.0, 0.0, 0.0, 0.0, 0.0, 0.0, 0.0, 1.730744709987549E9, 0.0, 2024-11-04 15:25:09.987
251.0, -141646.40207843806, -141705.07540763324, -141823.89728115767, -141852.77573499392, 144196.75847253305, 161157.70920010915, -141929.82219813135, -141825.75247594743, 0.012, 0.96, 0.34, 192.0, 0.0, 0.0, 0.0, 0.0, 0.0, 0.0, 0.0, 0.0, 0.0, 1.7307447099915109E9, 0.0, 2024-11-04 15:25:09.991
252.0, -141649.95600580645, -141708.74109372392, -141827.45120852604, -141856.32966236232, 143753.90335964007, 161167.09693278038, -141933.37612549975, -141829.1722928491, 0.012, 0.96, 0.34, 192.0, 0.0, 0.0, 0.0, 0.0, 0.0, 0.0, 0.0, 0.0, 0.0, 1.7307447099947424E9, 0.0, 2024-11-04 15:25:09.994
253.0, -141649.66543312854, -141708.56227976826, -141827.16063584812, -141856.10614491775, 143294.66441806132, 161169.91325258175, -141933.24201503303, -141828.90407191563, 0.012, 0.96, 0.34, 192.0, 0.0, 0.0, 0.0, 0.0, 0.0, 0.0, 0.0, 0.0, 0.0, 1.7307447099985487E9, 0.0, 2024-11-04 15:25:09.998
254.0, -141652.70527037446, -141711.6468205031, -141830.24517658298, -141859.12363041923, 142363.66955800887, 161138.10672022187, -141936.19244530113, -141832.10037137274, 0.012, 0.96, 0.34, 192.0, 0.0, 0.0, 0.0, 0.0, 0.0, 0.0, 0.0, 0.0, 0.0, 1.7307447100036566E9, 0.0, 2024-11-04 15:25:10.003
255.0, -141654.94044481998, -141713.77023622635, -141832.4356475396, -141861.22469439803, 141481.17798342442, 161111.1281646643, -141938.31586102437, -141834.3802493072, 0.012, 0.96, 0.34, 192.0, 0.0, 0.0, 0.0, 0.0, 0.0, 0.0, 0.0, 0.0, 0.0, 1.7307447100077708E9, 0.0, 2024-11-04 15:25:10.007
0.0, -141656.10273553166, -141714.86547170466, -141833.6202899957, -141862.40933685415, 140989.68547459668, 161114.03389144348, -141939.56755871387, -141835.45313304104, 0.012, 0.96, 0.34, 192.0, 0.0, 0.0, 0.0, 0.0, 0.0, 0.0, 0.0, 0.0, 0.0, 1.730744710011716E9, 0.0, 2024-11-04 15:25:10.011
1.0, -141657.68970938798, -141716.452445561, -141835.20726385203, -141864.0857176883, 140535.1180476091, 161124.80743227096, -141941.17688431466, -141836.99540340848, 0.02, 0.964, 0.324, 192.0, 0.0, 160.0, 30.0, 32.0, 10.0, 32.0, 0.0, 0.0, 0.0, 1.730744710015767E9, 0.0, 2024-11-04 15:25:10.015
2.0, -141658.85200009967, -141717.63708801713, -141836.2801475859, -141865.29271188888, 139562.97362601443, 161096.66658600172, -141942.2497680485, -141838.15769412013, 0.02, 0.964, 0.324, 192.0, 0.0, 0.0, 0.0, 0.0, 0.0, 0.0, 0.0, 0.0, 0.0, 1.730744710019598E9, 0.0, 2024-11-04 15:25:10.019
3.0, -141661.02011931184, -141719.80520722928, -141838.44826679805, -141867.34907237877, 138599.68049522408, 161066.08939958687, -141944.37318377176, -141840.50462728794, 0.02, 0.964, 0.324, 192.0, 0.0, 0.0, 0.0, 0.0, 0.0, 0.0, 0.0, 0.0, 0.0, 1.7307447100226457E9, 0.0, 2024-11-04 15:25:10.022
4.0, -141664.10466004667, -141722.93445145304, -141841.51045578843, -141870.36655788025, 138025.84415982297, 161065.53060597548, -141947.63653846225, -141843.54446453386, 0.02, 0.964, 0.324, 192.0, 0.0, 0.0, 0.0, 0.0, 0.0, 0.0, 0.0, 0.0, 0.0, 1.730744710026745E9, 0.0, 2024-11-04 15:25:10.026
5.0, -141667.8821048596, -141726.66719277707, -141845.22084536802, -141874.09929920427, 137620.8305502928, 161082.0708968724, -141951.23516931955, -141847.05368841335, 0.02, 0.964, 0.324, 192.0, 0.0, 0.0, 0.0, 0.0, 0.0, 0.0, 0.0, 0.0, 0.0, 1.730744710031731E9, 0.0, 2024-11-04 15:25:10.031
6.0, -141666.96568333695, -141725.84017823223, -141844.37147907872, -141873.16052593716, 136728.23598721458, 161058.33334426087, -141950.31874779687, -141846.24902561295, 0.02, 0.964, 0.324, 192.0, 0.0, 0.0, 0.0, 0.0, 0.0, 0.0, 0.0, 0.0, 0.0, 1.7307447100357363E9, 0.0, 2024-11-04 15:25:10.035
7.0, -141669.06674731575, -141727.87418697766, -141846.36078433524, -141875.26158991596, 135726.72137340563, 161024.93983804464, -141952.33040479786, -141848.46184831404, 0.02, 0.964, 0.324, 192.0, 0.0, 0.0, 0.0, 0.0, 0.0, 0.0, 0.0, 0.0, 0.0, 1.730744710039672E9, 0.0, 2024-11-04 15:25:10.039
8.0, -141669.24556127138, -141728.00829744438, -141846.56195003534, -141875.4851073605, 135091.0377610967, 161016.1108989848, -141952.6433292202, -141848.7300692475, 0.02, 0.964, 0.324, 192.0, 0.0, 0.0, 0.0, 0.0, 0.0, 0.0, 0.0, 0.0, 0.0, 1.7307447100427356E9, 0.0, 2024-11-04 15:25:10.042
9.0, -141671.36897699465, -141730.198768401, -141848.64066226967, -141877.51911610595, 134714.67908795824, 161032.13709975925, -141954.78909668792, -141850.71937450403, 0.02, 0.964, 0.324, 192.0, 0.0, 0.0, 0.0, 0.0, 0.0, 0.0, 0.0, 0.0, 0.0, 1.730744710046738E9, 0.0, 2024-11-04 15:25:10.046
10.0, -141672.9335991065, -141731.74103876844, -141850.1829326371, -141879.06138647336, 133917.19119753732, 161018.07785249685, -141956.17490484417, -141852.26164487144, 0.02, 0.964, 0.324, 192.0, 0.0, 0.0, 0.0, 0.0, 0.0, 0.0, 0.0, 0.0, 0.0, 1.7307447100507772E9, 0.0, 2024-11-04 15:25:10.050
11.0, -141673.7829653958, -141732.61275680218, -141851.07700241532, -141879.977807996, 132884.1606240464, 160981.46569507907, -141957.13602985576, -141853.28982511637, 0.022, 0.962, 0.328, 192.0, 0.0, 176.0, 30.0, 16.0, 10.0, 64.0, 0.0, 0.0, 0.0, 1.7307447100548687E9, 0.0, 2024-11-04 15:25:10.054
12.0, -141675.4369944855, -141734.33384112525, -141852.731031505, -141881.5871335968, 132182.18173768304, 160967.89818619468, -141958.76770720098, -141855.0332611839, 0.022, 0.962, 0.328, 192.0, 0.0, 0.0, 0.0, 0.0, 0.0, 0.0, 0.0, 0.0, 0.0, 1.7307447100586843E9, 0.0, 2024-11-04 15:25:10.058
13.0, -141679.52736372082, -141738.49126559394, -141856.84375248477, -141885.5880958543, 131823.95032929783, 160984.5502358139, -141962.88042818077, -141859.07892693032, 0.022, 0.962, 0.328, 192.0, 0.0, 0.0, 0.0, 0.0, 0.0, 0.0, 0.0, 0.0, 0.0, 1.7307447100635984E9, 0.0, 2024-11-04 15:25:10.063
14.0, -141680.30967477677, -141739.2512249054, -141857.49195307397, -141886.32570342132, 131135.31543437426, 160977.06240142137, -141963.6180357478, -141859.79418275287, 0.022, 0.962, 0.328, 192.0, 0.0, 0.0, 0.0, 0.0, 0.0, 0.0, 0.0, 0.0, 0.0, 1.7307447100676641E9, 0.0, 2024-11-04 15:25:10.067
15.0, -141682.9471806225, -141741.88873075115, -141860.21886589754, -141888.9408575226, 130090.75136074441, 160941.76899692643, -141966.2555415935, -141862.56579906534, 0.022, 0.962, 0.328, 192.0, 0.0, 0.0, 0.0, 0.0, 0.0, 0.0, 0.0, 0.0, 0.0, 1.730744710070738E9, 0.0, 2024-11-04 15:25:10.070
16.0, -141683.4389190005, -141742.38046912916, -141860.68825253108, -141889.45494764508, 129313.8717787113, 160921.56301993885, -141966.74727997152, -141863.14694442117, 0.022, 0.962, 0.328, 192.0, 0.0, 0.0, 0.0, 0.0, 0.0, 0.0, 0.0, 0.0, 0.0, 1.730744710074582E9, 0.0, 2024-11-04 15:25:10.074
17.0, -141687.17166032453, -141746.06850696428, -141864.44334559957, -141893.21004071357, 128911.60743374914, 160935.1305288232, -141970.59178001783, -141866.81263051185, 0.022, 0.962, 0.328, 192.0, 0.0, 0.0, 0.0, 0.0, 0.0, 0.0, 0.0, 0.0, 0.0, 1.7307447100786755E9, 0.0, 2024-11-04 15:25:10.078
18.0, -141689.96562838147, -141748.8624750212, -141867.19261016758, -141895.9369535371, 128318.74976381658, 160936.96337186854, -141973.27398935248, -141869.47248810204, 0.022, 0.962, 0.328, 192.0, 0.0, 0.0, 0.0, 0.0, 0.0, 0.0, 0.0, 0.0, 0.0, 1.7307447100828147E9, 0.0, 2024-11-04 15:25:10.082
19.0, -141691.37378828213, -141750.33769015525, -141868.57841832383, -141897.41216867117, 127282.92522226874, 160901.69231911807, -141974.50333529752, -141871.01475846945, 0.022, 0.962, 0.328, 192.0, 0.0, 0.0, 0.0, 0.0, 0.0, 0.0, 0.0, 0.0, 0.0, 1.730744710086671E9, 0.0, 2024-11-04 15:25:10.086
20.0, -141694.5924394837, -141753.57869310127, -141871.81942126984, -141900.63081987272, 126438.96805512525, 160879.09470547375, -141977.69963475462, -141874.34516839328, 0.022, 0.962, 0.328, 192.0, 0.0, 0.0, 0.0, 0.0, 0.0, 0.0, 0.0, 0.0, 0.0, 1.7307447100917068E9, 0.0, 2024-11-04 15:25:10.091
21.0, -141695.73237845092, -141754.71863206849, -141872.95936023706, -141901.77075883994, 125995.19652070958, 160885.84493229925, -141978.92898069965, -141875.41805212715, 0.028, 0.964, 0.326, 192.0, 0.0, 224.0, 30.0, 32.0, 10.0, 48.0, 0.0, 0.0, 0.0, 1.7307447100959141E9, 0.0, 2024-11-04 15:25:10.095
22.0, -141698.3922360411, -141757.37848965867, -141875.57451433834, -141904.3412094523, 125498.56311065712, 160894.15978123664, -141981.7229487566, -141877.96615099505, 0.028, 0.964, 0.326, 192.0, 0.0, 0.0, 0.0, 0.0, 0.0, 0.0, 0.0, 0.0, 0.0, 1.7307447100987532E9, 0.0, 2024-11-04 15:25:10.098
23.0, -141697.27464881833, -141756.23855069143, -141874.4345753711, -141903.13421525172, 124505.7880289302, 160859.78279826438, -141980.40419583372, -141876.89326726118, 0.028, 0.964, 0.326, 192.0, 0.0, 0.0, 0.0, 0.0, 0.0, 0.0, 0.0, 0.0, 0.0, 1.730744710102759E9, 0.0, 2024-11-04 15:25:10.102
24.0, -141698.43693953002, -141757.3114344253, -141875.41805212715, -141904.3412094523, 123608.85722742764, 160831.01610315038, -141981.43237607865, -141878.01085448396, 0.028, 0.964, 0.326, 192.0, 0.0, 0.0, 0.0, 0.0, 0.0, 0.0, 0.0, 0.0, 0.0, 1.7307447101066487E9, 0.0, 2024-11-04 15:25:10.106
25.0, -141701.43207328703, -141760.37362341568, -141878.41318588416, -141907.3586949538, 123109.809828974, 160834.68178924106, -141984.40515809122, -141880.96128475206, 0.028, 0.964, 0.326, 192.0, 0.0, 0.0, 0.0, 0.0, 0.0, 0.0, 0.0, 0.0, 0.0, 1.7307447101106627E9, 0.0, 2024-11-04 15:25:10.110
26.0, -141703.37667505463, -141762.34057692773, -141880.35778765177, -141909.23624148802, 122690.1558268256, 160847.13171090267, -141986.48387032555, -141882.77177605295, 0.028, 0.964, 0.326, 192.0, 0.0, 0.0, 0.0, 0.0, 0.0, 0.0, 0.0, 0.0, 0.0, 1.730744710114719E9, 0.0, 2024-11-04 15:25:10.114
27.0, -141704.56131751076, -141763.6146263617, -141881.56478185236, -141910.4432356886, 121755.1376527712, 160820.1084518562, -141987.64616103724, -141884.11288072026, 0.028, 0.964, 0.326, 192.0, 0.0, 0.0, 0.0, 0.0, 0.0, 0.0, 0.0, 0.0, 0.0, 1.7307447101199253E9, 0.0, 2024-11-04 15:25:10.119
28.0, -141706.12593962264, -141765.22395196249, -141883.19645919758, -141912.0525612894, 120798.34887961733, 160787.698422396, -141989.1660796602, -141885.9457237656, 0.028, 0.964, 0.326, 192.0, 0.0, 0.0, 0.0, 0.0, 0.0, 0.0, 0.0, 0.0, 0.0, 1.7307447101227765E9, 0.0, 2024-11-04 15:25:10.122
29.0, -141708.51757627935, -141767.52618164138, -141885.5433923654, -141914.31008747936, 120230.34634951907, 160784.6585851501, -141991.58006806136, -141888.22560170002, 0.028, 0.964, 0.326, 192.0, 0.0, 0.0, 0.0, 0.0, 0.0, 0.0, 0.0, 0.0, 0.0, 1.7307447101266837E9, 0.0, 2024-11-04 15:25:10.126
30.0, -141710.08219839123, -141769.09080375324, -141887.06331098836, -141915.78530261343, 119853.11595834685, 160799.12016381268, -141993.18939366215, -141889.72316857852, 0.028, 0.964, 0.326, 192.0, 0.0, 0.0, 0.0, 0.0, 0.0, 0.0, 0.0, 0.0, 0.0, 1.730744710130752E9, 0.0, 2024-11-04 15:25:10.130
31.0, -141711.3562478252, -141770.45426016502, -141888.35971216677, -141917.1040555363, 118995.27835789662, 160778.4000967026, -141994.46344309612, -141891.0866249903, 0.03, 0.962, 0.334, 192.0, 0.0, 240.0, 30.0, 16.0, 10.0, 112.0, 0.0, 0.0, 0.0, 1.7307447101346872E9, 0.0, 2024-11-04 15:25:10.134
32.0, -141710.5962885137, -141769.716652598, -141887.57740111082, -141916.3440962248, 117995.37306968846, 160740.6480003176, -141993.6140768068, -141890.46077614557, 0.03, 0.962, 0.334, 192.0, 0.0, 0.0, 0.0, 0.0, 0.0, 0.0, 0.0, 0.0, 0.0, 1.7307447101387436E9, 0.0, 2024-11-04 15:25:10.138
33.0, -141712.16091062556, -141771.19186773204, -141889.07496798932, -141917.90871833666, 117353.34156195422, 160730.72382577942, -141995.15634717423, -141892.07010174633, 0.03, 0.962, 0.334, 192.0, 0.0, 0.0, 0.0, 0.0, 0.0, 0.0, 0.0, 0.0, 0.0, 1.7307447101427224E9, 0.0, 2024-11-04 15:25:10.142
34.0, -141714.06080890427, -141773.1141177552, -141891.01956975693, -141919.87567184874, 116995.49013322475, 160745.83360503122, -141997.16800417518, -141893.88059304722, 0.03, 0.962, 0.334, 192.0, 0.0, 0.0, 0.0, 0.0, 0.0, 0.0, 0.0, 0.0, 0.0, 1.7307447101476698E9, 0.0, 2024-11-04 15:25:10.147
35.0, -141715.8042449718, -141774.87990556716, -141892.76300582447, -141921.5967561718, 116237.74364444538, 160732.8919449916, -141998.8667367538, -141895.51227039247, 0.03, 0.962, 0.334, 192.0, 0.0, 0.0, 0.0, 0.0, 0.0, 0.0, 0.0, 0.0, 0.0, 1.7307447101508753E9, 0.0, 2024-11-04 15:25:10.150
36.0, -141717.03359091684, -141776.08689976775, -141893.92529653612, -141922.82610211684, 115215.62072224866, 160695.51982826233, -141999.96197223212, -141896.8980785487, 0.03, 0.962, 0.334, 192.0, 0.0, 0.0, 0.0, 0.0, 0.0, 0.0, 0.0, 0.0, 0.0, 1.7307447101547527E9, 0.0, 2024-11-04 15:25:10.154
37.0, -141716.94418393902, -141775.93043755656, -141893.81353781387, -141922.71434339456, 114507.40569918224, 160678.3760402651, -141999.89491699875, -141896.83102331532, 0.03, 0.962, 0.334, 192.0, 0.0, 0.0, 0.0, 0.0, 0.0, 0.0, 0.0, 0.0, 0.0, 1.7307447101587698E9, 0.0, 2024-11-04 15:25:10.158
38.0, -141719.08995140673, -141777.98679804645, -141895.8475465593, -141924.65894516217, 114145.79917738428, 160692.23412182738, -142002.06303621092, -141898.61916287174, 0.03, 0.962, 0.334, 192.0, 0.0, 0.0, 0.0, 0.0, 0.0, 0.0, 0.0, 0.0, 0.0, 1.730744710162685E9, 0.0, 2024-11-04 15:25:10.162
39.0, -141721.16866364106, -141780.13256551416, -141897.88155530472, -141926.76000914097, 113492.01065206656, 160687.62966246958, -142004.09704495635, -141900.6978751061, 0.03, 0.962, 0.334, 192.0, 0.0, 0.0, 0.0, 0.0, 0.0, 0.0, 0.0, 0.0, 0.0, 1.7307447101668563E9, 0.0, 2024-11-04 15:25:10.166
40.0, -141722.71093400847, -141781.60778064822, -141899.35677043878, -141928.23522427503, 112464.21038677817, 160650.90574632952, -142005.46050136813, -141902.41895942914, 0.03, 0.962, 0.334, 192.0, 0.0, 0.0, 0.0, 0.0, 0.0, 0.0, 0.0, 0.0, 0.0, 1.730744710170782E9, 0.0, 2024-11-04 15:25:10.170
41.0, -141725.70606776548, -141784.62526614967, -141902.37425594023, -141931.36446849877, 111696.00328159372, 160631.57148737568, -142008.43328338067, -141905.48114841952, 0.018000000000000002, 0.962, 0.332, 192.0, 0.0, 144.0, 30.0, 16.0, 10.0, 96.0, 0.0, 0.0, 0.0, 1.7307447101758327E9, 0.0, 2024-11-04 15:25:10.175
42.0, -141727.44950383302, -141786.48046093946, -141904.11769200774, -141933.08555282184, 111326.95362889215, 160641.9650485474, -142010.266126426, -141907.13517750922, 0.018000000000000002, 0.962, 0.332, 192.0, 0.0, 0.0, 0.0, 0.0, 0.0, 0.0, 0.0, 0.0, 0.0, 1.7307447101786697E9, 0.0, 2024-11-04 15:25:10.178
43.0, -141729.32705036725, -141788.33565572926, -141905.9058315642, -141934.87369237826, 110783.31450025017, 160644.2225747374, -142012.1660247047, -141908.92331706564, 0.018000000000000002, 0.962, 0.332, 192.0, 0.0, 0.0, 0.0, 0.0, 0.0, 0.0, 0.0, 0.0, 0.0, 1.7307447101827648E9, 0.0, 2024-11-04 15:25:10.182
44.0, -141730.48934107894, -141789.54264992985, -141907.06812227584, -141936.01363134547, 109777.30718580571, 160609.1079841981, -142013.12714971628, -141910.2420699885, 0.018000000000000002, 0.962, 0.332, 192.0, 0.0, 0.0, 0.0, 0.0, 0.0, 0.0, 0.0, 0.0, 0.0, 1.7307447101869462E9, 0.0, 2024-11-04 15:25:10.186
45.0, -141730.6010998012, -141789.63205690766, -141907.22458448703, -141936.12539006775, 108944.54824263434, 160582.12942864056, -142013.12714971628, -141910.33147696633, 0.018000000000000002, 0.962, 0.332, 192.0, 0.0, 0.0, 0.0, 0.0, 0.0, 0.0, 0.0, 0.0, 0.0, 1.730744710190823E9, 0.0, 2024-11-04 15:25:10.190
46.0, -141734.06562019177, -141793.07422555378, -141910.68910487762, -141939.52285522496, 108515.12652815897, 160590.01959443328, -142016.74813231805, -141913.77364561244, 0.018000000000000002, 0.962, 0.332, 192.0, 0.0, 0.0, 0.0, 0.0, 0.0, 0.0, 0.0, 0.0, 0.0, 1.7307447101948636E9, 0.0, 2024-11-04 15:25:10.194
47.0, -141737.08310569325, -141796.18111803307, -141913.7065903791, -141942.60739595979, 108063.64364190622, 160600.12258292706, -142019.85502479735, -141916.72407588054, 0.018000000000000002, 0.962, 0.332, 192.0, 0.0, 0.0, 0.0, 0.0, 0.0, 0.0, 0.0, 0.0, 0.0, 1.7307447101988225E9, 0.0, 2024-11-04 15:25:10.198
48.0, -141738.3571551272, -141797.54457444485, -141914.93593632412, -141943.9037971382, 107108.50889784204, 160569.65715523448, -142021.03966725347, -141918.1992910146, 0.018000000000000002, 0.962, 0.332, 192.0, 0.0, 0.0, 0.0, 0.0, 0.0, 0.0, 0.0, 0.0, 0.0, 1.7307447102039435E9, 0.0, 2024-11-04 15:25:10.203
49.0, -141738.71478303848, -141797.87985061167, -141915.27121249094, -141944.28377679395, 106226.8666895469, 160539.43759673092, -142021.24083295357, -141918.6463259037, 0.018000000000000002, 0.962, 0.332, 192.0, 0.0, 0.0, 0.0, 0.0, 0.0, 0.0, 0.0, 0.0, 0.0, 1.730744710207033E9, 0.0, 2024-11-04 15:25:10.207
50.0, -141739.13946618314, -141798.34923724525, -141915.62884040223, -141944.66375644968, 105748.11467505869, 160539.70581766436, -142021.75492307605, -141919.003953815, 0.018000000000000002, 0.962, 0.332, 192.0, 0.0, 0.0, 0.0, 0.0, 0.0, 0.0, 0.0, 0.0, 0.0, 1.7307447102098749E9, 0.0, 2024-11-04 15:25:10.209
51.0, -141740.07823945026, -141799.220955279, -141916.67937239163, -141945.5578262279, 105377.20982756732, 160552.82629165964, -142022.73839983207, -141919.80861661537, 0.018000000000000002, 0.962, 0.332, 192.0, 0.0, 0.0, 0.0, 0.0, 0.0, 0.0, 0.0, 0.0, 0.0, 1.7307447102148979E9, 0.0, 2024-11-04 15:25:10.214
52.0, -141742.1569516846, -141801.29966751335, -141918.73573288153, -141947.56948322887, 104496.90872393952, 160529.2899047482, -142024.79476032197, -141921.95438408307, 0.012, 0.964, 0.328, 192.0, 0.0, 96.0, 30.0, 32.0, 10.0, 64.0, 0.0, 0.0, 0.0, 1.7307447102188995E9, 0.0, 2024-11-04 15:25:10.218
53.0, -141745.04032671935, -141804.2724495259, -141921.68616314963, -141950.5422652414, 103579.10139311569, 160499.1821049669, -142027.65578361222, -141925.03892481793, 0.012, 0.964, 0.328, 192.0, 0.0, 0.0, 0.0, 0.0, 0.0, 0.0, 0.0, 0.0, 0.0, 1.7307447102229085E9, 0.0, 2024-11-04 15:25:10.222
54.0, -141746.33672789775, -141805.54649895985, -141922.93786083913, -141951.92807339766, 103049.52151173611, 160495.7846398097, -142028.95218479063, -141926.29062250743, 0.012, 0.964, 0.328, 192.0, 0.0, 0.0, 0.0, 0.0, 0.0, 0.0, 0.0, 0.0, 0.0, 1.7307447102269015E9, 0.0, 2024-11-04 15:25:10.226
55.0, -141748.48249536546, -141807.64756293866, -141925.03892481793, -141953.8950269097, 102738.07230449586, 160513.375462696, -142031.1203040028, -141928.23522427503, 0.012, 0.964, 0.328, 192.0, 0.0, 0.0, 0.0, 0.0, 0.0, 0.0, 0.0, 0.0, 0.0, 1.730744710231745E9, 0.0, 2024-11-04 15:25:10.231
56.0, -141749.86830352168, -141809.07807458378, -141926.35767774077, -141955.19142808812, 101961.52799862958, 160497.34926192157, -142032.43905692568, -141929.64338417572, 0.012, 0.964, 0.328, 192.0, 0.0, 0.0, 0.0, 0.0, 0.0, 0.0, 0.0, 0.0, 0.0, 1.73074471023481E9, 0.0, 2024-11-04 15:25:10.234
57.0, -141751.92466401157, -141811.2238420515, -141928.48109346404, -141957.3595473003, 101020.22898438323, 160464.89452897245, -142034.40601043773, -141931.81150338787, 0.012, 0.964, 0.328, 192.0, 0.0, 0.0, 0.0, 0.0, 0.0, 0.0, 0.0, 0.0, 0.0, 1.730744710238788E9, 0.0, 2024-11-04 15:25:10.238
58.0, -141754.67392857958, -141814.0178101084, -141931.27506152095, -141960.1982188461, 100433.38393370915, 160458.2784126137, -142037.28938547248, -141934.56076795587, 0.012, 0.964, 0.328, 192.0, 0.0, 0.0, 0.0, 0.0, 0.0, 0.0, 0.0, 0.0, 0.0, 1.7307447102428856E9, 0.0, 2024-11-04 15:25:10.242
59.0, -141755.9032745246, -141815.09069384227, -141932.34794525482, -141961.27110257998, 100147.77334305923, 160475.82453201112, -142038.56343490642, -141935.499541223, 0.012, 0.964, 0.328, 192.0, 0.0, 0.0, 0.0, 0.0, 0.0, 0.0, 0.0, 0.0, 0.0, 1.730744710246856E9, 0.0, 2024-11-04 15:25:10.246
60.0, -141757.82552454778, -141817.05764735432, -141934.24784353352, -141963.17100085868, 99478.09272743377, 160468.6272702965, -142040.4856849296, -141937.51119822398, 0.012, 0.964, 0.328, 192.0, 0.0, 0.0, 0.0, 0.0, 0.0, 0.0, 0.0, 0.0, 0.0, 1.7307447102508862E9, 0.0, 2024-11-04 15:25:10.250
61.0, -141757.04321349182, -141816.25298455395, -141933.39847724422, -141962.38868980273, 98518.88996587873, 160433.0656448681, -142039.5692634069, -141936.81829414587, 0.012, 0.964, 0.328, 192.0, 0.0, 0.0, 0.0, 0.0, 0.0, 0.0, 0.0, 0.0, 0.0, 1.7307447102548594E9, 0.0, 2024-11-04 15:25:10.254
62.0, -141759.3007396818, -141818.48815899948, -141935.61129994527, -141964.57916075937, 97869.61649294097, 160421.12981332897, -142041.75973436353, -141939.07582033586, 0.002, 0.966, 0.328, 192.0, 0.0, 16.0, 30.0, 48.0, 10.0, 64.0, 0.0, 0.0, 0.0, 1.7307447102588797E9, 0.0, 2024-11-04 15:25:10.258
63.0, -141762.27352169438, -141821.4162375231, -141938.6511371912, -141967.4625357941, 97583.22359123512, 160439.74881646025, -142044.84427509835, -141941.86978839277, 0.002, 0.966, 0.328, 192.0, 0.0, 0.0, 0.0, 0.0, 0.0, 0.0, 0.0, 0.0, 0.0, 1.7307447102619474E9, 0.0, 2024-11-04 15:25:10.261
64.0, -141763.59227461723, -141822.71263870152, -141939.9475383696, -141968.73658522803, 97032.16368343397, 160440.68758972737, -142046.1853797657, -141943.0544308489, 0.002, 0.966, 0.328, 192.0, 0.0, 0.0, 0.0, 0.0, 0.0, 0.0, 0.0, 0.0, 0.0, 1.7307447102657642E9, 0.0, 2024-11-04 15:25:10.265
65.0, -141764.6204548622, -141823.80787417982, -141940.998070359, -141969.83182070634, 96080.09112836017, 160408.45637422282, -142047.14650477725, -141944.3061285384, 0.002, 0.966, 0.328, 192.0, 0.0, 0.0, 0.0, 0.0, 0.0, 0.0, 0.0, 0.0, 0.0, 1.7307447102709725E9, 0.0, 2024-11-04 15:25:10.270
66.0, -141765.7603938294, -141824.94781314707, -141942.11565758177, -141970.9717596736, 95369.77504131498, 160390.84319959203, -142048.1746850222, -141945.46841925007, 0.002, 0.966, 0.328, 192.0, 0.0, 0.0, 0.0, 0.0, 0.0, 0.0, 0.0, 0.0, 0.0, 1.7307447102749937E9, 0.0, 2024-11-04 15:25:10.274
67.0, -141770.87894330965, -141830.1334178607, -141947.23420706205, -141976.13501264274, 95058.07996488572, 160408.92576085636, -142053.51675194703, -141950.4975617525, 0.002, 0.966, 0.328, 192.0, 0.0, 0.0, 0.0, 0.0, 0.0, 0.0, 0.0, 0.0, 0.0, 1.7307447102789829E9, 0.0, 2024-11-04 15:25:10.278
68.0, -141772.957655544, -141832.14507486168, -141949.31291929638, -141978.19137313263, 94612.00620079115, 160418.24643829424, -142055.59546418136, -141952.5092187535, 0.002, 0.966, 0.328, 192.0, 0.0, 0.0, 0.0, 0.0, 0.0, 0.0, 0.0, 0.0, 0.0, 1.7307447102829473E9, 0.0, 2024-11-04 15:25:10.282
69.0, -141773.9187805556, -141833.0391446399, -141950.16228558568, -141979.08544291084, 93689.32618967608, 160388.6080251465, -142056.3777752373, -141953.4926955095, 0.002, 0.966, 0.328, 192.0, 0.0, 0.0, 0.0, 0.0, 0.0, 0.0, 0.0, 0.0, 0.0, 1.7307447102868867E9, 0.0, 2024-11-04 15:25:10.286
70.0, -141772.711786355, -141831.9215574171, -141948.97764312956, -141977.87844871025, 92920.35912518014, 160364.3563824125, -142055.14842929225, -141952.28570130895, 0.002, 0.966, 0.328, 192.0, 0.0, 0.0, 0.0, 0.0, 0.0, 0.0, 0.0, 0.0, 0.0, 1.730744710289868E9, 0.0, 2024-11-04 15:25:10.289
71.0, -141776.19865849003, -141835.4754847855, -141952.5539222424, -141981.34296910084, 92557.65736790388, 160376.29221395162, -142058.70235666065, -141955.7055182106, 0.002, 0.966, 0.328, 192.0, 0.0, 0.0, 0.0, 0.0, 0.0, 0.0, 0.0, 0.0, 0.0, 1.7307447102940147E9, 0.0, 2024-11-04 15:25:10.294
72.0, -141778.79146084684, -141838.04593539785, -141955.0573176214, -141983.89106796874, 92196.00614261701, 160391.9607868148, -142061.29515901746, -141958.0971548673, 0.002, 0.966, 0.328, 192.0, 0.0, 0.0, 30.0, 32.0, 10.0, 96.0, 0.0, 0.0, 0.0, 1.7307447102978065E9, 0.0, 2024-11-04 15:25:10.297
73.0, -141779.26084748041, -141838.44826679805, -141955.48200076606, -141984.2710476245, 91301.48932951562, 160365.18339695735, -142061.58573169538, -141958.58889324532, 0.002, 0.966, 0.328, 192.0, 0.0, 0.0, 0.0, 0.0, 0.0, 0.0, 0.0, 0.0, 0.0, 1.7307447103028028E9, 0.0, 2024-11-04 15:25:10.302
74.0, -141779.6184753917, -141838.8729499427, -141955.8619804218, -141984.69573076913, 90446.51275235567, 160336.61786754345, -142061.96571135113, -141959.08063162336, 0.002, 0.966, 0.328, 192.0, 0.0, 0.0, 0.0, 0.0, 0.0, 0.0, 0.0, 0.0, 0.0, 1.7307447103070743E9, 0.0, 2024-11-04 15:25:10.307
75.0, -141781.29485622584, -141840.57168252132, -141957.67247172268, -141986.4168150922, 89993.53229922442, 160339.23302164473, -142063.7314991631, -141960.7570124575, 0.002, 0.966, 0.328, 192.0, 0.0, 0.0, 0.0, 0.0, 0.0, 0.0, 0.0, 0.0, 0.0, 1.7307447103110487E9, 0.0, 2024-11-04 15:25:10.311
76.0, -141783.28416148236, -141842.51628428893, -141959.68412872366, -141988.517879071, 89667.44269936594, 160355.97447824175, -142065.81021139745, -141962.7016142251, 0.002, 0.966, 0.328, 192.0, 0.0, 0.0, 0.0, 0.0, 0.0, 0.0, 0.0, 0.0, 0.0, 1.7307447103140917E9, 0.0, 2024-11-04 15:25:10.314
77.0, -141784.4688039385, -141843.72327848952, -141960.82406769088, -141989.70252152713, 88818.54579669784, 160333.62273378644, -142066.88309513128, -141963.88625668123, 0.002, 0.966, 0.328, 192.0, 0.0, 0.0, 0.0, 0.0, 0.0, 0.0, 0.0, 0.0, 0.0, 1.7307447103179567E9, 0.0, 2024-11-04 15:25:10.317
78.0, -141785.04994929433, -141844.37147907872, -141961.33815781333, -141990.19425990514, 87895.97754430503, 160300.36333803696, -142067.39718525377, -141964.53445727043, 0.002, 0.966, 0.328, 192.0, 0.0, 0.0, 0.0, 0.0, 0.0, 0.0, 0.0, 0.0, 0.0, 1.7307447103220034E9, 0.0, 2024-11-04 15:25:10.322
79.0, -141788.20154526253, -141847.54542679136, -141964.512105526, -141993.34585587334, 87362.30729369013, 160297.81523916905, -142070.61583645534, -141967.7084049831, 0.002, 0.966, 0.328, 192.0, 0.0, 0.0, 0.0, 0.0, 0.0, 0.0, 0.0, 0.0, 0.0, 1.7307447103268425E9, 0.0, 2024-11-04 15:25:10.326
80.0, -141788.80504236283, -141848.12657214722, -141965.1603061152, -141993.90464948473, 87070.41586284827, 160314.51199227717, -142071.28638878898, -141968.20014336111, 0.002, 0.966, 0.328, 192.0, 0.0, 0.0, 0.0, 0.0, 0.0, 0.0, 0.0, 0.0, 0.0, 1.7307447103310187E9, 0.0, 2024-11-04 15:25:10.331
81.0, -141791.57665867527, -141850.71937450403, -141967.77546021648, -141996.58685881936, 86311.10475195704, 160300.65391071487, -142073.96859812364, -141970.9717596736, 0.002, 0.966, 0.328, 192.0, 0.0, 0.0, 0.0, 0.0, 0.0, 0.0, 0.0, 0.0, 0.0, 1.7307447103349185E9, 0.0, 2024-11-04 15:25:10.334
82.0, -141793.14128078715, -141852.32870010482, -141969.3624340728, -141998.21853616458, 85346.31405428816, 160266.00870680914, -142075.39910976877, -141972.7151957411, -0.004, 0.9580000000000001, 0.334, 192.0, 255.0, 224.0, 29.0, 240.0, 10.0, 112.0, 0.0, 0.0, 0.0, 1.730744710338895E9, 0.0, 2024-11-04 15:25:10.338
83.0, -141796.24817326645, -141855.52499956192, -141972.44697480762, -142001.34778038834, 84735.97732019155, 160257.31387821602, -142078.5283539925, -141975.73268124255, -0.004, 0.9580000000000001, 0.334, 192.0, 0.0, 0.0, 0.0, 0.0, 0.0, 0.0, 0.0, 0.0, 0.0, 1.730744710341786E9, 0.0, 2024-11-04 15:25:10.341
84.0, -141800.24913552395, -141859.54831356386, -141976.4702888096, -142005.28168741247, 84445.5834562282, 160276.55873019205, -142082.70813020566, -141979.53247779995, -0.004, 0.9580000000000001, 0.334, 192.0, 0.0, 0.0, 0.0, 0.0, 0.0, 0.0, 0.0, 0.0, 0.0, 1.7307447103459463E9, 0.0, 2024-11-04 15:25:10.345
85.0, -141799.6679901681, -141858.87776123022, -141975.8220882204, -142004.72289380108, 83788.9786111091, 160266.90277658735, -142082.01522612755, -141978.99603593303, -0.004, 0.9580000000000001, 0.334, 192.0, 0.0, 0.0, 0.0, 0.0, 0.0, 0.0, 0.0, 0.0, 0.0, 1.7307447103498335E9, 0.0, 2024-11-04 15:25:10.349
86.0, -141801.59024019126, -141860.86706648674, -141977.65493126572, -142006.55573684644, 82815.64954705829, 160231.8105377925, -142083.80336568397, -141981.007692934, -0.004, 0.9580000000000001, 0.334, 192.0, 0.0, 0.0, 0.0, 0.0, 0.0, 0.0, 0.0, 0.0, 0.0, 1.7307447103549232E9, 0.0, 2024-11-04 15:25:10.354
87.0, -141803.4677867255, -141862.85637174326, -141979.6218847778, -142008.38857989176, 82143.55494303166, 160216.43253760727, -142085.65856047376, -141982.95229470162, -0.004, 0.9580000000000001, 0.334, 192.0, 0.0, 0.0, 0.0, 0.0, 0.0, 0.0, 0.0, 0.0, 0.0, 1.73074471035902E9, 0.0, 2024-11-04 15:25:10.359
88.0, -141805.70296117105, -141865.02449095543, -141981.94646620113, -142010.64610608175, 81847.19316329875, 160232.0117034926, -142088.00549364157, -141985.03100693595, -0.004, 0.9580000000000001, 0.334, 192.0, 0.0, 0.0, 0.0, 0.0, 0.0, 0.0, 0.0, 0.0, 0.0, 1.7307447103629668E9, 0.0, 2024-11-04 15:25:10.362
89.0, -141806.08294082677, -141865.40447061116, -141982.2593906235, -142011.00373399304, 81303.35286895667, 160231.3187994145, -142088.31841806395, -141985.29922786943, -0.004, 0.9580000000000001, 0.334, 192.0, 0.0, 0.0, 0.0, 0.0, 0.0, 0.0, 0.0, 0.0, 0.0, 1.7307447103661275E9, 0.0, 2024-11-04 15:25:10.366
90.0, -141807.75932166094, -141867.01379621195, -141983.75695750202, -142012.68011482718, 80334.58356077476, 160197.14298214234, -142089.8830401758, -141987.0203121925, -0.004, 0.9580000000000001, 0.334, 192.0, 0.0, 0.0, 0.0, 0.0, 0.0, 0.0, 0.0, 0.0, 0.0, 1.7307447103698747E9, 0.0, 2024-11-04 15:25:10.369
91.0, -141810.73210367348, -141870.05363345786, -141986.8191464924, -142015.63054509528, 79590.76220879104, 160177.5628539995, -142092.85582218837, -141990.10485292732, -0.004, 0.9580000000000001, 0.334, 192.0, 0.0, 0.0, 0.0, 0.0, 0.0, 0.0, 0.0, 0.0, 0.0, 1.7307447103741164E9, 0.0, 2024-11-04 15:25:10.374
92.0, -141813.25785079692, -141872.62408407024, -141989.43430059365, -142018.24569919656, 79247.50646919089, 160189.1634093718, -142095.56038326747, -141992.65295179523, -0.012, 0.9560000000000001, 0.336, 192.0, 255.0, 160.0, 29.0, 224.0, 10.0, 128.0, 0.0, 0.0, 0.0, 1.7307447103781152E9, 0.0, 2024-11-04 15:25:10.378
93.0, -141814.7777694199, -141874.25576141546, -141990.95421921663, -142019.7656178195, 78800.94096671832, 160196.40537457532, -142097.1473571238, -141994.15051867373, -0.012, 0.9560000000000001, 0.336, 192.0, 0.0, 0.0, 0.0, 0.0, 0.0, 0.0, 0.0, 0.0, 0.0, 1.730744710381894E9, 0.0, 2024-11-04 15:25:10.381
94.0, -141815.0683420978, -141874.61338932675, -141991.17773666116, -142019.9667835196, 77861.76536819522, 160163.52595848156, -142097.3485228239, -141994.64225705175, -0.012, 0.9560000000000001, 0.336, 192.0, 0.0, 0.0, 0.0, 0.0, 0.0, 0.0, 0.0, 0.0, 0.0, 1.730744710386973E9, 0.0, 2024-11-04 15:25:10.386
95.0, -141814.64365895317, -141874.16635443765, -141990.77540526097, -142019.58680386387, 77056.94610559299, 160135.6980366347, -142096.85678444587, -141994.19522216264, -0.012, 0.9560000000000001, 0.336, 192.0, 0.0, 0.0, 0.0, 0.0, 0.0, 0.0, 0.0, 0.0, 0.0, 1.7307447103909247E9, 0.0, 2024-11-04 15:25:10.390
96.0, -141816.7223711875, -141876.15565969417, -141992.92117272867, -142021.6208126093, 76665.34354273601, 160142.11298729337, -142098.95784842467, -141996.1174721858, -0.012, 0.9560000000000001, 0.336, 192.0, 0.0, 0.0, 0.0, 0.0, 0.0, 0.0, 0.0, 0.0, 0.0, 1.7307447103940213E9, 0.0, 2024-11-04 15:25:10.394
97.0, -141818.04112411037, -141877.5414678504, -141994.19522216264, -142022.89486204326, 76304.89931164973, 160154.62996418835, -142100.32130483643, -141997.41387336422, -0.012, 0.9560000000000001, 0.336, 192.0, 0.0, 0.0, 0.0, 0.0, 0.0, 0.0, 0.0, 0.0, 0.0, 1.7307447103980572E9, 0.0, 2024-11-04 15:25:10.398
98.0, -141819.44928401106, -141878.97197949555, -141995.58103031886, -142024.30302194395, 75422.4077370653, 160127.42789118623, -142101.6847612482, -141998.91144024272, -0.012, 0.9560000000000001, 0.336, 192.0, 0.0, 0.0, 0.0, 0.0, 0.0, 0.0, 0.0, 0.0, 0.0, 1.7307447104021904E9, 0.0, 2024-11-04 15:25:10.402
99.0, -141820.5668712338, -141880.06721497385, -141996.65391405273, -142025.4206091667, 74560.7032848243, 160097.07422221592, -142102.75764498208, -142000.14078618775, -0.012, 0.9560000000000001, 0.336, 192.0, 0.0, 0.0, 0.0, 0.0, 0.0, 0.0, 0.0, 0.0, 0.0, 1.7307447104059093E9, 0.0, 2024-11-04 15:25:10.405
100.0, -141821.50564450092, -141880.91658126315, -141997.59268731985, -142026.29232720047, 74101.15141882318, 160096.4930768601, -142103.6517147603, -142000.9678007326, -0.012, 0.9560000000000001, 0.336, 192.0, 0.0, 0.0, 0.0, 0.0, 0.0, 0.0, 0.0, 0.0, 0.0, 1.7307447104099092E9, 0.0, 2024-11-04 15:25:10.409
101.0, -141824.4337230246, -141883.9340667646, -142000.47606235457, -142029.2204057241, 73799.69344135445, 160114.08389974642, -142106.71390375064, -142003.73941704506, -0.012, 0.9560000000000001, 0.336, 192.0, 0.0, 0.0, 0.0, 0.0, 0.0, 0.0, 0.0, 0.0, 0.0, 1.730744710414938E9, 0.0, 2024-11-04 15:25:10.414
102.0, -141825.26073756942, -141884.64932258718, -142001.28072515497, -142030.0250685245, 72992.70605954004, 160092.2909489025, -142107.2950491065, -142004.5664315899, -0.012, 0.9460000000000001, 0.33, 192.0, 255.0, 160.0, 29.0, 144.0, 10.0, 80.0, 0.0, 0.0, 0.0, 1.730744710418971E9, 0.0, 2024-11-04 15:25:10.418
103.0, -141826.24421432547, -141885.72220632102, -142002.24185016655, -142031.05324876943, 72082.38656310875, 160058.56216651943, -142108.300877607, -142005.75107404604, -0.012, 0.9460000000000001, 0.33, 192.0, 0.0, 0.0, 0.0, 0.0, 0.0, 0.0, 0.0, 0.0, 0.0, 1.7307447104220347E9, 0.0, 2024-11-04 15:25:10.422
104.0, -141829.50756901593, -141889.0302645004, -142005.57226009038, -142034.29425171547, 71550.30328635017, 160054.56120426193, -142111.67599101973, -142009.0144287365, -0.012, 0.9460000000000001, 0.33, 192.0, 0.0, 0.0, 0.0, 0.0, 0.0, 0.0, 0.0, 0.0, 0.0, 1.7307447104259727E9, 0.0, 2024-11-04 15:25:10.425
105.0, -141830.40163879414, -141889.96903776756, -142006.48868161306, -142035.30008021594, 71276.8743964284, 160071.19090213667, -142112.7041712647, -142009.8637950258, -0.012, 0.9460000000000001, 0.33, 192.0, 0.0, 0.0, 0.0, 0.0, 0.0, 0.0, 0.0, 0.0, 0.0, 1.7307447104301476E9, 0.0, 2024-11-04 15:25:10.430
106.0, -141832.30153707284, -141891.8465843018, -142008.25446942504, -142037.08821977238, 70564.88192854905, 160057.75750371904, -142114.38055209882, -142011.5625276044, -0.012, 0.9460000000000001, 0.33, 192.0, 0.0, 0.0, 0.0, 0.0, 0.0, 0.0, 0.0, 0.0, 0.0, 1.7307447104340007E9, 0.0, 2024-11-04 15:25:10.434
107.0, -141836.481313286, -141896.02636051492, -142012.45659738264, -142041.24564424105, 69628.50029808287, 160025.05690158092, -142118.4932730786, -142015.94346951766, -0.012, 0.9460000000000001, 0.33, 192.0, 0.0, 0.0, 0.0, 0.0, 0.0, 0.0, 0.0, 0.0, 0.0, 1.7307447104380412E9, 0.0, 2024-11-04 15:25:10.438
108.0, -141836.81658945282, -141896.3839884262, -142012.8142252939, -142041.60327215234, 69027.05955827946, 160012.02583456348, -142118.82854924543, -142016.27874568448, -0.012, 0.9460000000000001, 0.33, 192.0, 0.0, 0.0, 0.0, 0.0, 0.0, 0.0, 0.0, 0.0, 0.0, 1.730744710442979E9, 0.0, 2024-11-04 15:25:10.442
109.0, -141839.96818542102, -141899.58028788332, -142015.87641428428, -142044.7325163761, 68758.59275562677, 160030.19780280566, -142122.02484870254, -142019.3632864193, -0.012, 0.9460000000000001, 0.33, 192.0, 0.0, 0.0, 0.0, 0.0, 0.0, 0.0, 0.0, 0.0, 0.0, 1.730744710447095E9, 0.0, 2024-11-04 15:25:10.447
110.0, -141841.59986276625, -141901.1449099952, -142017.55279511845, -142046.36419372133, 68155.72150417823, 160024.65457018075, -142123.61182255886, -142020.9726120201, -0.012, 0.9460000000000001, 0.33, 192.0, 0.0, 0.0, 0.0, 0.0, 0.0, 0.0, 0.0, 0.0, 0.0, 1.7307447104500036E9, 0.0, 2024-11-04 15:25:10.450
111.0, -141840.37051682122, -141899.91556405014, -142016.30109742895, -142045.04544079845, 67205.19121947185, 159986.2095697176, -142122.293069636, -142019.8773765418, -0.012, 0.9460000000000001, 0.33, 192.0, 0.0, 0.0, 0.0, 0.0, 0.0, 0.0, 0.0, 0.0, 0.0, 1.7307447104539816E9, 0.0, 2024-11-04 15:25:10.453
112.0, -141841.5328075329, -141901.03315127292, -142017.39633290726, -142046.1853797657, 66535.51060384639, 159968.59639508682, -142123.43300860323, -142020.9726120201, -0.008, 0.9500000000000001, 0.334, 192.0, 255.0, 192.0, 29.0, 176.0, 10.0, 112.0, 0.0, 0.0, 0.0, 1.7307447104580967E9, 0.0, 2024-11-04 15:25:10.458
113.0, -141844.99732792345, -141904.56472689685, -142020.95026027565, -142049.60519666734, 66248.22363236232, 159984.37672667226, -142127.03163946053, -142024.3700771773, -0.008, 0.9500000000000001, 0.334, 192.0, 0.0, 0.0, 0.0, 0.0, 0.0, 0.0, 0.0, 0.0, 0.0, 1.730744710462098E9, 0.0, 2024-11-04 15:25:10.462
114.0, -141845.95845293504, -141905.5482036529, -142021.9784405206, -142050.61102516783, 65752.57369906589, 159985.5166656395, -142127.99276447212, -142025.28649869998, -0.008, 0.9500000000000001, 0.334, 192.0, 0.0, 0.0, 0.0, 0.0, 0.0, 0.0, 0.0, 0.0, 0.0, 1.7307447104660456E9, 0.0, 2024-11-04 15:25:10.466
115.0, -141846.65135701315, -141906.241107731, -142022.5595858764, -142051.30392924594, 64811.833478430926, 159950.08915067784, -142128.52920633904, -142026.13586498928, -0.008, 0.9500000000000001, 0.334, 192.0, 0.0, 0.0, 0.0, 0.0, 0.0, 0.0, 0.0, 0.0, 0.0, 1.7307447104710112E9, 0.0, 2024-11-04 15:25:10.471
116.0, -141846.94192969106, -141906.4422734311, -142022.80545506542, -142051.57215017942, 64074.53883582817, 159926.19513585512, -142128.77507552804, -142026.4264376672, -0.008, 0.9500000000000001, 0.334, 192.0, 0.0, 0.0, 0.0, 0.0, 0.0, 0.0, 0.0, 0.0, 0.0, 1.7307447104743268E9, 0.0, 2024-11-04 15:25:10.474
117.0, -141849.95941519254, -141909.5044624215, -142025.80058882246, -142054.58963568087, 63746.37052373535, 159937.25924936048, -142131.92667149624, -142029.3768679353, -0.008, 0.9500000000000001, 0.334, 192.0, 0.0, 0.0, 0.0, 0.0, 0.0, 0.0, 0.0, 0.0, 0.0, 1.730744710477321E9, 0.0, 2024-11-04 15:25:10.477
118.0, -141850.6299675262, -141910.3538287108, -142026.4264376672, -142055.30489150345, 63346.743684618916, 159944.7023802641, -142132.64192731882, -142030.04742026897, -0.008, 0.9500000000000001, 0.334, 192.0, 0.0, 0.0, 0.0, 0.0, 0.0, 0.0, 0.0, 0.0, 0.0, 1.730744710482132E9, 0.0, 2024-11-04 15:25:10.482
119.0, -141850.7864297374, -141910.37618045523, -142026.4711411561, -142055.26018801454, 62445.11901678074, 159911.8900194037, -142132.48546510763, -142030.15917899122, -0.008, 0.9500000000000001, 0.334, 192.0, 0.0, 0.0, 0.0, 0.0, 0.0, 0.0, 0.0, 0.0, 0.0, 1.7307447104861178E9, 0.0, 2024-11-04 15:25:10.486
120.0, -141852.66397627164, -141912.36548571175, -142028.46044641262, -142057.22714152662, 61653.263765962576, 159885.2914435019, -142134.43006687524, -142032.1708359922, -0.008, 0.9500000000000001, 0.334, 192.0, 0.0, 0.0, 0.0, 0.0, 0.0, 0.0, 0.0, 0.0, 0.0, 1.7307447104900303E9, 0.0, 2024-11-04 15:25:10.490
121.0, -141853.91567396114, -141913.505424679, -142029.6674406132, -142058.41178398274, 61270.22192123198, 159889.5829784373, -142135.72646805365, -142033.35547844833, -0.008, 0.9500000000000001, 0.334, 192.0, 0.0, 0.0, 0.0, 0.0, 0.0, 0.0, 0.0, 0.0, 0.0, 1.7307447104939847E9, 0.0, 2024-11-04 15:25:10.493
122.0, -141856.32966236232, -141915.91941308015, -142032.10378075883, -142060.87047587283, 60951.15076913247, 159904.02220535543, -142138.18515994374, -142035.61300463832, -0.01, 0.9460000000000001, 0.332, 192.0, 255.0, 176.0, 29.0, 144.0, 10.0, 96.0, 0.0, 0.0, 0.0, 1.7307447104990025E9, 0.0, 2024-11-04 15:25:10.499
123.0, -141859.63772054168, -141919.29452649291, -142035.4341906827, -142064.15618230775, 60111.216915990946, 159879.65880389916, -142141.47086637866, -142039.03282154, -0.01, 0.9460000000000001, 0.332, 192.0, 0.0, 0.0, 0.0, 0.0, 0.0, 0.0, 0.0, 0.0, 0.0, 1.730744710502032E9, 0.0, 2024-11-04 15:25:10.502
124.0, -141860.91176997565, -141920.65798290467, -142036.70824011663, -142065.38552825278, 59263.79522845689, 159848.45576863954, -142142.72256406816, -142040.50803667403, -0.01, 0.9460000000000001, 0.332, 192.0, 0.0, 0.0, 0.0, 0.0, 0.0, 0.0, 0.0, 0.0, 0.0, 1.730744710506105E9, 0.0, 2024-11-04 15:25:10.506
125.0, -141861.51526707594, -141921.28383174943, -142037.267033728, -142066.01137709754, 58815.62040038352, 159846.6899808276, -142143.32606116845, -142041.1338855188, -0.01, 0.9460000000000001, 0.332, 192.0, 0.0, 0.0, 0.0, 0.0, 0.0, 0.0, 0.0, 0.0, 0.0, 1.73074471051017E9, 0.0, 2024-11-04 15:25:10.510
126.0, -141863.72808977703, -141923.34019223932, -142039.50220817354, -142068.15714456525, 58556.206054235234, 159864.34785894727, -142145.60593910288, -142043.0784872864, -0.01, 0.9460000000000001, 0.332, 192.0, 0.0, 0.0, 0.0, 0.0, 0.0, 0.0, 0.0, 0.0, 0.0, 1.7307447105142052E9, 0.0, 2024-11-04 15:25:10.514
127.0, -141865.04684269987, -141924.65894516217, -142040.7762576075, -142069.49824923257, 57802.75110039129, 159844.7900825489, -142146.79058155903, -142044.35253672034, -0.01, 0.9460000000000001, 0.332, 192.0, 0.0, 0.0, 0.0, 0.0, 0.0, 0.0, 0.0, 0.0, 0.0, 1.7307447105181754E9, 0.0, 2024-11-04 15:25:10.518
128.0, -141865.27036014444, -141924.99422132902, -142041.0891820299, -142069.81117365495, 56919.8348426622, 159810.07782340978, -142146.96939551466, -142044.8219233539, -0.01, 0.9460000000000001, 0.332, 192.0, 0.0, 0.0, 0.0, 0.0, 0.0, 0.0, 0.0, 0.0, 0.0, 1.7307447105221353E9, 0.0, 2024-11-04 15:25:10.522
129.0, -141867.21496191205, -141926.89411960772, -142043.0337837975, -142071.68872018918, 56407.041121368544, 159803.93109368457, -142148.95870077118, -142046.74417337705, -0.01, 0.9460000000000001, 0.332, 192.0, 0.0, 0.0, 0.0, 0.0, 0.0, 0.0, 0.0, 0.0, 0.0, 1.7307447105271556E9, 0.0, 2024-11-04 15:25:10.527
130.0, -141868.77958402393, -141928.52579695295, -142044.59840590935, -142073.25334230106, 56174.24770286652, 159822.03600669338, -142150.59037811644, -142048.0852780444, -0.01, 0.9460000000000001, 0.332, 192.0, 0.0, 0.0, 0.0, 0.0, 0.0, 0.0, 0.0, 0.0, 0.0, 1.730744710530058E9, 0.0, 2024-11-04 15:25:10.530
131.0, -141871.9311799921, -141931.72209641006, -142047.70529838864, -142076.47199350264, 55520.79445371562, 159812.0671286663, -142153.67491885126, -142051.2815775015, -0.01, 0.9460000000000001, 0.332, 192.0, 0.0, 0.0, 0.0, 0.0, 0.0, 0.0, 0.0, 0.0, 0.0, 1.7307447105331345E9, 0.0, 2024-11-04 15:25:10.533
132.0, -141874.50163060447, -141934.31489876687, -142050.29810074545, -142079.10949934836, 54608.30683807217, 159777.8242561608, -142156.17831423026, -142054.0308420695, -0.008, 0.9560000000000001, 0.328, 192.0, 255.0, 192.0, 29.0, 224.0, 10.0, 64.0, 0.0, 0.0, 0.0, 1.730744710538204E9, 0.0, 2024-11-04 15:25:10.538
133.0, -141874.16635443765, -141934.0019743445, -142050.00752806754, -142078.77422318154, 54022.244098454015, 159763.7650088984, -142155.9547967857, -142053.8296763694, -0.008, 0.9560000000000001, 0.328, 192.0, 0.0, 0.0, 0.0, 0.0, 0.0, 0.0, 0.0, 0.0, 0.0, 1.730744710542225E9, 0.0, 2024-11-04 15:25:10.542
134.0, -141876.55799109436, -141936.37125925676, -142052.35446123534, -142081.12115634934, 53784.42153744955, 159781.4228870181, -142158.3464334424, -142055.97544383712, -0.008, 0.9560000000000001, 0.328, 192.0, 0.0, 0.0, 0.0, 0.0, 0.0, 0.0, 0.0, 0.0, 0.0, 1.73074471054617E9, 0.0, 2024-11-04 15:25:10.546
135.0, -141877.56381959486, -141937.42179124616, -142053.3379379914, -142082.10463310537, 53237.69786807273, 159777.1760555716, -142159.32991019846, -142056.86951361533, -0.008, 0.9560000000000001, 0.328, 192.0, 0.0, 0.0, 0.0, 0.0, 0.0, 0.0, 0.0, 0.0, 0.0, 1.730744710550078E9, 0.0, 2024-11-04 15:25:10.550
136.0, -141878.41318588416, -141938.36056451328, -142054.14260079176, -142082.90929590576, 52320.091702949016, 159741.16739525407, -142160.02281427657, -142057.87534211582, -0.008, 0.9560000000000001, 0.328, 192.0, 0.0, 0.0, 0.0, 0.0, 0.0, 0.0, 0.0, 0.0, 0.0, 1.730744710555066E9, 0.0, 2024-11-04 15:25:10.555
137.0, -141878.70375856207, -141938.58408195784, -142054.4778769586, -142083.2892755615, 51664.98442470842, 159721.94489502252, -142160.42514567677, -142058.27767351602, -0.008, 0.9560000000000001, 0.328, 192.0, 0.0, 0.0, 0.0, 0.0, 0.0, 0.0, 0.0, 0.0, 0.0, 1.7307447105582528E9, 0.0, 2024-11-04 15:25:10.558
138.0, -141880.5813050963, -141940.41692500317, -142056.28836825947, -142085.14447035128, 51399.445700579374, 159735.82532832926, -142162.39209918882, -142060.06581307243, -0.008, 0.9560000000000001, 0.328, 192.0, 0.0, 0.0, 0.0, 0.0, 0.0, 0.0, 0.0, 0.0, 0.0, 1.730744710561139E9, 0.0, 2024-11-04 15:25:10.561
139.0, -141883.0847004753, -141942.92032038217, -142058.79176363847, -142087.5808104969, 50953.95308184065, 159740.18391849805, -142164.78373584556, -142062.45744972915, -0.008, 0.9560000000000001, 0.328, 192.0, 0.0, 0.0, 0.0, 0.0, 0.0, 0.0, 0.0, 0.0, 0.0, 1.730744710566068E9, 0.0, 2024-11-04 15:25:10.566
