%OpenBCI Raw EXG Data
%Number of channels = 8
%Sample Rate = 250 Hz
%Board = OpenBCI_GUI$BoardCytonSerial
Sample Index, EXG Channel 0, EXG Channel 1, EXG Channel 2, EXG Channel 3, EXG Channel 4, EXG Channel 5, EXG Channel 6, EXG Channel 7, Accel Channel 0, Accel Channel 1, Accel Channel 2, Not Used, Digital Channel 0 (D11), Digital Channel 1 (D12), Digital Channel 2 (D13), Digital Channel 3 (D17), Not Used, Digital Channel 4 (D18), Analog Channel 0, Analog Channel 1, Analog Channel 2, Timestamp, Marker Channel, Timestamp (Formatted)
214.0, -120616.47273498449, -113437.58415431788, -114770.55278665457, -114468.96069871912, -120807.42368786618, -112680.53056961663, -120905.92782568072, -113917.94549440689, 0.0, 0.0, 0.0, 192.0, 0.0, 0.0, 0.0, 0.0, 0.0, 0.0, 0.0, 0.0, 0.0, 1.7307448282856307E9, 0.0, 2024-11-04 15:27:08.285
215.0, -120617.23269429598, -112745.68590470385, -114458.94711720313, -114155.61159320017, -120808.18364717766, -112586.89911209335, -120906.62072975884, -113729.341474693, -0.062, 0.886, 0.49, 192.0, 254.0, 16.0, 27.0, 176.0, 15.0, 80.0, 0.0, 0.0, 0.0, 1.7307448282856867E9, 0.0, 2024-11-04 15:27:08.285
0.0, 0.0, 0.0, 0.0, 0.0, 0.0, 0.0, 0.0, 0.0, -0.06, 0.886, 0.486, 192.0, 254.0, 32.0, 27.0, 176.0, 15.0, 48.0, 0.0, 0.0, 0.0, 1.730744828378435E9, 0.0, 2024-11-04 15:27:08.378
1.0, -120540.72267302546, -112669.01942122215, -114374.1445987397, -114284.44704824056, -120730.13135553974, -112392.4836388211, -120828.45667939863, -113648.0705318535, -0.06, 0.886, 0.486, 192.0, 0.0, 0.0, 0.0, 0.0, 0.0, 0.0, 0.0, 0.0, 0.0, 1.730744828396253E9, 0.0, 2024-11-04 15:27:08.396
2.0, -120540.49915558091, -113213.59732313125, -114636.21880247818, -114564.20148184318, -120730.08665205081, -112496.97804414966, -120829.03782475446, -113775.00608861519, -0.06, 0.886, 0.486, 192.0, 0.0, 0.0, 0.0, 0.0, 0.0, 0.0, 0.0, 0.0, 0.0, 1.7307448283991768E9, 0.0, 2024-11-04 15:27:08.399
3.0, -120540.49915558091, -112307.09997500182, -114179.68442197853, -114111.77982232331, -120729.70667239508, -112365.61684198581, -120827.24968519804, -113510.18262030873, -0.06, 0.886, 0.486, 192.0, 0.0, 0.0, 0.0, 0.0, 0.0, 0.0, 0.0, 0.0, 0.0, 1.7307448284024467E9, 0.0, 2024-11-04 15:27:08.402
4.0, -120539.58273405823, -111643.52138561266, -113781.3539840405, -113642.66140969533, -120728.20910551658, -112113.2656470854, -120824.61217935232, -113318.49405986001, -0.06, 0.886, 0.486, 192.0, 0.0, 0.0, 0.0, 0.0, 0.0, 0.0, 0.0, 0.0, 0.0, 1.7307448284061291E9, 0.0, 2024-11-04 15:27:08.406
5.0, -120537.66048403508, -112490.02665162405, -114260.08364678427, -114088.33284238969, -120726.57742817134, -112347.93661212166, -120824.34395841885, -113576.2096734297, -0.06, 0.886, 0.486, 192.0, 0.0, 0.0, 0.0, 0.0, 0.0, 0.0, 0.0, 0.0, 0.0, 1.730744828409181E9, 0.0, 2024-11-04 15:27:08.409
6.0, -120537.72753926845, -113270.66132672565, -114676.65310819783, -114472.7157917876, -120726.91270433816, -112474.96157586118, -120825.6180078528, -113795.2120656028, -0.06, 0.886, 0.486, 192.0, 0.0, 0.0, 0.0, 0.0, 0.0, 0.0, 0.0, 0.0, 0.0, 1.7307448284132483E9, 0.0, 2024-11-04 15:27:08.413
7.0, -120540.00741720288, -112456.81195936346, -114299.28860655888, -114097.184133194, -120729.28198925043, -112405.09002269388, -120827.09322298685, -113568.67713554826, -0.06, 0.886, 0.486, 192.0, 0.0, 0.0, 0.0, 0.0, 0.0, 0.0, 0.0, 0.0, 0.0, 1.7307448284173672E9, 0.0, 2024-11-04 15:27:08.417
8.0, -120539.47097533596, -111636.34647564251, -113804.2645221072, -113522.02904487003, -120727.87382934974, -112123.34628383473, -120824.1204409743, -113325.55721110788, -0.056, 0.896, 0.492, 192.0, 254.0, 64.0, 28.0, 0.0, 15.0, 96.0, 0.0, 0.0, 0.0, 1.73074482842118E9, 0.0, 2024-11-04 15:27:08.421
9.0, -120534.62064678916, -112197.03998530388, -114113.41149966855, -113948.81325349967, -120723.4928874365, -112285.19526543561, -120820.9688450061, -113495.7880968795, -0.056, 0.896, 0.492, 192.0, 0.0, 0.0, 0.0, 0.0, 0.0, 0.0, 0.0, 0.0, 0.0, 1.7307448284253745E9, 0.0, 2024-11-04 15:27:08.425
10.0, -120531.24553337641, -113194.50893336642, -114650.38980846285, -114577.41136281626, -120720.76597461295, -112452.9451075727, -120819.65009208323, -113777.21891131627, -0.056, 0.896, 0.492, 192.0, 0.0, 0.0, 0.0, 0.0, 0.0, 0.0, 0.0, 0.0, 0.0, 1.7307448284291916E9, 0.0, 2024-11-04 15:27:08.429
11.0, -120533.86068747767, -112665.30903164257, -114371.41768591615, -114298.30512980284, -120723.2470182475, -112418.14344145579, -120821.30412117293, -113602.00358653112, -0.056, 0.896, 0.492, 192.0, 0.0, 0.0, 0.0, 0.0, 0.0, 0.0, 0.0, 0.0, 0.0, 1.7307448284343584E9, 0.0, 2024-11-04 15:27:08.434
12.0, -120534.48653632242, -111729.68736048786, -113842.79892954814, -113727.30746594757, -120722.93409382513, -112137.24906888594, -120819.73949906106, -113338.81179556988, -0.056, 0.896, 0.492, 192.0, 0.0, 0.0, 0.0, 0.0, 0.0, 0.0, 0.0, 0.0, 0.0, 1.7307448284373908E9, 0.0, 2024-11-04 15:27:08.437
13.0, -120532.47487932145, -112028.70899781097, -114000.28932098024, -113827.24211540725, -120721.12360252424, -112215.92720936862, -120818.55485660493, -113436.86889849532, -0.056, 0.896, 0.492, 192.0, 0.0, 0.0, 0.0, 0.0, 0.0, 0.0, 0.0, 0.0, 0.0, 1.7307448284414847E9, 0.0, 2024-11-04 15:27:08.441
14.0, -120531.51375430987, -113176.35931686871, -114627.47927039616, -114425.75477668701, -120720.58716065732, -112441.32220045594, -120819.42657463868, -113771.92154788037, -0.056, 0.896, 0.492, 192.0, 0.0, 0.0, 0.0, 0.0, 0.0, 0.0, 0.0, 0.0, 0.0, 1.73074482844548E9, 0.0, 2024-11-04 15:27:08.445
15.0, -120533.3018938663, -112828.72263535531, -114477.40965812322, -114265.96215557602, -120722.95644556958, -112447.40187494778, -120821.23706593957, -113666.10838962893, -0.056, 0.896, 0.492, 192.0, 0.0, 0.0, 0.0, 0.0, 0.0, 0.0, 0.0, 0.0, 0.0, 1.7307448284491732E9, 0.0, 2024-11-04 15:27:08.449
16.0, -120533.25719037738, -111824.30229476719, -113923.75694796526, -113671.11518038693, -120721.90591358018, -112189.59685440027, -120818.53250486047, -113376.04980183243, -0.056, 0.896, 0.492, 192.0, 0.0, 0.0, 0.0, 0.0, 0.0, 0.0, 0.0, 0.0, 0.0, 1.730744828453379E9, 0.0, 2024-11-04 15:27:08.453
17.0, -120531.08907116522, -111817.12738479703, -113882.2274067673, -113641.05208409454, -120719.64838739019, -112158.19265344056, -120816.40908913722, -113371.46769421909, -0.056, 0.896, 0.492, 192.0, 0.0, 0.0, 0.0, 0.0, 0.0, 0.0, 0.0, 0.0, 0.0, 1.7307448284571865E9, 0.0, 2024-11-04 15:27:08.457
18.0, -120527.08810890772, -112969.53862542375, -114536.32885650742, -114468.31249812992, -120716.65325363318, -112424.11135722535, -120815.20209493663, -113717.20447745378, -0.064, 0.886, 0.49, 192.0, 254.0, 0.0, 27.0, 176.0, 15.0, 80.0, 0.0, 0.0, 0.0, 1.7307448284622645E9, 0.0, 2024-11-04 15:27:08.462
19.0, -120527.42338507455, -112996.6736431925, -114527.99165582558, -114456.64488752423, -120716.9438263111, -112450.1958430047, -120815.47031587009, -113690.15886666285, -0.064, 0.886, 0.49, 192.0, 0.0, 0.0, 0.0, 0.0, 0.0, 0.0, 0.0, 0.0, 0.0, 1.7307448284653635E9, 0.0, 2024-11-04 15:27:08.465
20.0, -120531.02201593186, -111989.63814850309, -113994.32140521066, -113914.61508448304, -120719.71544262355, -112232.6910177101, -120816.67731007068, -113405.57645625788, -0.064, 0.886, 0.49, 192.0, 0.0, 0.0, 0.0, 0.0, 0.0, 0.0, 0.0, 0.0, 0.0, 1.7307448284694214E9, 0.0, 2024-11-04 15:27:08.469
21.0, -120529.85972522017, -111720.74666270574, -113817.85438273603, -113659.67108722581, -120718.15082051168, -112107.8118214383, -120815.00092923653, -113334.9002402902, -0.064, 0.886, 0.49, 192.0, 0.0, 0.0, 0.0, 0.0, 0.0, 0.0, 0.0, 0.0, 0.0, 1.7307448284733293E9, 0.0, 2024-11-04 15:27:08.473
22.0, -120527.08810890772, -112860.61857469304, -114454.87909971227, -114275.23812952497, -120715.87094257724, -112391.92484520971, -120814.35272864733, -113675.67493625582, -0.064, 0.886, 0.49, 192.0, 0.0, 0.0, 0.0, 0.0, 0.0, 0.0, 0.0, 0.0, 0.0, 1.73074482847725E9, 0.0, 2024-11-04 15:27:08.477
23.0, -120529.85972522017, -113125.26322904388, -114602.11004043938, -114396.92102633967, -120718.82137284534, -112471.51940721506, -120817.59373159334, -113737.99159979721, -0.064, 0.886, 0.49, 192.0, 0.0, 0.0, 0.0, 0.0, 0.0, 0.0, 0.0, 0.0, 0.0, 1.7307448284814017E9, 0.0, 2024-11-04 15:27:08.481
24.0, -120527.98217868594, -112120.8652402002, -114103.01793849682, -113892.7774301502, -120716.63090188873, -112295.52177137397, -120813.8162867804, -113455.1302737153, -0.064, 0.886, 0.49, 192.0, 0.0, 0.0, 0.0, 0.0, 0.0, 0.0, 0.0, 0.0, 0.0, 1.730744828485412E9, 0.0, 2024-11-04 15:27:08.485
25.0, -120526.01522517386, -111618.3980248449, -113772.52504498066, -113484.52281767402, -120714.28396872092, -112084.83422813825, -120810.6646908122, -113306.66998704315, -0.064, 0.886, 0.49, 192.0, 0.0, 0.0, 0.0, 0.0, 0.0, 0.0, 0.0, 0.0, 0.0, 1.730744828490435E9, 0.0, 2024-11-04 15:27:08.490
26.0, -120520.87432394915, -112608.24502804817, -114322.44501381458, -114208.11584092569, -120709.52304715193, -112347.93661212166, -120807.58015007737, -113596.37094692838, -0.064, 0.886, 0.49, 192.0, 0.0, 0.0, 0.0, 0.0, 0.0, 0.0, 0.0, 0.0, 0.0, 1.730744828493425E9, 0.0, 2024-11-04 15:27:08.493
27.0, -120521.52252453835, -113171.28547087735, -114625.44526165072, -114538.85460363085, -120710.48417216352, -112455.26968899605, -120809.3682896338, -113747.75931212418, -0.064, 0.886, 0.49, 192.0, 0.0, 0.0, 0.0, 0.0, 0.0, 0.0, 0.0, 0.0, 0.0, 1.7307448284962993E9, 0.0, 2024-11-04 15:27:08.496
28.0, -120522.84127746121, -112260.00484943448, -114190.45796280599, -114103.50967687485, -120711.71351810856, -112335.71020790462, -120809.25653091152, -113493.75408813407, -0.062, 0.886, 0.486, 192.0, 254.0, 16.0, 27.0, 176.0, 15.0, 48.0, 0.0, 0.0, 0.0, 1.7307448285014532E9, 0.0, 2024-11-04 15:27:08.501
29.0, -120522.97538792795, -111579.8859691484, -113773.77674267016, -113616.84514484945, -120711.13237275272, -112076.6087861787, -120807.69190879965, -113300.81382999585, -0.062, 0.886, 0.486, 192.0, 0.0, 0.0, 0.0, 0.0, 0.0, 0.0, 0.0, 0.0, 0.0, 1.730744828505331E9, 0.0, 2024-11-04 15:27:08.505
30.0, -120519.93555068203, -112337.34188524984, -114206.39475660262, -114020.62940843457, -120708.69603260708, -112306.36236743479, -120806.68608029916, -113533.96487640917, -0.062, 0.886, 0.486, 192.0, 0.0, 0.0, 0.0, 0.0, 0.0, 0.0, 0.0, 0.0, 0.0, 1.7307448285092561E9, 0.0, 2024-11-04 15:27:08.509
31.0, -120518.28152159233, -113197.25819793442, -114654.03314280906, -114436.57302100338, -120707.66785236215, -112454.1968052622, -120806.68608029916, -113766.26655653317, -0.062, 0.886, 0.486, 192.0, 0.0, 0.0, 0.0, 0.0, 0.0, 0.0, 0.0, 0.0, 0.0, 1.7307448285134015E9, 0.0, 2024-11-04 15:27:08.513
32.0, -120520.6508065046, -112513.11600364638, -114298.59570248077, -114079.66036554103, -120709.67950936312, -112383.9229206947, -120807.64720531073, -113548.82878647195, -0.062, 0.886, 0.486, 192.0, 0.0, 0.0, 0.0, 0.0, 0.0, 0.0, 0.0, 0.0, 0.0, 1.7307448285163383E9, 0.0, 2024-11-04 15:27:08.516
33.0, -120519.53321928183, -111656.59715611901, -113788.73005971075, -113492.88237010031, -120707.60079712878, -112093.46200149799, -120804.18268492016, -113304.993606209, -0.062, 0.886, 0.486, 192.0, 0.0, 0.0, 0.0, 0.0, 0.0, 0.0, 0.0, 0.0, 0.0, 1.730744828520425E9, 0.0, 2024-11-04 15:27:08.520
34.0, -120515.97929191343, -112160.15960695263, -114049.70902797092, -113873.39846770746, -120704.33744243831, -112242.25756433698, -120801.92515873017, -113453.40918939225, -0.062, 0.886, 0.486, 192.0, 0.0, 0.0, 0.0, 0.0, 0.0, 0.0, 0.0, 0.0, 0.0, 1.7307448285244803E9, 0.0, 2024-11-04 15:27:08.524
35.0, -120515.33109132423, -113207.8752765507, -114616.52691561305, -114543.05673158845, -120704.0468697604, -112441.67982836723, -120802.93098723066, -113751.2014807703, -0.062, 0.886, 0.486, 192.0, 0.0, 0.0, 0.0, 0.0, 0.0, 0.0, 0.0, 0.0, 0.0, 1.7307448285293672E9, 0.0, 2024-11-04 15:27:08.529
36.0, -120515.95694016898, -112652.03209543611, -114373.18347372813, -114294.93001639009, -120705.03034651642, -112413.11429895334, -120803.19920816412, -113591.94530152623, -0.062, 0.886, 0.486, 192.0, 0.0, 0.0, 0.0, 0.0, 0.0, 0.0, 0.0, 0.0, 0.0, 1.730744828534241E9, 0.0, 2024-11-04 15:27:08.534
37.0, -120515.55460876878, -111704.87692414247, -113833.7241212993, -113724.46879440175, -120703.82335231583, -112126.31906584729, -120800.40524010721, -113321.69035931712, -0.062, 0.886, 0.486, 192.0, 0.0, 0.0, 0.0, 0.0, 0.0, 0.0, 0.0, 0.0, 0.0, 1.7307448285393598E9, 0.0, 2024-11-04 15:27:08.539
38.0, -120513.83352444573, -111918.91722904649, -113931.84827945809, -113773.37441126996, -120702.28108194841, -112181.5278746519, -120799.55587381791, -113396.12166835328, -0.052000000000000005, 0.886, 0.492, 192.0, 254.0, 96.0, 27.0, 176.0, 15.0, 96.0, 0.0, 0.0, 0.0, 1.7307448285424218E9, 0.0, 2024-11-04 15:27:08.542
39.0, -120512.64888198959, -113059.70556255647, -114572.40457205828, -114384.73932561152, -120701.90110229267, -112432.06857825143, -120800.7628680185, -113734.21415498426, -0.052000000000000005, 0.886, 0.492, 192.0, 0.0, 0.0, 0.0, 0.0, 0.0, 0.0, 0.0, 0.0, 0.0, 1.7307448285454195E9, 0.0, 2024-11-04 15:27:08.545
40.0, -120514.1464488681, -112878.87994991303, -114457.02486717998, -114254.27219322589, -120703.24220696, -112442.10451151188, -120801.63458605226, -113643.66723819582, -0.052000000000000005, 0.886, 0.492, 192.0, 0.0, 0.0, 0.0, 0.0, 0.0, 0.0, 0.0, 0.0, 0.0, 1.730744828548267E9, 0.0, 2024-11-04 15:27:08.548
41.0, -120515.15227736859, -111864.3566208311, -113913.07281411563, -113667.44949429626, -120703.35396568227, -112178.35392693925, -120800.09231568484, -113359.46480744658, -0.052000000000000005, 0.886, 0.492, 192.0, 0.0, 0.0, 0.0, 0.0, 0.0, 0.0, 0.0, 0.0, 0.0, 1.7307448285522745E9, 0.0, 2024-11-04 15:27:08.552
42.0, -120512.40301280058, -111779.59880585657, -113836.16046144492, -113579.47302812018, -120700.47059064754, -112121.98282742297, -120797.29834762793, -113334.14028097873, -0.052000000000000005, 0.886, 0.492, 192.0, 0.0, 0.0, 0.0, 0.0, 0.0, 0.0, 0.0, 0.0, 0.0, 1.7307448285565016E9, 0.0, 2024-11-04 15:27:08.556
43.0, -120509.40787904357, -112958.2062909849, -114484.33869890436, -114411.96375035809, -120697.90014003518, -112411.23675241909, -120796.44898133863, -113677.41837232333, -0.052000000000000005, 0.886, 0.492, 192.0, 0.0, 0.0, 0.0, 0.0, 0.0, 0.0, 0.0, 0.0, 0.0, 1.7307448285614378E9, 0.0, 2024-11-04 15:27:08.561
44.0, -120510.57016975524, -112987.420020988, -114519.5873999104, -114443.92674492917, -120699.4871138915, -112442.39508418979, -120798.03595519495, -113675.36201183344, -0.052000000000000005, 0.886, 0.492, 192.0, 0.0, 0.0, 0.0, 0.0, 0.0, 0.0, 0.0, 0.0, 0.0, 1.7307448285653768E9, 0.0, 2024-11-04 15:27:08.565
45.0, -120512.33595756722, -111971.71204944994, -113998.52353316826, -113912.80459318217, -120700.738811581, -112233.45097702158, -120797.76773426149, -113391.29369155093, -0.052000000000000005, 0.886, 0.492, 192.0, 0.0, 0.0, 0.0, 0.0, 0.0, 0.0, 0.0, 0.0, 0.0, 1.7307448285693264E9, 0.0, 2024-11-04 15:27:08.569
46.0, -120510.68192847753, -111637.352304143, -113777.28596654964, -113616.12988902688, -120698.77185806894, -112082.28612927035, -120795.57726330488, -113299.96446370655, -0.052000000000000005, 0.886, 0.492, 192.0, 0.0, 0.0, 0.0, 0.0, 0.0, 0.0, 0.0, 0.0, 0.0, 1.7307448285733871E9, 0.0, 2024-11-04 15:27:08.573
47.0, -120508.33499530972, -112742.82488141357, -114394.12705828274, -114213.74848052842, -120696.80490455686, -112366.33209780838, -120795.21963539359, -113630.68087466728, -0.052000000000000005, 0.886, 0.492, 192.0, 0.0, 0.0, 0.0, 0.0, 0.0, 0.0, 0.0, 0.0, 0.0, 1.7307448285764108E9, 0.0, 2024-11-04 15:27:08.576
48.0, -120509.98902439942, -113087.42172568104, -114589.32484261095, -114381.4983226655, -120698.72715458002, -112448.83238659291, -120797.49951332803, -113719.68552108831, -0.05, 0.88, 0.49, 192.0, 254.0, 112.0, 27.0, 128.0, 15.0, 80.0, 0.0, 0.0, 0.0, 1.730744828580489E9, 0.0, 2024-11-04 15:27:08.580
49.0, -120511.10661162218, -112111.8127836958, -114105.431926898, -113892.50920921675, -120699.53181738041, -112288.0562887259, -120796.8066092499, -113447.41892187821, -0.05, 0.88, 0.49, 192.0, 0.0, 0.0, 0.0, 0.0, 0.0, 0.0, 0.0, 0.0, 0.0, 1.7307448285854623E9, 0.0, 2024-11-04 15:27:08.585
50.0, -120509.20671334348, -111549.82287285602, -113745.68059988983, -113441.16043343073, -120697.1401807237, -112056.15694000208, -120793.47619932608, -113282.86537919825, -0.05, 0.88, 0.49, 192.0, 0.0, 0.0, 0.0, 0.0, 0.0, 0.0, 0.0, 0.0, 0.0, 1.730744828589425E9, 0.0, 2024-11-04 15:27:08.589
51.0, -120504.42344003003, -112425.11718572585, -114256.46266418252, -114139.04895055879, -120693.1839219551, -112322.18740250915, -120791.03985918044, -113549.38758008333, -0.05, 0.88, 0.49, 192.0, 0.0, 0.0, 0.0, 0.0, 0.0, 0.0, 0.0, 0.0, 0.0, 1.7307448285935197E9, 0.0, 2024-11-04 15:27:08.593
52.0, -120501.54006499531, -113036.43739657849, -114595.85155199189, -114519.45328944366, -120691.19461669859, -112438.46117716565, -120790.10108591332, -113717.87502978744, -0.05, 0.88, 0.49, 192.0, 0.0, 0.0, 0.0, 0.0, 0.0, 0.0, 0.0, 0.0, 0.0, 1.730744828597469E9, 0.0, 2024-11-04 15:27:08.597
53.0, -120504.57990224122, -112470.13359905883, -114174.61057598717, -114098.34642390566, -120693.1839219551, -112313.33611170485, -120790.92810045817, -113466.86493955433, -0.05, 0.88, 0.49, 192.0, 0.0, 0.0, 0.0, 0.0, 0.0, 0.0, 0.0, 0.0, 0.0, 1.7307448286008208E9, 0.0, 2024-11-04 15:27:08.600
54.0, -120505.80924818627, -111803.06813753465, -113737.14223350791, -113583.31752816649, -120693.63095684421, -112030.9441722565, -120790.32460335788, -113257.80907366384, -0.05, 0.88, 0.49, 192.0, 0.0, 0.0, 0.0, 0.0, 0.0, 0.0, 0.0, 0.0, 0.0, 1.730744828605481E9, 0.0, 2024-11-04 15:27:08.605
55.0, -120501.42830627302, -112500.10728837339, -114124.29679921828, -113932.2953143472, -120689.56293935335, -112259.33429710082, -120787.37417308977, -113470.24005296708, -0.05, 0.88, 0.49, 192.0, 0.0, 0.0, 0.0, 0.0, 0.0, 0.0, 0.0, 0.0, 0.0, 1.7307448286105356E9, 0.0, 2024-11-04 15:27:08.610
56.0, -120500.35542253917, -113418.65222676424, -114617.17511620226, -114394.75290712749, -120688.26653817494, -112440.04815102198, -120787.17300738968, -113728.8944398039, -0.05, 0.88, 0.49, 192.0, 0.0, 0.0, 0.0, 0.0, 0.0, 0.0, 0.0, 0.0, 0.0, 1.7307448286144168E9, 0.0, 2024-11-04 15:27:08.614
57.0, -120500.53423649482, -112693.33811918952, -114296.06995535732, -114074.49711257186, -120689.04884923088, -112370.48952227707, -120786.94948994512, -113531.84146068592, -0.05, 0.88, 0.49, 192.0, 0.0, 0.0, 0.0, 0.0, 0.0, 0.0, 0.0, 0.0, 0.0, 1.7307448286185904E9, 0.0, 2024-11-04 15:27:08.618
58.0, -120502.41178302906, -111754.74366602227, -113779.18586482834, -113475.15743674725, -120690.36760215374, -112063.24244299442, -120786.90478645622, -113281.6360332532, -0.05, 0.882, 0.492, 192.0, 254.0, 112.0, 27.0, 144.0, 15.0, 96.0, 0.0, 0.0, 0.0, 1.7307448286245403E9, 0.0, 2024-11-04 15:27:08.624
59.0, -120499.52840799432, -112161.76893255342, -113989.42637317495, -113790.24997833371, -120687.64068933019, -112185.2829677204, -120785.07194341088, -113408.07985163688, -0.05, 0.882, 0.492, 192.0, 0.0, 0.0, 0.0, 0.0, 0.0, 0.0, 0.0, 0.0, 0.0, 1.7307448286274703E9, 0.0, 2024-11-04 15:27:08.627
60.0, -120497.15912308206, -113260.62539346522, -114579.75829598408, -114506.73514684859, -120685.24905267348, -112424.4913368811, -120784.06611491038, -113719.57376236604, -0.05, 0.882, 0.492, 192.0, 0.0, 0.0, 0.0, 0.0, 0.0, 0.0, 0.0, 0.0, 0.0, 1.7307448286306396E9, 0.0, 2024-11-04 15:27:08.630
61.0, -120497.22617831542, -112776.82188473009, -114374.03284001743, -114295.10883034574, -120685.7854945404, -112399.45738309114, -120784.04376316593, -113580.6576705763, -0.05, 0.882, 0.492, 192.0, 0.0, 0.0, 0.0, 0.0, 0.0, 0.0, 0.0, 0.0, 0.0, 1.7307448286343808E9, 0.0, 2024-11-04 15:27:08.634
62.0, -120497.87437890463, -111776.29074767718, -113836.83101377857, -113723.68648334581, -120685.74079105149, -112108.43767028305, -120782.43443756514, -113307.56405682136, -0.05, 0.882, 0.492, 192.0, 0.0, 0.0, 0.0, 0.0, 0.0, 0.0, 0.0, 0.0, 0.0, 1.7307448286375206E9, 0.0, 2024-11-04 15:27:08.637
63.0, -120496.73443993741, -111903.91920851699, -113891.05634582715, -113716.0421867421, -120684.66790731763, -112135.39387409615, -120781.71918174258, -113351.5075864205, -0.05, 0.882, 0.492, 192.0, 0.0, 0.0, 0.0, 0.0, 0.0, 0.0, 0.0, 0.0, 0.0, 1.7307448286407695E9, 0.0, 2024-11-04 15:27:08.640
64.0, -120495.32628003672, -113091.82501933874, -114540.30746702045, -114343.07567394682, -120683.46091311704, -112414.45540362065, -120782.21092012059, -113698.3396051335, -0.05, 0.882, 0.492, 192.0, 0.0, 0.0, 0.0, 0.0, 0.0, 0.0, 0.0, 0.0, 0.0, 1.730744828645359E9, 0.0, 2024-11-04 15:27:08.645
65.0, -120497.22617831542, -112894.392060565, -114469.54184407495, -114255.99327754894, -120685.71843930703, -112433.14146198529, -120784.20022537712, -113633.49719446865, -0.05, 0.882, 0.492, 192.0, 0.0, 0.0, 0.0, 0.0, 0.0, 0.0, 0.0, 0.0, 0.0, 1.7307448286493556E9, 0.0, 2024-11-04 15:27:08.649
66.0, -120497.82967541572, -111869.653984267, -113928.45081430089, -113677.88775895689, -120685.76314279594, -112175.96229028254, -120782.52384454297, -113346.8584235738, -0.05, 0.882, 0.492, 192.0, 0.0, 0.0, 0.0, 0.0, 0.0, 0.0, 0.0, 0.0, 0.0, 1.7307448286523247E9, 0.0, 2024-11-04 15:27:08.652
67.0, -120494.43221025851, -111702.32882527457, -113802.3646238285, -113527.92990540623, -120682.41038112764, -112084.61071069368, -120779.08167589686, -113298.13162066122, -0.05, 0.882, 0.492, 192.0, 0.0, 0.0, 0.0, 0.0, 0.0, 0.0, 0.0, 0.0, 0.0, 1.730744828656364E9, 0.0, 2024-11-04 15:27:08.656
68.0, -120491.2359108014, -112835.94224881438, -114443.18913736215, -114369.07075274835, -120680.08579970429, -112383.25236836105, -120778.56758577438, -113636.53703171457, -0.05, 0.878, 0.486, 192.0, 254.0, 112.0, 27.0, 112.0, 15.0, 48.0, 0.0, 0.0, 0.0, 1.730744828660493E9, 0.0, 2024-11-04 15:27:08.660
69.0, -120492.2417393019, -113041.01950419182, -114525.84588835787, -114451.6157450218, -120680.95751773806, -112432.15798522926, -120779.59576601932, -113659.4252180368, -0.05, 0.878, 0.486, 192.0, 0.0, 0.0, 0.0, 0.0, 0.0, 0.0, 0.0, 0.0, 0.0, 1.7307448286644764E9, 0.0, 2024-11-04 15:27:08.664
70.0, -120493.64989920259, -112040.57777411674, -114013.11922229758, -113933.7928812257, -120681.85158751627, -112226.47723275152, -120778.8581584523, -113379.38021175626, -0.05, 0.878, 0.486, 192.0, 0.0, 0.0, 0.0, 0.0, 0.0, 0.0, 0.0, 0.0, 0.0, 1.7307448286684384E9, 0.0, 2024-11-04 15:27:08.668
71.0, -120490.92298637904, -111620.83436499053, -113748.96630632477, -113593.75579282711, -120678.67763980362, -112046.47863465294, -120775.259527595, -113265.56512898984, -0.05, 0.878, 0.486, 192.0, 0.0, 0.0, 0.0, 0.0, 0.0, 0.0, 0.0, 0.0, 0.0, 1.7307448286734915E9, 0.0, 2024-11-04 15:27:08.673
72.0, -120487.190245055, -112683.97273826275, -114343.00861871346, -114166.2510235609, -120675.19076766858, -112328.75881537901, -120773.42668454966, -113581.03765023204, -0.05, 0.878, 0.486, 192.0, 0.0, 0.0, 0.0, 0.0, 0.0, 0.0, 0.0, 0.0, 0.0, 1.7307448286773393E9, 0.0, 2024-11-04 15:27:08.677
73.0, -120487.54787296629, -113134.96388613748, -114585.77091524255, -114380.02310753145, -120676.04013395788, -112433.99082827459, -120774.79014096143, -113697.35612837746, -0.05, 0.878, 0.486, 192.0, 0.0, 0.0, 0.0, 0.0, 0.0, 0.0, 0.0, 0.0, 0.0, 1.7307448286804013E9, 0.0, 2024-11-04 15:27:08.680
74.0, -120488.95603286696, -112176.34226993826, -114122.24043872839, -113912.53637224871, -120677.31418339183, -112283.78710553494, -120774.6560304947, -113434.29844788295, -0.05, 0.878, 0.486, 192.0, 0.0, 0.0, 0.0, 0.0, 0.0, 0.0, 0.0, 0.0, 0.0, 1.7307448286843922E9, 0.0, 2024-11-04 15:27:08.684
75.0, -120489.7383439229, -111546.78303561009, -113718.43382339881, -113429.87280248081, -120677.42594211412, -112030.9888757454, -120773.98547816105, -113259.0831230978, -0.05, 0.878, 0.486, 192.0, 0.0, 0.0, 0.0, 0.0, 0.0, 0.0, 0.0, 0.0, 0.0, 1.7307448286884282E9, 0.0, 2024-11-04 15:27:08.688
76.0, -120484.440980487, -112379.81019971494, -114190.56972152827, -114087.46112435593, -120672.86618624523, -112287.29632941441, -120770.83388219285, -113511.56842846495, -0.05, 0.878, 0.486, 192.0, 0.0, 0.0, 0.0, 0.0, 0.0, 0.0, 0.0, 0.0, 0.0, 1.7307448286924124E9, 0.0, 2024-11-04 15:27:08.692
77.0, -120482.45167523048, -113153.3593718242, -114585.59210128691, -114526.89642034727, -120671.39097111118, -112425.56422061495, -120770.252736837, -113710.29778841708, -0.05, 0.878, 0.486, 192.0, 0.0, 0.0, 0.0, 0.0, 0.0, 0.0, 0.0, 0.0, 0.0, 1.7307448286964178E9, 0.0, 2024-11-04 15:27:08.696
78.0, -120484.57509095373, -112398.04922319046, -114197.34230009823, -114139.31717149225, -120673.08970368978, -112325.33899847735, -120770.72212347056, -113476.94557630368, -0.048, 0.88, 0.486, 192.0, 254.0, 128.0, 27.0, 128.0, 15.0, 48.0, 0.0, 0.0, 0.0, 1.7307448287024393E9, 0.0, 2024-11-04 15:27:08.702
79.0, -120487.05613458826, -111592.84998093249, -113728.849736315, -113608.75381335663, -120674.65432580166, -112037.06855023725, -120771.07975138185, -113254.4339602511, -0.048, 0.88, 0.486, 192.0, 0.0, 0.0, 0.0, 0.0, 0.0, 0.0, 0.0, 0.0, 0.0, 1.730744828706438E9, 0.0, 2024-11-04 15:27:08.706
80.0, -120482.47402697493, -112205.86892436373, -114066.96457469041, -113909.96592163634, -120670.4298460996, -112233.09334911029, -120767.95050715811, -113436.64538105077, -0.048, 0.88, 0.486, 192.0, 0.0, 0.0, 0.0, 0.0, 0.0, 0.0, 0.0, 0.0, 0.0, 1.7307448287104304E9, 0.0, 2024-11-04 15:27:08.710
81.0, -120480.50707346287, -113186.48465710696, -114593.95165371319, -114405.7052619106, -120668.70876177655, -112423.26199093605, -120767.57052750236, -113713.76230880765, -0.048, 0.88, 0.486, 192.0, 0.0, 0.0, 0.0, 0.0, 0.0, 0.0, 0.0, 0.0, 0.0, 1.7307448287134776E9, 0.0, 2024-11-04 15:27:08.713
82.0, -120482.20580604147, -112549.03525698606, -114304.04952812786, -114113.03152001281, -120670.60866005525, -112371.271833333, -120768.48694902504, -113529.69569321821, -0.048, 0.88, 0.486, 192.0, 0.0, 0.0, 0.0, 0.0, 0.0, 0.0, 0.0, 0.0, 0.0, 1.7307448287164445E9, 0.0, 2024-11-04 15:27:08.716
83.0, -120483.56926245324, -111628.92569648335, -113780.3034520511, -113512.37309126534, -120671.07804668881, -112071.89256809861, -120767.36936180227, -113269.78960869189, -0.048, 0.88, 0.486, 192.0, 0.0, 0.0, 0.0, 0.0, 0.0, 0.0, 0.0, 0.0, 0.0, 1.730744828720616E9, 0.0, 2024-11-04 15:27:08.720
84.0, -120479.79181764029, -111937.31271473321, -113939.20200338388, -113743.69129463332, -120667.61352629824, -112160.51723486392, -120764.5530420009, -113362.61640341478, -0.048, 0.88, 0.486, 192.0, 0.0, 0.0, 0.0, 0.0, 0.0, 0.0, 0.0, 0.0, 0.0, 1.7307448287245264E9, 0.0, 2024-11-04 15:27:08.724
85.0, -120476.66257341654, -112960.08383751915, -114548.19763281319, -114478.5719488349, -120666.07125593082, -112394.1823713997, -120764.88831816774, -113682.91690145934, -0.048, 0.88, 0.486, 192.0, 0.0, 0.0, 0.0, 0.0, 0.0, 0.0, 0.0, 0.0, 0.0, 1.7307448287296083E9, 0.0, 2024-11-04 15:27:08.729
86.0, -120476.86373911664, -112775.81605622961, -114367.37202016974, -114291.55490297734, -120665.71362801954, -112371.0706676329, -120763.97189664506, -113552.87445221836, -0.048, 0.88, 0.486, 192.0, 0.0, 0.0, 0.0, 0.0, 0.0, 0.0, 0.0, 0.0, 0.0, 1.7307448287325976E9, 0.0, 2024-11-04 15:27:08.732
87.0, -120479.34478275118, -111984.74311646738, -113828.60557181902, -113717.7409193207, -120666.87591873121, -112083.38136474865, -120763.81543443388, -113286.21814086655, -0.048, 0.88, 0.486, 192.0, 0.0, 0.0, 0.0, 0.0, 0.0, 0.0, 0.0, 0.0, 0.0, 1.7307448287355213E9, 0.0, 2024-11-04 15:27:08.735
88.0, -120476.14848329408, -112028.53018385533, -113836.09340621156, -113649.94807838775, -120663.6796192741, -112078.39692573511, -120760.86500416578, -113306.17824866514, -0.058, 0.88, 0.484, 192.0, 254.0, 48.0, 27.0, 128.0, 15.0, 32.0, 0.0, 0.0, 0.0, 1.730744828740631E9, 0.0, 2024-11-04 15:27:08.740
89.0, -120473.01923907033, -113226.24841049296, -114488.51847511751, -114282.65890868413, -120660.61743028373, -112388.30386260795, -120759.23332682054, -113653.54670924506, -0.058, 0.88, 0.484, 192.0, 0.0, 0.0, 0.0, 0.0, 0.0, 0.0, 0.0, 0.0, 0.0, 1.730744828744609E9, 0.0, 2024-11-04 15:27:08.744
90.0, -120474.13682629309, -113119.31766501877, -114466.99374520704, -114243.5657076318, -120662.11499716224, -112407.30284539495, -120760.52972799895, -113618.02978730558, -0.058, 0.88, 0.484, 192.0, 0.0, 0.0, 0.0, 0.0, 0.0, 0.0, 0.0, 0.0, 0.0, 1.7307448287486255E9, 0.0, 2024-11-04 15:27:08.748
91.0, -120478.16014029505, -112035.57098335875, -113930.73069223532, -113680.21234038024, -120665.82538674181, -112162.03715348688, -120762.69784721111, -113336.64367635772, -0.058, 0.88, 0.484, 192.0, 0.0, 0.0, 0.0, 0.0, 0.0, 0.0, 0.0, 0.0, 0.0, 1.7307448287527E9, 0.0, 2024-11-04 15:27:08.752
92.0, -120475.09795130468, -111757.1800061679, -113749.45804470278, -113464.09332324188, -120662.51732856243, -112036.59916360369, -120759.34508554282, -113267.44267552409, -0.058, 0.88, 0.484, 192.0, 0.0, 0.0, 0.0, 0.0, 0.0, 0.0, 0.0, 0.0, 0.0, 1.730744828756637E9, 0.0, 2024-11-04 15:27:08.756
93.0, -120469.01827681283, -112896.20255186589, -114380.98423254302, -114306.7764409514, -120656.75057849295, -112351.55759472342, -120755.23236456304, -113603.43409817627, -0.058, 0.88, 0.484, 192.0, 0.0, 0.0, 0.0, 0.0, 0.0, 0.0, 0.0, 0.0, 0.0, 1.7307448287615976E9, 0.0, 2024-11-04 15:27:08.761
94.0, -120469.57707042422, -113138.67427571706, -114521.39789121127, -114452.53216654446, -120657.66700001563, -112409.44861286267, -120756.39465527472, -113661.10159887096, -0.058, 0.88, 0.484, 192.0, 0.0, 0.0, 0.0, 0.0, 0.0, 0.0, 0.0, 0.0, 0.0, 1.7307448287655375E9, 0.0, 2024-11-04 15:27:08.765
95.0, -120469.84529135768, -112112.52803951837, -114021.59053344614, -113953.64123030202, -120657.84581397126, -112221.60455246027, -120755.0982540963, -113383.5599879694, -0.058, 0.88, 0.484, 192.0, 0.0, 0.0, 0.0, 0.0, 0.0, 0.0, 0.0, 0.0, 0.0, 1.7307448287688096E9, 0.0, 2024-11-04 15:27:08.768
96.0, -120470.67230590252, -111603.6458735044, -113711.12480296193, -113565.97257446917, -120658.11403490473, -112010.15704991306, -120754.67357095165, -113243.01221883444, -0.058, 0.88, 0.484, 192.0, 0.0, 0.0, 0.0, 0.0, 0.0, 0.0, 0.0, 0.0, 0.0, 1.730744828772732E9, 0.0, 2024-11-04 15:27:08.772
97.0, -120468.72770413492, -112603.21588554572, -114275.8192748808, -114104.26963618632, -120656.66117151514, -112295.63353009624, -120754.58416397384, -113541.96680092417, -0.058, 0.88, 0.484, 192.0, 0.0, 0.0, 0.0, 0.0, 0.0, 0.0, 0.0, 0.0, 0.0, 1.7307448287765808E9, 0.0, 2024-11-04 15:27:08.776
98.0, -120469.0853320462, -113165.25049987443, -114575.73498198212, -114374.3457644398, -120656.99644768196, -112409.91799949623, -120755.9029168967, -113693.6904422868, -0.06, 0.874, 0.48, 192.0, 254.0, 32.0, 27.0, 80.0, 15.0, 0.0, 0.0, 0.0, 0.0, 1.7307448287807317E9, 0.0, 2024-11-04 15:27:08.780
99.0, -120469.97940182441, -112244.4480352936, -114133.37160746714, -113933.56936378115, -120657.93522094909, -112277.03687870943, -120755.5005854965, -113437.40534036224, -0.06, 0.874, 0.48, 192.0, 0.0, 0.0, 0.0, 0.0, 0.0, 0.0, 0.0, 0.0, 0.0, 1.730744828784809E9, 0.0, 2024-11-04 15:27:08.784
100.0, -120471.56637568073, -111548.37000946642, -113705.69332905929, -113411.65613074973, -120658.8739942162, -112003.11625040964, -120755.41117851868, -113233.95976233004, -0.06, 0.874, 0.48, 192.0, 0.0, 0.0, 0.0, 0.0, 0.0, 0.0, 0.0, 0.0, 0.0, 1.7307448287886128E9, 0.0, 2024-11-04 15:27:08.788
101.0, -120466.80545411176, -112299.52273363147, -114135.87500284614, -114009.56529492918, -120654.8730319587, -112249.1419016292, -120752.63956220623, -113461.47816914061, -0.06, 0.874, 0.48, 192.0, 0.0, 0.0, 0.0, 0.0, 0.0, 0.0, 0.0, 0.0, 0.0, 1.730744828791472E9, 0.0, 2024-11-04 15:27:08.791
102.0, -120463.87737558811, -113145.51390952038, -114576.2937755935, -114507.8750858158, -120652.23552611299, -112400.93259822519, -120751.25375404999, -113687.49900907266, -0.06, 0.874, 0.48, 192.0, 0.0, 0.0, 0.0, 0.0, 0.0, 0.0, 0.0, 0.0, 0.0, 1.730744828796535E9, 0.0, 2024-11-04 15:27:08.796
103.0, -120464.8385005997, -112459.33770648691, -114218.33058814176, -114151.00713384237, -120652.88372670219, -112313.1572977492, -120750.87377439426, -113470.17299773372, -0.06, 0.874, 0.48, 192.0, 0.0, 0.0, 0.0, 0.0, 0.0, 0.0, 0.0, 0.0, 0.0, 1.7307448288007343E9, 0.0, 2024-11-04 15:27:08.800
104.0, -120465.97843956691, -111603.86939094895, -113723.86529730145, -113602.24945572013, -120653.26370635793, -112014.02390170383, -120749.89029763822, -113234.40679721914, -0.06, 0.874, 0.48, 192.0, 0.0, 0.0, 0.0, 0.0, 0.0, 0.0, 0.0, 0.0, 0.0, 1.7307448288045774E9, 0.0, 2024-11-04 15:27:08.804
105.0, -120463.31858197672, -112120.12763263317, -114006.32429198317, -113841.99426674776, -120650.93912493458, -112186.44525843207, -120748.61624820427, -113400.77083119999, -0.06, 0.874, 0.48, 192.0, 0.0, 0.0, 0.0, 0.0, 0.0, 0.0, 0.0, 0.0, 0.0, 1.73074482880864E9, 0.0, 2024-11-04 15:27:08.808
106.0, -120460.72577961991, -113158.29910734882, -114570.03528714602, -114373.76461908396, -120648.45808130004, -112399.07740343541, -120747.43160574813, -113696.17148592132, -0.06, 0.874, 0.48, 192.0, 0.0, 0.0, 0.0, 0.0, 0.0, 0.0, 0.0, 0.0, 0.0, 1.7307448288127367E9, 0.0, 2024-11-04 15:27:08.812
107.0, -120461.79866335377, -112596.62212093141, -114319.47223180202, -114119.64763637158, -120650.11211038973, -112352.9657546241, -120748.21391680407, -113534.32250432044, -0.06, 0.874, 0.48, 192.0, 0.0, 0.0, 0.0, 0.0, 0.0, 0.0, 0.0, 0.0, 0.0, 1.7307448288168917E9, 0.0, 2024-11-04 15:27:08.816
108.0, -120463.92207907702, -111645.57774610254, -113782.04688811862, -113513.6918441882, -120651.22969761249, -112053.94411730101, -120747.9009923817, -113263.12878884422, -0.054, 0.874, 0.484, 192.0, 254.0, 80.0, 27.0, 80.0, 15.0, 32.0, 0.0, 0.0, 0.0, 1.730744828819657E9, 0.0, 2024-11-04 15:27:08.819
109.0, -120461.5304424203, -111853.51602477027, -113884.30611900165, -113671.74102923168, -120649.01687491142, -112108.19180109404, -120746.04579759191, -113326.33952216382, -0.054, 0.874, 0.484, 192.0, 0.0, 0.0, 0.0, 0.0, 0.0, 0.0, 0.0, 0.0, 0.0, 1.7307448288245735E9, 0.0, 2024-11-04 15:27:08.824
110.0, -120456.8365760847, -112899.73412748984, -114512.90422831825, -114442.49623328404, -120645.79822370986, -112370.46717053262, -120744.65998943568, -113655.24544182366, -0.054, 0.874, 0.484, 192.0, 0.0, 0.0, 0.0, 0.0, 0.0, 0.0, 0.0, 0.0, 0.0, 1.730744828828776E9, 0.0, 2024-11-04 15:27:08.828
111.0, -120457.61888714062, -112788.28832963567, -114378.12320925275, -114302.976644394, -120646.37936906569, -112357.45845525962, -120744.7493964135, -113550.43811207273, -0.054, 0.874, 0.484, 192.0, 0.0, 0.0, 0.0, 0.0, 0.0, 0.0, 0.0, 0.0, 0.0, 1.730744828832703E9, 0.0, 2024-11-04 15:27:08.832
112.0, -120458.62471564111, -111998.02005267383, -113834.95346724433, -113732.6942363613, -120646.15585162114, -112073.6583559106, -120742.96125685707, -113270.30369881436, -0.054, 0.874, 0.484, 192.0, 0.0, 0.0, 0.0, 0.0, 0.0, 0.0, 0.0, 0.0, 0.0, 1.7307448288367732E9, 0.0, 2024-11-04 15:27:08.836
113.0, -120456.81422434024, -111942.3195054912, -113782.31510905208, -113602.65178712033, -120644.30065683136, -112027.72552105493, -120740.97195160056, -113256.15504457416, -0.054, 0.874, 0.484, 192.0, 0.0, 0.0, 0.0, 0.0, 0.0, 0.0, 0.0, 0.0, 0.0, 1.7307448288416982E9, 0.0, 2024-11-04 15:27:08.841
114.0, -120454.42258768351, -113135.03094137085, -114438.29410532644, -114236.92723952857, -120642.13253761918, -112350.75293192304, -120740.502564967, -113605.84808657743, -0.054, 0.874, 0.484, 192.0, 0.0, 0.0, 0.0, 0.0, 0.0, 0.0, 0.0, 0.0, 0.0, 1.7307448288447511E9, 0.0, 2024-11-04 15:27:08.844
115.0, -120454.5343464058, -113133.28750530333, -114468.51366383, -114247.1196350002, -120642.35605506373, -112381.06189740443, -120740.77078590046, -113601.60125513092, -0.054, 0.874, 0.484, 192.0, 0.0, 0.0, 0.0, 0.0, 0.0, 0.0, 0.0, 0.0, 0.0, 1.730744828849684E9, 0.0, 2024-11-04 15:27:08.849
116.0, -120457.35066620716, -112059.44264643702, -113938.88907896151, -113700.46302085675, -120644.81474695382, -112148.6261068137, -120741.84366963431, -113322.58442909532, -0.054, 0.874, 0.484, 192.0, 0.0, 0.0, 0.0, 0.0, 0.0, 0.0, 0.0, 0.0, 0.0, 1.730744828852785E9, 0.0, 2024-11-04 15:27:08.852
117.0, -120454.7802155948, -111702.73115667477, -113715.21517219725, -113417.06525290791, -120641.95372366354, -111992.20859911545, -120738.69207366611, -113227.38834946018, -0.054, 0.874, 0.484, 192.0, 0.0, 0.0, 0.0, 0.0, 0.0, 0.0, 0.0, 0.0, 0.0, 1.7307448288567357E9, 0.0, 2024-11-04 15:27:08.856
118.0, -120451.74037834888, -112804.35923389903, -114327.65297027267, -114235.1614517166, -120639.22681084, -112314.11842276079, -120737.61918993226, -113548.15823413829, -0.06, 0.88, 0.484, 192.0, 254.0, 32.0, 27.0, 128.0, 15.0, 32.0, 0.0, 0.0, 0.0, 1.7307448288609145E9, 0.0, 2024-11-04 15:27:08.860
119.0, -120451.40510218205, -113142.36231355219, -114514.55825740795, -114434.67312272468, -120639.07034862881, -112382.8723887053, -120737.7980038879, -113632.96075260172, -0.06, 0.88, 0.484, 192.0, 0.0, 0.0, 0.0, 0.0, 0.0, 0.0, 0.0, 0.0, 0.0, 1.7307448288646412E9, 0.0, 2024-11-04 15:27:08.864
120.0, -120451.8297853267, -112139.64070554265, -114032.34172252915, -113953.30595413518, -120639.51738351792, -112202.53851443989, -120736.79217538741, -113364.11397029329, -0.06, 0.88, 0.484, 192.0, 0.0, 0.0, 0.0, 0.0, 0.0, 0.0, 0.0, 0.0, 0.0, 1.7307448288676624E9, 0.0, 2024-11-04 15:27:08.867
121.0, -120453.88614581659, -111565.26792827462, -113695.29976788757, -113529.47217577366, -120641.08200562978, -111969.29806104876, -120737.84270737681, -113209.19402947355, -0.06, 0.88, 0.484, 192.0, 0.0, 0.0, 0.0, 0.0, 0.0, 0.0, 0.0, 0.0, 0.0, 1.7307448288718016E9, 0.0, 2024-11-04 15:27:08.871
122.0, -120448.40996842504, -112499.16851510627, -114223.73971029994, -114031.44765275094, -120636.0305113829, -112260.29542211241, -120734.06526256386, -113490.6918991437, -0.06, 0.88, 0.484, 192.0, 0.0, 0.0, 0.0, 0.0, 0.0, 0.0, 0.0, 0.0, 0.0, 1.7307448288758807E9, 0.0, 2024-11-04 15:27:08.875
123.0, -120447.31473294673, -113148.68785723303, -114567.46483653365, -114344.70735129206, -120635.20349683805, -112378.80437121444, -120733.86409686376, -113664.05202913906, -0.06, 0.88, 0.484, 192.0, 0.0, 0.0, 0.0, 0.0, 0.0, 0.0, 0.0, 0.0, 0.0, 1.7307448288808095E9, 0.0, 2024-11-04 15:27:08.880
124.0, -120448.11939574713, -112265.16810240367, -114148.97312509693, -113927.42263405594, -120636.0305113829, -112254.68513425412, -120733.5958759303, -113419.9709796871, -0.06, 0.88, 0.484, 192.0, 0.0, 0.0, 0.0, 0.0, 0.0, 0.0, 0.0, 0.0, 0.0, 1.7307448288847308E9, 0.0, 2024-11-04 15:27:08.884
125.0, -120447.94058179148, -111515.62470383939, -113685.82262823853, -113382.84473214684, -120635.15879334912, -111968.11341859263, -120731.76303288496, -113208.67993935109, -0.06, 0.88, 0.484, 192.0, 0.0, 0.0, 0.0, 0.0, 0.0, 0.0, 0.0, 0.0, 0.0, 1.7307448288887186E9, 0.0, 2024-11-04 15:27:08.888
126.0, -120444.52076488982, -112180.00795602895, -114065.69052525646, -113931.73652073581, -120632.3201218033, -112192.63669164618, -120730.08665205081, -113415.9700174296, -0.06, 0.88, 0.484, 192.0, 0.0, 0.0, 0.0, 0.0, 0.0, 0.0, 0.0, 0.0, 0.0, 1.730744828892712E9, 0.0, 2024-11-04 15:27:08.892
127.0, -120443.00084626686, -112991.4656867344, -114541.20153679868, -114479.75659129104, -120631.89543865866, -112384.57112128391, -120730.89131485121, -113655.80423543505, -0.06, 0.88, 0.484, 192.0, 0.0, 0.0, 0.0, 0.0, 0.0, 0.0, 0.0, 0.0, 0.0, 1.7307448288957465E9, 0.0, 2024-11-04 15:27:08.895
128.0, -120443.02319801132, -112560.34523968045, -114200.91857921108, -114140.45711045947, -120631.04607236935, -112285.59759683581, -120729.01376831696, -113442.74740728705, -0.064, 0.878, 0.492, 192.0, 254.0, 0.0, 27.0, 112.0, 15.0, 96.0, 0.0, 0.0, 0.0, 1.7307448288997872E9, 0.0, 2024-11-04 15:27:08.899
129.0, -120443.47023290042, -111804.85627709106, -113697.44553535528, -113577.304908908, -120630.5766857358, -111969.54393023776, -120727.4491462051, -113200.65566309163, -0.064, 0.878, 0.492, 192.0, 0.0, 0.0, 0.0, 0.0, 0.0, 0.0, 0.0, 0.0, 0.0, 1.7307448289037275E9, 0.0, 2024-11-04 15:27:08.903
130.0, -120442.57616312221, -112236.71433171205, -113932.89881144749, -113761.1480070529, -120630.08494735777, -112115.7690424644, -120727.53855318291, -113338.9012025477, -0.064, 0.878, 0.492, 192.0, 0.0, 0.0, 0.0, 0.0, 0.0, 0.0, 0.0, 0.0, 0.0, 1.7307448289077177E9, 0.0, 2024-11-04 15:27:08.907
131.0, -120439.93865727648, -113324.70784481858, -114522.09079528938, -114322.89204870368, -120627.13451708968, -112372.00944090003, -120726.0409863044, -113650.55157548805, -0.064, 0.878, 0.492, 192.0, 0.0, 0.0, 0.0, 0.0, 0.0, 0.0, 0.0, 0.0, 0.0, 1.730744828912752E9, 0.0, 2024-11-04 15:27:08.912
132.0, -120440.72096833242, -112824.74402484228, -114311.91734217612, -114107.06360424325, -120628.45327001254, -112335.55374569343, -120726.73389038253, -113511.1437453203, -0.064, 0.878, 0.492, 192.0, 0.0, 0.0, 0.0, 0.0, 0.0, 0.0, 0.0, 0.0, 0.0, 1.7307448289168448E9, 0.0, 2024-11-04 15:27:08.916
133.0, -120441.61503811063, -111791.95932054035, -113778.67177470587, -113503.18652429421, -120628.74384269046, -112033.0452362353, -120725.37043397075, -113241.29113451138, -0.064, 0.878, 0.492, 192.0, 0.0, 0.0, 0.0, 0.0, 0.0, 0.0, 0.0, 0.0, 0.0, 1.7307448289208596E9, 0.0, 2024-11-04 15:27:08.920
134.0, -120438.55284912026, -111908.50131613032, -113831.53365034267, -113591.58767361495, -120625.81576416681, -112056.04518127981, -120722.75527986948, -113282.1948268646, -0.064, 0.878, 0.492, 192.0, 0.0, 0.0, 0.0, 0.0, 0.0, 0.0, 0.0, 0.0, 0.0, 1.7307448289238102E9, 0.0, 2024-11-04 15:27:08.923
135.0, -120437.16704096402, -113081.25264421137, -114471.12881793128, -114397.14454378422, -120624.69817694405, -112345.72378942059, -120723.26936999195, -113622.34367398545, -0.064, 0.878, 0.492, 192.0, 0.0, 0.0, 0.0, 0.0, 0.0, 0.0, 0.0, 0.0, 0.0, 1.7307448289278834E9, 0.0, 2024-11-04 15:27:08.927
136.0, -120436.65295084156, -112880.98101389183, -114395.17759027214, -114316.72296723402, -120624.49701124395, -112345.70143767614, -120722.86703859175, -113555.556661553, -0.064, 0.878, 0.492, 192.0, 0.0, 0.0, 0.0, 0.0, 0.0, 0.0, 0.0, 0.0, 0.0, 1.730744828931755E9, 0.0, 2024-11-04 15:27:08.931
137.0, -120436.40708165253, -111842.56366998717, -113851.38199941898, -113758.73401865174, -120623.60294146574, -112077.704021657, -120720.52010542394, -113275.39989655017, -0.064, 0.878, 0.492, 192.0, 0.0, 0.0, 0.0, 0.0, 0.0, 0.0, 0.0, 0.0, 0.0, 1.73074482893692E9, 0.0, 2024-11-04 15:27:08.936
138.0, -120435.78123280779, -111685.34149948854, -113738.63980038642, -113576.74611529663, -120622.84298215425, -111996.96952068443, -120719.80484960138, -113238.72068389901, -0.062, 0.88, 0.494, 192.0, 254.0, 16.0, 27.0, 128.0, 15.0, 112.0, 0.0, 0.0, 0.0, 1.730744828940808E9, 0.0, 2024-11-04 15:27:08.940
139.0, -120433.18843045097, -112853.4883682118, -114390.23785474752, -114206.08183218025, -120620.63015945318, -112319.90752457471, -120719.15664901218, -113586.24560669014, -0.062, 0.88, 0.494, 192.0, 0.0, 0.0, 0.0, 0.0, 0.0, 0.0, 0.0, 0.0, 0.0, 1.7307448289448092E9, 0.0, 2024-11-04 15:27:08.944
140.0, -120432.89785777306, -112966.63289864456, -114467.39607660724, -114260.55303341783, -120620.47369724199, -112370.06483913242, -120719.17900075663, -113606.38452844437, -0.062, 0.88, 0.494, 192.0, 0.0, 0.0, 0.0, 0.0, 0.0, 0.0, 0.0, 0.0, 0.0, 1.7307448289508371E9, 0.0, 2024-11-04 15:27:08.950
141.0, -120434.64129384057, -111948.42153172751, -113949.43910234442, -113728.96149503726, -120621.90420888714, -112150.61541207021, -120718.97783505653, -113322.49502211751, -0.062, 0.88, 0.494, 192.0, 0.0, 0.0, 0.0, 0.0, 0.0, 0.0, 0.0, 0.0, 0.0, 1.7307448289538693E9, 0.0, 2024-11-04 15:27:08.953
142.0, -120432.45082288395, -111531.11446274692, -113680.2793956136, -113390.51138049501, -120619.33375827478, -111967.66638370353, -120716.16151525517, -113210.4233754186, -0.062, 0.88, 0.494, 192.0, 0.0, 0.0, 0.0, 0.0, 0.0, 0.0, 0.0, 0.0, 0.0, 1.7307448289567316E9, 0.0, 2024-11-04 15:27:08.956
143.0, -120429.16511644902, -112514.99355018063, -114265.6715828981, -114175.43759053202, -120617.09858382924, -112284.14473344621, -120715.64742513269, -113522.07374835895, -0.062, 0.88, 0.494, 192.0, 0.0, 0.0, 0.0, 0.0, 0.0, 0.0, 0.0, 0.0, 0.0, 1.7307448289599001E9, 0.0, 2024-11-04 15:27:08.959
144.0, -120429.65685482704, -112949.84673855863, -114489.54665536246, -114413.93070387015, -120618.4173367521, -112376.39038281328, -120717.39086120021, -113618.92385708379, -0.062, 0.88, 0.494, 192.0, 0.0, 0.0, 0.0, 0.0, 0.0, 0.0, 0.0, 0.0, 0.0, 1.730744828963781E9, 0.0, 2024-11-04 15:27:08.963
145.0, -120430.39446239406, -112296.34878591882, -114014.46032696491, -113939.35846559507, -120617.7691361629, -112185.23826423148, -120715.33450071032, -113344.51149040599, -0.062, 0.88, 0.494, 192.0, 0.0, 0.0, 0.0, 0.0, 0.0, 0.0, 0.0, 0.0, 0.0, 1.7307448289689066E9, 0.0, 2024-11-04 15:27:08.968
146.0, -120428.85219202665, -111724.61351449651, -113654.86546216792, -113483.87461708482, -120615.64572043964, -111927.23207798388, -120712.51818090896, -113175.77817151287, -0.062, 0.88, 0.494, 192.0, 0.0, 0.0, 0.0, 0.0, 0.0, 0.0, 0.0, 0.0, 0.0, 1.7307448289728174E9, 0.0, 2024-11-04 15:27:08.972
147.0, -120424.15832569104, -112601.45009773376, -114148.01200008536, -113946.39926509849, -120611.44359248204, -112213.11088956725, -120709.47834366302, -113444.91552649923, -0.062, 0.88, 0.494, 192.0, 0.0, 0.0, 0.0, 0.0, 0.0, 0.0, 0.0, 0.0, 0.0, 1.7307448289758103E9, 0.0, 2024-11-04 15:27:08.975
148.0, -120426.0805757142, -113332.41919665567, -114537.9828855971, -114307.67051072961, -120613.14232506066, -112370.98126065508, -120711.86998031974, -113643.35431377344, -0.054, 0.876, 0.496, 192.0, 254.0, 80.0, 27.0, 96.0, 15.0, 128.0, 0.0, 0.0, 0.0, 1.7307448289798489E9, 0.0, 2024-11-04 15:27:08.979
149.0, -120428.56161934872, -112468.45721822468, -114148.36962799665, -113919.24189558529, -120616.02570009539, -112253.12051214225, -120713.61341638726, -113412.79606971695, -0.054, 0.876, 0.496, 192.0, 0.0, 0.0, 0.0, 0.0, 0.0, 0.0, 0.0, 0.0, 0.0, 1.7307448289837203E9, 0.0, 2024-11-04 15:27:08.983
150.0, -120429.16511644902, -111628.65747554989, -113674.71381124423, -113351.35112420931, -120615.84688613974, -111953.54008120777, -120712.36171869776, -113187.02109897388, -0.054, 0.876, 0.496, 192.0, 0.0, 0.0, 0.0, 0.0, 0.0, 0.0, 0.0, 0.0, 0.0, 1.7307448289879327E9, 0.0, 2024-11-04 15:27:08.987
151.0, -120424.85122976915, -112240.0447416359, -114008.24654200632, -113844.18473770437, -120611.84592388224, -112157.38799064017, -120709.63480587422, -113373.09937156433, -0.054, 0.876, 0.496, 192.0, 0.0, 0.0, 0.0, 0.0, 0.0, 0.0, 0.0, 0.0, 0.0, 1.7307448289919603E9, 0.0, 2024-11-04 15:27:08.991
152.0, -120422.61605532361, -113207.20472421704, -114528.43869071468, -114455.95198344612, -120609.67780467008, -112353.85982440232, -120708.67368086263, -113642.79552016205, -0.054, 0.876, 0.496, 192.0, 0.0, 0.0, 0.0, 0.0, 0.0, 0.0, 0.0, 0.0, 0.0, 1.7307448289958465E9, 0.0, 2024-11-04 15:27:08.995
153.0, -120422.928979746, -112547.9176697633, -114233.82034704929, -114162.8982618926, -120610.39306049266, -112283.36242239027, -120708.60662562927, -113459.19829120616, -0.054, 0.876, 0.496, 192.0, 0.0, 0.0, 0.0, 0.0, 0.0, 0.0, 0.0, 0.0, 0.0, 1.7307448290009284E9, 0.0, 2024-11-04 15:27:09.000
154.0, -120423.8230495242, -111609.9937689297, -113711.05774772857, -113597.19796147323, -120610.57187444829, -111976.5847297412, -120707.42198317313, -113204.81308756031, -0.054, 0.876, 0.496, 192.0, 0.0, 0.0, 0.0, 0.0, 0.0, 0.0, 0.0, 0.0, 0.0, 1.7307448290051825E9, 0.0, 2024-11-04 15:27:09.005
155.0, -120420.91732274501, -111946.4769299599, -113892.62096793903, -113725.40756766887, -120608.04612732484, -112084.25308278241, -120705.52208489443, -113314.8954290027, -0.054, 0.876, 0.496, 192.0, 0.0, 0.0, 0.0, 0.0, 0.0, 0.0, 0.0, 0.0, 0.0, 1.7307448290090342E9, 0.0, 2024-11-04 15:27:09.009
156.0, -120418.27981689929, -113073.92127203004, -114509.50676316104, -114312.78906020989, -120605.63213892367, -112343.19804229714, -120704.4939046495, -113639.86744163842, -0.054, 0.876, 0.496, 192.0, 0.0, 0.0, 0.0, 0.0, 0.0, 0.0, 0.0, 0.0, 0.0, 1.7307448290129824E9, 0.0, 2024-11-04 15:27:09.012
157.0, -120421.0737849562, -112680.44116263882, -114339.72291227854, -114134.0868632897, -120608.82843838078, -112319.10286177431, -120707.08670700631, -113521.6937687032, -0.054, 0.876, 0.496, 192.0, 0.0, 0.0, 0.0, 0.0, 0.0, 0.0, 0.0, 0.0, 0.0, 1.7307448290178154E9, 0.0, 2024-11-04 15:27:09.017
158.0, -120422.45959311243, -111679.75356337472, -113792.39574580142, -113539.32929507844, -120609.27547326988, -112025.42329137604, -120706.03617501691, -113243.54866070136, -0.054, 0.892, 0.498, 192.0, 254.0, 80.0, 27.0, 224.0, 15.0, 144.0, 0.0, 0.0, 0.0, 1.730744829021977E9, 0.0, 2024-11-04 15:27:09.021
159.0, -120418.25746515483, -111707.89440964395, -113788.97592889976, -113537.33998982192, -120605.1180488012, -112011.81107900276, -120702.1916749706, -113261.34064928778, -0.054, 0.892, 0.498, 192.0, 0.0, 0.0, 0.0, 0.0, 0.0, 0.0, 0.0, 0.0, 0.0, 1.7307448290259464E9, 0.0, 2024-11-04 15:27:09.025
160.0, -120414.3682616196, -112784.95791971183, -114433.756701202, -114347.5460228379, -120602.68170865557, -112324.57903916587, -120701.63288135921, -113599.8131155745, -0.054, 0.892, 0.498, 192.0, 0.0, 0.0, 0.0, 0.0, 0.0, 0.0, 0.0, 0.0, 0.0, 1.730744829028937E9, 0.0, 2024-11-04 15:27:09.028
161.0, -120413.63065405258, -112810.79653630216, -114386.90744482368, -114299.08744085878, -120601.87704585517, -112335.10671080432, -120700.60470111427, -113540.91626893477, -0.054, 0.892, 0.498, 192.0, 0.0, 0.0, 0.0, 0.0, 0.0, 0.0, 0.0, 0.0, 0.0, 1.7307448290321128E9, 0.0, 2024-11-04 15:27:09.032
162.0, -120415.0164622088, -112038.70022758249, -113848.74449357325, -113745.61354465647, -120601.94410108855, -112054.34644870121, -120698.88361679121, -113253.02580035041, -0.054, 0.892, 0.498, 192.0, 0.0, 0.0, 0.0, 0.0, 0.0, 0.0, 0.0, 0.0, 0.0, 1.7307448290360093E9, 0.0, 2024-11-04 15:27:09.036
163.0, -120413.5188953303, -111818.82611737563, -113701.80412552407, -113512.12722207633, -120600.31242374331, -111941.24662175735, -120697.16253246815, -113192.72079380999, -0.054, 0.892, 0.498, 192.0, 0.0, 0.0, 0.0, 0.0, 0.0, 0.0, 0.0, 0.0, 0.0, 1.7307448290400455E9, 0.0, 2024-11-04 15:27:09.040
164.0, -120411.68605228497, -112976.75823888282, -114342.58393556881, -114132.67870338901, -120598.72544988697, -112280.52375084446, -120697.25193944597, -113534.99305665412, -0.054, 0.892, 0.498, 192.0, 0.0, 0.0, 0.0, 0.0, 0.0, 0.0, 0.0, 0.0, 0.0, 1.7307448290439994E9, 0.0, 2024-11-04 15:27:09.043
165.0, -120413.02715695229, -113187.04345071834, -114472.8722539988, -114238.55891687381, -120600.0665545543, -112346.2155277986, -120698.68245109111, -113587.02791774606, -0.054, 0.892, 0.498, 192.0, 0.0, 0.0, 0.0, 0.0, 0.0, 0.0, 0.0, 0.0, 0.0, 1.7307448290483575E9, 0.0, 2024-11-04 15:27:09.048
166.0, -120414.68118604198, -112130.23062112698, -113970.49444562131, -113726.36869268045, -120601.74293538845, -112135.14800490714, -120698.90596853566, -113311.87794350124, -0.054, 0.892, 0.498, 192.0, 0.0, 0.0, 0.0, 0.0, 0.0, 0.0, 0.0, 0.0, 0.0, 1.7307448290519931E9, 0.0, 2024-11-04 15:27:09.051
167.0, -120413.20597090793, -111613.03360617562, -113659.67108722581, -113340.24230721503, -120599.77598187637, -111922.24763897034, -120696.5366836234, -113175.4652470905, -0.054, 0.892, 0.498, 192.0, 0.0, 0.0, 0.0, 0.0, 0.0, 0.0, 0.0, 0.0, 0.0, 1.7307448290568755E9, 0.0, 2024-11-04 15:27:09.056
168.0, -120409.60734005063, -112616.3810630299, -114219.5599340868, -114105.96836876492, -120596.64673765264, -112240.64823873619, -120694.86030278925, -113471.84937856787, -0.056, 0.88, 0.492, 192.0, 254.0, 64.0, 27.0, 128.0, 15.0, 96.0, 0.0, 0.0, 0.0, 1.7307448290600023E9, 0.0, 2024-11-04 15:27:09.060
169.0, -120408.08742142767, -113151.88415669015, -114503.24827471355, -114414.44479399262, -120595.05976379631, -112364.00751638503, -120693.89917777768, -113609.13379301237, -0.056, 0.88, 0.492, 192.0, 0.0, 0.0, 0.0, 0.0, 0.0, 0.0, 0.0, 0.0, 0.0, 1.7307448290639052E9, 0.0, 2024-11-04 15:27:09.063
170.0, -120409.56263656172, -112208.77465114291, -114057.06275189672, -113972.43904738892, -120596.73614463046, -112195.11773528073, -120694.1897504556, -113353.29572597692, -0.056, 0.88, 0.492, 192.0, 0.0, 0.0, 0.0, 0.0, 0.0, 0.0, 0.0, 0.0, 0.0, 1.7307448290681305E9, 0.0, 2024-11-04 15:27:09.068
171.0, -120409.76380226182, -111515.78116605058, -113646.68472369728, -113491.96594857765, -120596.22205450799, -111923.58874363767, -120692.87099753274, -113166.52454930838, -0.056, 0.88, 0.492, 192.0, 0.0, 0.0, 0.0, 0.0, 0.0, 0.0, 0.0, 0.0, 0.0, 1.730744829071921E9, 0.0, 2024-11-04 15:27:09.071
172.0, -120404.91347371502, -112315.92891406166, -114099.84399078418, -113913.47514551583, -120591.99757480594, -112187.47343867701, -120689.80880854235, -113409.37625281529, -0.056, 0.88, 0.492, 192.0, 0.0, 0.0, 0.0, 0.0, 0.0, 0.0, 0.0, 0.0, 0.0, 1.7307448290759175E9, 0.0, 2024-11-04 15:27:09.075
173.0, -120404.53349405927, -113130.94057213553, -114536.75353965207, -114317.97466492352, -120591.79640910584, -112351.2670220455, -120690.56876785384, -113635.41944449181, -0.056, 0.88, 0.492, 192.0, 0.0, 0.0, 0.0, 0.0, 0.0, 0.0, 0.0, 0.0, 0.0, 1.7307448290799754E9, 0.0, 2024-11-04 15:27:09.079
174.0, -120405.31580511521, -112341.9686963521, -114172.24129107491, -113954.62470705804, -120592.60107190623, -112250.25948885197, -120690.30054692038, -113416.03707266296, -0.056, 0.88, 0.492, 192.0, 0.0, 0.0, 0.0, 0.0, 0.0, 0.0, 0.0, 0.0, 0.0, 1.7307448290839689E9, 0.0, 2024-11-04 15:27:09.083
175.0, -120408.31093887222, -111502.52658158858, -113677.95481419025, -113370.77479014097, -120594.79154286285, -111944.21940376991, -120691.26167193195, -113179.2650436479, -0.056, 0.88, 0.492, 192.0, 0.0, 0.0, 0.0, 0.0, 0.0, 0.0, 0.0, 0.0, 0.0, 1.7307448290870254E9, 0.0, 2024-11-04 15:27:09.087
176.0, -120404.42173533699, -112003.85385797666, -113959.92207049395, -113789.62412948896, -120591.43878119455, -112112.2598185849, -120688.9370905086, -113334.58731586783, -0.056, 0.88, 0.492, 192.0, 0.0, 0.0, 0.0, 0.0, 0.0, 0.0, 0.0, 0.0, 0.0, 1.730744829091958E9, 0.0, 2024-11-04 15:27:09.091
177.0, -120398.56557828971, -112923.33756963463, -114502.91299854673, -114432.30383781242, -120586.92372881458, -112332.46920495859, -120685.96430849604, -113613.89471458134, -0.056, 0.88, 0.492, 192.0, 0.0, 0.0, 0.0, 0.0, 0.0, 0.0, 0.0, 0.0, 0.0, 1.7307448290960147E9, 0.0, 2024-11-04 15:27:09.096
178.0, -120398.49852305633, -112594.94574009726, -114229.77468130288, -114156.55036646729, -120586.3649352032, -112261.12243665726, -120684.48909336199, -113433.27026763801, -0.06, 0.872, 0.49, 192.0, 254.0, 32.0, 27.0, 64.0, 15.0, 80.0, 0.0, 0.0, 0.0, 1.730744829099842E9, 0.0, 2024-11-04 15:27:09.099
179.0, -120399.3702410901, -111809.37132947103, -113699.32308188952, -113583.92102526678, -120585.962603803, -111947.5274619493, -120682.85741601676, -113178.08040119176, -0.06, 0.872, 0.49, 192.0, 0.0, 0.0, 0.0, 0.0, 0.0, 0.0, 0.0, 0.0, 0.0, 1.730744829103952E9, 0.0, 2024-11-04 15:27:09.103
180.0, -120398.09619165615, -112066.19287326252, -113826.90683924042, -113658.46409302522, -120584.97912704697, -112029.62541933364, -120682.27627066092, -113263.19584407758, -0.06, 0.872, 0.49, 192.0, 0.0, 0.0, 0.0, 0.0, 0.0, 0.0, 0.0, 0.0, 0.0, 1.7307448291081655E9, 0.0, 2024-11-04 15:27:09.108
181.0, -120396.419810822, -113227.23188724899, -114460.4670358261, -114266.58800442076, -120583.30274621282, -112317.3147222179, -120682.00804972746, -113598.09203125144, -0.06, 0.872, 0.49, 192.0, 0.0, 0.0, 0.0, 0.0, 0.0, 0.0, 0.0, 0.0, 0.0, 1.7307448291120949E9, 0.0, 2024-11-04 15:27:09.112
182.0, -120397.85032246713, -112884.60199649358, -114328.77055749543, -114122.2851422173, -120585.1132375137, -112302.74138483303, -120683.34915439477, -113497.62093992483, -0.06, 0.872, 0.49, 192.0, 0.0, 0.0, 0.0, 0.0, 0.0, 0.0, 0.0, 0.0, 0.0, 1.7307448291151E9, 0.0, 2024-11-04 15:27:09.115
183.0, -120398.25265386733, -111818.42378597544, -113788.01480388819, -113535.55185026549, -120585.00147879143, -112014.51564008185, -120681.69512530508, -113217.21830573301, -0.06, 0.872, 0.49, 192.0, 0.0, 0.0, 0.0, 0.0, 0.0, 0.0, 0.0, 0.0, 0.0, 1.730744829119923E9, 0.0, 2024-11-04 15:27:09.119
184.0, -120394.09522939865, -111760.04102945818, -113735.17527999583, -113474.91156755824, -120580.82170257828, -111974.6848314625, -120677.80592176986, -113213.01617777541, -0.06, 0.872, 0.49, 192.0, 0.0, 0.0, 0.0, 0.0, 0.0, 0.0, 0.0, 0.0, 0.0, 1.730744829124004E9, 0.0, 2024-11-04 15:27:09.124
185.0, -120392.50825554231, -112940.59311635412, -114381.99006104351, -114307.08936537379, -120579.48059791097, -112289.7550213045, -120678.02943921441, -113554.3049638635, -0.06, 0.872, 0.49, 192.0, 0.0, 0.0, 0.0, 0.0, 0.0, 0.0, 0.0, 0.0, 0.0, 1.730744829128024E9, 0.0, 2024-11-04 15:27:09.128
186.0, -120395.1234096436, -112916.14030792002, -114395.04347980542, -114317.01353991193, -120582.56513864579, -112312.9561320491, -120680.91281424914, -113535.06011188748, -0.06, 0.872, 0.49, 192.0, 0.0, 0.0, 0.0, 0.0, 0.0, 0.0, 0.0, 0.0, 0.0, 1.730744829132086E9, 0.0, 2024-11-04 15:27:09.132
187.0, -120394.9669474324, -111874.07962966916, -113868.59284264957, -113781.91277765189, -120581.73812410094, -112063.91299532808, -120678.67763980362, -113253.1822625616, -0.06, 0.872, 0.49, 192.0, 0.0, 0.0, 0.0, 0.0, 0.0, 0.0, 0.0, 0.0, 0.0, 1.7307448291360073E9, 0.0, 2024-11-04 15:27:09.136
188.0, -120392.06122065321, -111561.49048346169, -113668.67884024131, -113506.3381202624, -120578.51947289938, -111925.667455872, -120675.4366368576, -113174.30295637881, -0.064, 0.874, 0.49, 192.0, 254.0, 0.0, 27.0, 80.0, 15.0, 80.0, 0.0, 0.0, 0.0, 1.7307448291399794E9, 0.0, 2024-11-04 15:27:09.139
189.0, -120388.77551421829, -112682.4975231287, -114294.34887103425, -114112.33861593468, -120575.65844960911, -112258.1496546447, -120674.09553219027, -113510.36143426436, -0.064, 0.874, 0.49, 192.0, 0.0, 0.0, 0.0, 0.0, 0.0, 0.0, 0.0, 0.0, 0.0, 1.730744829142985E9, 0.0, 2024-11-04 15:27:09.142
190.0, -120389.89310144105, -112984.67075641999, -114467.50783532952, -114260.28481248437, -120577.20071997652, -112322.88030658726, -120675.92837523561, -113584.34570841143, -0.064, 0.874, 0.49, 192.0, 0.0, 0.0, 0.0, 0.0, 0.0, 0.0, 0.0, 0.0, 0.0, 1.730744829147951E9, 0.0, 2024-11-04 15:27:09.147
191.0, -120393.53643578726, -111992.49917179337, -113978.60812885858, -113767.2053298003, -120580.48642641144, -112132.89047871715, -120677.67181130312, -113309.6427690557, -0.064, 0.874, 0.49, 192.0, 0.0, 0.0, 0.0, 0.0, 0.0, 0.0, 0.0, 0.0, 0.0, 1.730744829152033E9, 0.0, 2024-11-04 15:27:09.152
192.0, -120394.5199125433, -111447.56364197299, -113625.11529029791, -113335.16846122367, -120581.00051653392, -111904.50035387282, -120677.56005258085, -113158.52262479338, -0.064, 0.874, 0.49, 192.0, 0.0, 0.0, 0.0, 0.0, 0.0, 0.0, 0.0, 0.0, 0.0, 1.7307448291560733E9, 0.0, 2024-11-04 15:27:09.156
193.0, -120389.4684182964, -112338.88415561727, -114150.33658150872, -114044.63518197957, -120576.79838857632, -112201.42092721713, -120674.85549150176, -113438.88055549629, -0.064, 0.874, 0.49, 192.0, 0.0, 0.0, 0.0, 0.0, 0.0, 0.0, 0.0, 0.0, 0.0, 1.7307448291601603E9, 0.0, 2024-11-04 15:27:09.160
194.0, -120386.5179880283, -112913.43574684093, -114468.4689603411, -114397.03278506194, -120574.58556587526, -112316.77828035096, -120673.38027636771, -113589.15133346932, -0.064, 0.874, 0.49, 192.0, 0.0, 0.0, 0.0, 0.0, 0.0, 0.0, 0.0, 0.0, 0.0, 1.730744829164094E9, 0.0, 2024-11-04 15:27:09.164
195.0, -120388.0155549068, -112323.70732113211, -114036.18622257546, -113964.77239904075, -120575.18906297554, -112158.21500518502, -120672.7320757785, -113335.3472751793, -0.064, 0.874, 0.49, 192.0, 0.0, 0.0, 0.0, 0.0, 0.0, 0.0, 0.0, 0.0, 0.0, 1.7307448291682591E9, 0.0, 2024-11-04 15:27:09.168
196.0, -120389.42371480749, -111666.96836554627, -113613.44767969224, -113462.03696275198, -120575.79256007583, -111877.2088738929, -120672.39679961167, -113141.93763040754, -0.064, 0.874, 0.49, 192.0, 0.0, 0.0, 0.0, 0.0, 0.0, 0.0, 0.0, 0.0, 0.0, 1.7307448291710577E9, 0.0, 2024-11-04 15:27:09.171
197.0, -120385.53451127226, -112400.82083950292, -114023.17750730248, -113838.90972601292, -120572.37274317417, -112130.07415891578, -120669.9381077216, -113361.83409235884, -0.064, 0.874, 0.49, 192.0, 0.0, 0.0, 0.0, 0.0, 0.0, 0.0, 0.0, 0.0, 0.0, 1.7307448291753423E9, 0.0, 2024-11-04 15:27:09.175
198.0, -120385.28864208325, -113281.65838499766, -114495.20164670964, -114282.74831566196, -120571.90335654061, -112331.15045203573, -120670.69806703307, -113607.18919124475, -0.062, 0.884, 0.492, 192.0, 254.0, 16.0, 27.0, 160.0, 15.0, 96.0, 0.0, 0.0, 0.0, 1.730744829180229E9, 0.0, 2024-11-04 15:27:09.180
199.0, -120385.69097348345, -112517.18402113725, -114162.02654385884, -113948.00859069928, -120572.93153678556, -112230.83582292031, -120670.74277052197, -113401.70960446712, -0.062, 0.884, 0.492, 192.0, 0.0, 0.0, 0.0, 0.0, 0.0, 0.0, 0.0, 0.0, 0.0, 1.7307448291842284E9, 0.0, 2024-11-04 15:27:09.184
200.0, -120386.67445023949, -111596.0909838785, -113656.76536044662, -113356.96141206758, -120573.08799899674, -111917.57612437918, -120669.60283155476, -113158.58968002674, -0.062, 0.884, 0.492, 192.0, 0.0, 0.0, 0.0, 0.0, 0.0, 0.0, 0.0, 0.0, 0.0, 1.7307448291901317E9, 0.0, 2024-11-04 15:27:09.190
201.0, -120383.8134269492, -112034.22987869143, -113888.88822661499, -113708.04026222709, -120570.47284489547, -112064.62825115064, -120667.90409897616, -113293.03542292542, -0.062, 0.884, 0.492, 192.0, 0.0, 0.0, 0.0, 0.0, 0.0, 0.0, 0.0, 0.0, 0.0, 1.730744829193166E9, 0.0, 2024-11-04 15:27:09.193
202.0, -120380.57242400319, -113106.28659800132, -114466.47965508458, -114404.31945375437, -120567.29889718282, -112322.09799553132, -120666.09360767527, -113594.7169178387, -0.062, 0.884, 0.492, 192.0, 0.0, 0.0, 0.0, 0.0, 0.0, 0.0, 0.0, 0.0, 0.0, 1.7307448291960166E9, 0.0, 2024-11-04 15:27:09.196
203.0, -120381.73471471485, -112589.2236935167, -114242.24695470894, -114176.10814286568, -120568.97527801697, -112270.04078269492, -120666.96532570904, -113443.30620089844, -0.062, 0.884, 0.492, 192.0, 0.0, 0.0, 0.0, 0.0, 0.0, 0.0, 0.0, 0.0, 0.0, 1.7307448291990807E9, 0.0, 2024-11-04 15:27:09.199
204.0, -120382.82995019318, -111609.94906544079, -113708.59905583848, -113606.69745286673, -120569.3105541838, -111962.5701859677, -120665.75833150845, -113179.04152620335, -0.062, 0.884, 0.492, 192.0, 0.0, 0.0, 0.0, 0.0, 0.0, 0.0, 0.0, 0.0, 0.0, 1.730744829203003E9, 0.0, 2024-11-04 15:27:09.203
205.0, -120378.67252572448, -111770.41223888544, -113782.78449568564, -113624.4223862198, -120565.28724018185, -112008.99475920139, -120662.31616286233, -113237.46898620951, -0.062, 0.884, 0.492, 192.0, 0.0, 0.0, 0.0, 0.0, 0.0, 0.0, 0.0, 0.0, 0.0, 1.73074482920814E9, 0.0, 2024-11-04 15:27:09.208
206.0, -120375.74444720084, -112945.53285187876, -114429.24164882203, -114246.2702687109, -120562.62738259166, -112288.07864047035, -120661.1762238951, -113580.09887696493, -0.062, 0.884, 0.492, 192.0, 0.0, 0.0, 0.0, 0.0, 0.0, 0.0, 0.0, 0.0, 0.0, 1.730744829212192E9, 0.0, 2024-11-04 15:27:09.212
207.0, -120376.39264779004, -112714.7510903777, -114341.39929311268, -114143.4969477054, -120563.76732155887, -112276.9474717316, -120662.07029367331, -113503.74531790559, -0.062, 0.884, 0.492, 192.0, 0.0, 0.0, 0.0, 0.0, 0.0, 0.0, 0.0, 0.0, 0.0, 1.7307448292161503E9, 0.0, 2024-11-04 15:27:09.216
208.0, -120378.71722921339, -111692.7622786477, -113795.12265862497, -113570.5546820825, -120565.17548145956, -112014.7391575264, -120661.95853495105, -113217.48652666647, -0.056, 0.878, 0.49, 192.0, 254.0, 64.0, 27.0, 112.0, 15.0, 80.0, 0.0, 0.0, 0.0, 1.7307448292191696E9, 0.0, 2024-11-04 15:27:09.219
209.0, -120373.86690066659, -111553.55561418005, -113682.46986657023, -113431.83975599287, -120560.3028011683, -111941.40308396854, -120656.83998547078, -113178.32627038077, -0.056, 0.878, 0.49, 192.0, 0.0, 0.0, 0.0, 0.0, 0.0, 0.0, 0.0, 0.0, 0.0, 1.7307448292231185E9, 0.0, 2024-11-04 15:27:09.223
210.0, -120367.85428140812, -112630.66382773685, -114329.15053715117, -114243.81157682081, -120555.4524726215, -112260.83186397933, -120653.86720345823, -113515.21176281116, -0.056, 0.878, 0.49, 192.0, 0.0, 0.0, 0.0, 0.0, 0.0, 0.0, 0.0, 0.0, 0.0, 1.7307448292272873E9, 0.0, 2024-11-04 15:27:09.227
211.0, -120368.05544710821, -112804.58275134358, -114381.9453575546, -114294.55003673435, -120555.98891448844, -112295.76764056298, -120654.51540404743, -113514.18358256621, -0.056, 0.878, 0.49, 192.0, 0.0, 0.0, 0.0, 0.0, 0.0, 0.0, 0.0, 0.0, 0.0, 1.7307448292311225E9, 0.0, 2024-11-04 15:27:09.231
212.0, -120370.98352563186, -112066.03641105133, -113859.629793123, -113766.62418444446, -120557.64294357813, -112053.76530334537, -120654.6271627697, -113235.77025363091, -0.056, 0.878, 0.49, 192.0, 0.0, 0.0, 0.0, 0.0, 0.0, 0.0, 0.0, 0.0, 0.0, 1.7307448292361152E9, 0.0, 2024-11-04 15:27:09.236
213.0, -120370.96117388741, -111693.58929319255, -113623.55066818604, -113441.16043343073, -120557.17355694456, -111881.45570533941, -120653.95661043604, -113134.96388613748, -0.056, 0.878, 0.49, 192.0, 0.0, 0.0, 0.0, 0.0, 0.0, 0.0, 0.0, 0.0, 0.0, 1.7307448292403169E9, 0.0, 2024-11-04 15:27:09.240
214.0, -120367.96604013038, -112773.31266085061, -114228.18770744654, -114023.82570789168, -120554.67016156558, -112217.51418322495, -120652.74961623545, -113457.16428246073, -0.056, 0.878, 0.49, 192.0, 0.0, 0.0, 0.0, 0.0, 0.0, 0.0, 0.0, 0.0, 0.0, 1.7307448292442183E9, 0.0, 2024-11-04 15:27:09.244
215.0, -120368.72599944187, -113189.01040423042, -114457.04721892443, -114226.80189929032, -120555.31836215478, -112308.1058035023, -120653.91190694713, -113564.02797270156, -0.056, 0.878, 0.49, 192.0, 0.0, 0.0, 0.0, 0.0, 0.0, 0.0, 0.0, 0.0, 0.0, 1.7307448292481472E9, 0.0, 2024-11-04 15:27:09.248
216.0, -120371.00587737632, -112180.72321185151, -113987.66058536299, -113754.71070464978, -120557.88881276714, -112132.57755429478, -120655.09654940327, -113300.85853348477, -0.056, 0.878, 0.49, 192.0, 0.0, 0.0, 0.0, 0.0, 0.0, 0.0, 0.0, 0.0, 0.0, 1.730744829253235E9, 0.0, 2024-11-04 15:27:09.253
217.0, -120369.88829015354, -111532.2767534586, -113597.64499636233, -113287.31337634486, -120556.16772844408, -111883.13208617356, -120652.59315402427, -113130.09120584623, -0.056, 0.878, 0.49, 192.0, 0.0, 0.0, 0.0, 0.0, 0.0, 0.0, 0.0, 0.0, 0.0, 1.730744829256136E9, 0.0, 2024-11-04 15:27:09.256
218.0, -120364.45681625091, -112418.61282808935, -114089.80805752374, -113985.24659696182, -120551.09388245273, -112163.55707210983, -120648.81570921133, -113388.45502000512, -0.06, 0.874, 0.492, 192.0, 254.0, 32.0, 27.0, 80.0, 15.0, 96.0, 0.0, 0.0, 0.0, 1.7307448292592044E9, 0.0, 2024-11-04 15:27:09.259
219.0, -120364.72503718437, -113127.87838314514, -114468.51366383, -114411.96375035809, -120551.22799291945, -112300.7073760876, -120649.95564817854, -113579.07069671998, -0.06, 0.874, 0.492, 192.0, 0.0, 0.0, 0.0, 0.0, 0.0, 0.0, 0.0, 0.0, 0.0, 1.7307448292632043E9, 0.0, 2024-11-04 15:27:09.263
220.0, -120366.89315639653, -112261.94945120209, -114072.55251080425, -114016.58374268816, -120553.70903655399, -112179.51621765092, -120651.29675284587, -113342.79040608293, -0.06, 0.874, 0.492, 192.0, 0.0, 0.0, 0.0, 0.0, 0.0, 0.0, 0.0, 0.0, 0.0, 1.7307448292692213E9, 0.0, 2024-11-04 15:27:09.269
221.0, -120367.09432209663, -111476.21857836469, -113618.67798789479, -113499.40907948127, -120553.17259468706, -111893.95033048993, -120649.73213073399, -113131.40995876909, -0.06, 0.874, 0.492, 192.0, 0.0, 0.0, 0.0, 0.0, 0.0, 0.0, 0.0, 0.0, 0.0, 1.730744829272182E9, 0.0, 2024-11-04 15:27:09.272
222.0, -120363.11571158358, -112127.88368795917, -113982.98907077183, -113827.28681889616, -120549.57396382975, -112105.2637225704, -120647.25108709944, -113332.91093503368, -0.06, 0.874, 0.492, 192.0, 0.0, 0.0, 0.0, 0.0, 0.0, 0.0, 0.0, 0.0, 0.0, 1.730744829276176E9, 0.0, 2024-11-04 15:27:09.276
223.0, -120361.72990342736, -113080.87266455563, -114496.22982695459, -114310.5315340199, -120548.18815567353, -112294.65005334021, -120647.11697663272, -113599.18726672976, -0.06, 0.874, 0.492, 192.0, 0.0, 0.0, 0.0, 0.0, 0.0, 0.0, 0.0, 0.0, 0.0, 1.73074482927917E9, 0.0, 2024-11-04 15:27:09.279
224.0, -120362.86984239458, -112403.16777267073, -114194.48127680794, -114006.95014082792, -120549.70807429649, -112227.30424729637, -120647.69812198856, -113407.90103768124, -0.06, 0.874, 0.492, 192.0, 0.0, 0.0, 0.0, 0.0, 0.0, 0.0, 0.0, 0.0, 0.0, 1.7307448292832725E9, 0.0, 2024-11-04 15:27:09.283
225.0, -120364.8591476511, -111499.19617166475, -113662.39800004936, -113447.21775617811, -120551.02682721935, -111923.92401980449, -120647.38519756618, -113152.59941251272, -0.06, 0.874, 0.492, 192.0, 0.0, 0.0, 0.0, 0.0, 0.0, 0.0, 0.0, 0.0, 0.0, 1.730744829287083E9, 0.0, 2024-11-04 15:27:09.287
226.0, -120362.08753133865, -111854.76772245977, -113846.68813308337, -113596.37094692838, -120548.63519056264, -112045.91984104156, -120645.68646498758, -113264.24637606698, -0.06, 0.874, 0.492, 192.0, 0.0, 0.0, 0.0, 0.0, 0.0, 0.0, 0.0, 0.0, 0.0, 1.7307448292922385E9, 0.0, 2024-11-04 15:27:09.292
227.0, -120359.00299060381, -112951.67958160397, -114459.39415209224, -114175.88462542112, -120546.33296088374, -112295.99115800753, -120645.06061614283, -113583.1610659553, -0.06, 0.874, 0.492, 192.0, 0.0, 0.0, 0.0, 0.0, 0.0, 0.0, 0.0, 0.0, 0.0, 1.730744829296066E9, 0.0, 2024-11-04 15:27:09.296
228.0, -120359.6064877041, -112620.85141192096, -114275.46164696952, -113982.60909111609, -120546.82469926176, -112266.41980009316, -120644.88180218718, -113452.6268783363, -0.054, 0.872, 0.492, 192.0, 254.0, 80.0, 27.0, 64.0, 15.0, 96.0, 0.0, 0.0, 0.0, 1.7307448293001976E9, 0.0, 2024-11-04 15:27:09.300
229.0, -120359.74059817084, -111633.41839711886, -113728.11212874796, -113380.2072263011, -120546.13179518364, -111974.17074134001, -120642.49016553047, -113175.57700581277, -0.054, 0.872, 0.492, 192.0, 0.0, 0.0, 0.0, 0.0, 0.0, 0.0, 0.0, 0.0, 0.0, 1.7307448293032608E9, 0.0, 2024-11-04 15:27:09.303
230.0, -120359.02534234826, -111686.92847334487, -113727.3968729254, -113440.44517760816, -120545.43889110553, -111970.41564827153, -120641.99842715246, -113191.26793042039, -0.054, 0.872, 0.492, 192.0, 0.0, 0.0, 0.0, 0.0, 0.0, 0.0, 0.0, 0.0, 0.0, 1.7307448293073568E9, 0.0, 2024-11-04 15:27:09.307
231.0, -120356.05256033571, -112837.46216743735, -114376.02214527395, -114281.29545227236, -120543.20371665999, -112259.96014594557, -120641.84196494127, -113530.0980246184, -0.054, 0.872, 0.492, 192.0, 0.0, 0.0, 0.0, 0.0, 0.0, 0.0, 0.0, 0.0, 0.0, 1.7307448293112073E9, 0.0, 2024-11-04 15:27:09.311
232.0, -120356.92427836946, -112790.81407675911, -114330.64810402968, -114231.27224818138, -120544.09778643821, -112283.96591949057, -120642.44546204156, -113476.85616932585, -0.054, 0.872, 0.492, 192.0, 0.0, 0.0, 0.0, 0.0, 0.0, 0.0, 0.0, 0.0, 0.0, 1.730744829315334E9, 0.0, 2024-11-04 15:27:09.315
233.0, -120357.17014755847, -111770.881625519, -113794.7650307137, -113682.67103227033, -120543.53899282683, -112018.20367791697, -120640.29969457386, -113198.17461945709, -0.054, 0.872, 0.492, 192.0, 0.0, 0.0, 0.0, 0.0, 0.0, 0.0, 0.0, 0.0, 0.0, 1.73074482932021E9, 0.0, 2024-11-04 15:27:09.320
234.0, -120354.06325507919, -111555.70138164776, -113655.73718020169, -113467.82606456592, -120540.18623115853, -111916.61499936761, -120636.9245811611, -113146.36327580968, -0.054, 0.872, 0.492, 192.0, 0.0, 0.0, 0.0, 0.0, 0.0, 0.0, 0.0, 0.0, 0.0, 1.7307448293242598E9, 0.0, 2024-11-04 15:27:09.324
235.0, -120351.42574923346, -112714.97460782227, -114301.76965019343, -114094.25605467035, -120537.86164973518, -112224.53263098391, -120636.32108406081, -113489.10492528736, -0.054, 0.872, 0.492, 192.0, 0.0, 0.0, 0.0, 0.0, 0.0, 0.0, 0.0, 0.0, 0.0, 1.7307448293282487E9, 0.0, 2024-11-04 15:27:09.328
236.0, -120351.22458353336, -112896.18020012144, -114416.23293354905, -114183.59597725821, -120537.92870496855, -112289.26328292648, -120636.63400848318, -113528.48869901762, -0.054, 0.872, 0.492, 192.0, 0.0, 0.0, 0.0, 0.0, 0.0, 0.0, 0.0, 0.0, 0.0, 1.73074482933224E9, 0.0, 2024-11-04 15:27:09.332
237.0, -120352.34217075614, -111882.46153383989, -113908.04367161318, -113666.64483149587, -120538.73336776893, -112079.5592164468, -120635.73993870497, -113249.1365968152, -0.054, 0.872, 0.492, 192.0, 0.0, 0.0, 0.0, 0.0, 0.0, 0.0, 0.0, 0.0, 0.0, 1.7307448293372755E9, 0.0, 2024-11-04 15:27:09.337
238.0, -120352.49863296731, -111414.9971503016, -113588.6595950913, -113296.63405378272, -120538.50985032438, -111879.57815880516, -120635.00233113795, -113121.95517086449, -0.052000000000000005, 0.88, 0.494, 192.0, 254.0, 96.0, 27.0, 128.0, 15.0, 112.0, 0.0, 0.0, 0.0, 1.7307448293402915E9, 0.0, 2024-11-04 15:27:09.340
239.0, -120348.58707768764, -112371.02596414399, -114159.1431688241, -114073.35717360464, -120535.58177180073, -112192.16730501263, -120633.70592995954, -113421.93793319917, -0.052000000000000005, 0.88, 0.494, 192.0, 0.0, 0.0, 0.0, 0.0, 0.0, 0.0, 0.0, 0.0, 0.0, 1.730744829345454E9, 0.0, 2024-11-04 15:27:09.345
240.0, -120344.8543363636, -112858.49515896979, -114421.5079452405, -114358.87835727673, -120532.47487932145, -112284.12238170176, -120631.15783109164, -113537.049417144, -0.052000000000000005, 0.88, 0.494, 192.0, 0.0, 0.0, 0.0, 0.0, 0.0, 0.0, 0.0, 0.0, 0.0, 1.730744829348274E9, 0.0, 2024-11-04 15:27:09.348
241.0, -120346.03897881974, -112223.03506410541, -113963.78892228472, -113900.66759594293, -120532.6536932771, -112105.7554609484, -120629.95083689105, -113273.00825989345, -0.052000000000000005, 0.88, 0.494, 192.0, 0.0, 0.0, 0.0, 0.0, 0.0, 0.0, 0.0, 0.0, 0.0, 1.7307448293532207E9, 0.0, 2024-11-04 15:27:09.353
242.0, -120345.79310963073, -111615.87227772144, -113574.37683038437, -113427.90584896873, -120531.78197524334, -111841.15551008648, -120628.40856652363, -113097.03297579683, -0.052000000000000005, 0.88, 0.494, 192.0, 0.0, 0.0, 0.0, 0.0, 0.0, 0.0, 0.0, 0.0, 0.0, 1.7307448293572547E9, 0.0, 2024-11-04 15:27:09.357
243.0, -120342.46269970688, -112445.3902179468, -114037.50497549832, -113861.95437454635, -120528.76448974186, -112121.96047567851, -120626.5757234783, -113343.7515310945, -0.052000000000000005, 0.88, 0.494, 192.0, 0.0, 0.0, 0.0, 0.0, 0.0, 0.0, 0.0, 0.0, 0.0, 1.7307448293602865E9, 0.0, 2024-11-04 15:27:09.360
244.0, -120343.44617646292, -113236.1725850311, -114462.14341666024, -114257.35673396073, -120529.45739381999, -112284.36825089077, -120628.3191595458, -113560.27287963306, -0.052000000000000005, 0.88, 0.494, 192.0, 0.0, 0.0, 0.0, 0.0, 0.0, 0.0, 0.0, 0.0, 0.0, 1.7307448293632953E9, 0.0, 2024-11-04 15:27:09.363
245.0, -120345.27901950825, -112402.07253719242, -114095.5748075932, -113889.379964993, -120531.91608571007, -112173.43654315908, -120629.61556072421, -113338.99060952553, -0.052000000000000005, 0.88, 0.494, 192.0, 0.0, 0.0, 0.0, 0.0, 0.0, 0.0, 0.0, 0.0, 0.0, 1.7307448293673544E9, 0.0, 2024-11-04 15:27:09.367
246.0, -120343.91556309648, -111529.48278540169, -113601.82477257548, -113314.38133888022, -120529.703263009, -111873.38672559104, -120626.30750254483, -113109.03586256932, -0.052000000000000005, 0.88, 0.494, 192.0, 0.0, 0.0, 0.0, 0.0, 0.0, 0.0, 0.0, 0.0, 0.0, 1.7307448293712704E9, 0.0, 2024-11-04 15:27:09.371
247.0, -120339.93695258343, -112075.44649546701, -113895.14671506247, -113741.18789925432, -120526.12698389615, -112060.80610284879, -120623.69234844355, -113274.97521340552, -0.052000000000000005, 0.88, 0.494, 192.0, 0.0, 0.0, 0.0, 0.0, 0.0, 0.0, 0.0, 0.0, 0.0, 1.730744829376238E9, 0.0, 2024-11-04 15:27:09.376
248.0, -120338.48408919384, -113086.34884194718, -114443.68087574016, -114384.58286340033, -120524.76352748436, -112280.47904735555, -120623.53588623238, -113556.74130400912, -0.054, 0.874, 0.496, 192.0, 254.0, 80.0, 27.0, 80.0, 15.0, 128.0, 0.0, 0.0, 0.0, 1.7307448293803592E9, 0.0, 2024-11-04 15:27:09.380
249.0, -120340.94278108393, -112484.86339865487, -114178.18685510002, -114116.60779912566, -120527.6021990302, -112215.32371226832, -120625.59224672226, -113384.6105199588, -0.054, 0.874, 0.496, 192.0, 0.0, 0.0, 0.0, 0.0, 0.0, 0.0, 0.0, 0.0, 0.0, 1.7307448293833652E9, 0.0, 2024-11-04 15:27:09.383
250.0, -120341.85920260659, -111522.55374462054, -113647.95877313123, -113546.52655679305, -120527.73630949692, -111908.45661264141, -120624.29584554385, -113124.23504879893, -0.054, 0.874, 0.496, 192.0, 0.0, 0.0, 0.0, 0.0, 0.0, 0.0, 0.0, 0.0, 0.0, 1.730744829387141E9, 0.0, 2024-11-04 15:27:09.387
251.0, -120339.42286246097, -111771.32866040811, -113783.32093755258, -113627.48457521017, -120525.63524551813, -111988.8334857027, -120622.70887168753, -113208.3670149287, -0.054, 0.874, 0.496, 192.0, 0.0, 0.0, 0.0, 0.0, 0.0, 0.0, 0.0, 0.0, 0.0, 1.7307448293922935E9, 0.0, 2024-11-04 15:27:09.392
252.0, -120334.95251356991, -112895.10731638758, -114413.9530556146, -114231.5628208593, -120521.92485593855, -112268.16323616068, -120620.719566431, -113538.81520495597, -0.054, 0.874, 0.496, 192.0, 0.0, 0.0, 0.0, 0.0, 0.0, 0.0, 0.0, 0.0, 0.0, 1.7307448293953705E9, 0.0, 2024-11-04 15:27:09.395
253.0, -120335.89128683702, -112655.72013327124, -114272.64532716815, -114079.0792201852, -120522.7518704834, -112253.05345690888, -120621.05484259783, -113432.28679088198, -0.054, 0.874, 0.496, 192.0, 0.0, 0.0, 0.0, 0.0, 0.0, 0.0, 0.0, 0.0, 0.0, 1.7307448293993409E9, 0.0, 2024-11-04 15:27:09.399
254.0, -120340.31693223918, -111645.93537401383, -113729.095605504, -113487.89793108677, -120526.3952048296, -111956.78108415379, -120622.97709262099, -113154.23108985796, -0.054, 0.874, 0.496, 192.0, 0.0, 0.0, 0.0, 0.0, 0.0, 0.0, 0.0, 0.0, 0.0, 1.730744829403481E9, 0.0, 2024-11-04 15:27:09.403
255.0, -120339.06523454968, -111608.47385030673, -113686.82845673901, -113438.88055549629, -120525.12115539565, -111923.25346747083, -120621.99361586495, -113153.26996484637, -0.054, 0.874, 0.496, 192.0, 0.0, 0.0, 0.0, 0.0, 0.0, 0.0, 0.0, 0.0, 0.0, 1.7307448294073224E9, 0.0, 2024-11-04 15:27:09.407
0.0, -120332.87380133556, -112754.00075364123, -114333.7326447645, -114261.80473110733, -120519.80144021529, -112234.43445377762, -120618.37263326319, -113493.21764626713, -0.054, 0.874, 0.496, 192.0, 0.0, 0.0, 0.0, 0.0, 0.0, 0.0, 0.0, 0.0, 0.0, 1.730744829413473E9, 0.0, 2024-11-04 15:27:09.413
1.0, -120334.17020251397, -112796.2231989173, -114332.27978137492, -114257.20027174953, -120521.05313790479, -112256.36151508827, -120619.42316525259, -113463.17690171921, -0.054, 0.874, 0.496, 192.0, 0.0, 0.0, 0.0, 0.0, 0.0, 0.0, 0.0, 0.0, 0.0, 1.7307448294174984E9, 0.0, 2024-11-04 15:27:09.417
2.0, -120334.88545833653, -111784.9855762703, -113801.42585056137, -113717.45034664279, -120521.03078616034, -112002.06571842024, -120618.03735709637, -113188.13868619666, -0.056, 0.874, 0.49, 192.0, 254.0, 64.0, 27.0, 80.0, 15.0, 80.0, 0.0, 0.0, 0.0, 1.730744829420406E9, 0.0, 2024-11-04 15:27:09.420
3.0, -120333.58905715813, -111487.2156366367, -113611.05604303553, -113450.30229691295, -120519.37675707064, -111869.0504871667, -120616.29392102885, -113116.63545568413, -0.056, 0.874, 0.49, 192.0, 0.0, 0.0, 0.0, 0.0, 0.0, 0.0, 0.0, 0.0, 0.0, 1.730744829424412E9, 0.0, 2024-11-04 15:27:09.424
4.0, -120330.39275770102, -112610.43549900479, -114240.52587038587, -114061.35428683214, -120516.56043726928, -112204.2819505074, -120614.95281636153, -113450.2799451685, -0.056, 0.874, 0.49, 192.0, 0.0, 0.0, 0.0, 0.0, 0.0, 0.0, 0.0, 0.0, 0.0, 1.7307448294274745E9, 0.0, 2024-11-04 15:27:09.427
5.0, -120332.31500772417, -112888.6923657289, -114404.43121247664, -114198.61634953218, -120518.92972218154, -112275.98634672003, -120617.63502569617, -113515.94937037819, -0.056, 0.874, 0.49, 192.0, 0.0, 0.0, 0.0, 0.0, 0.0, 0.0, 0.0, 0.0, 0.0, 1.7307448294315467E9, 0.0, 2024-11-04 15:27:09.431
6.0, -120336.53948742623, -111896.54313284674, -113911.95522689287, -113700.2395034122, -120522.90833269458, -112071.62434716515, -120620.00431060843, -113238.0277798209, -0.056, 0.874, 0.49, 192.0, 0.0, 0.0, 0.0, 0.0, 0.0, 0.0, 0.0, 0.0, 0.0, 1.7307448294356444E9, 0.0, 2024-11-04 15:27:09.435
7.0, -120334.05844379168, -111366.35975436686, -113565.0561529465, -113279.06558264085, -120519.91319893757, -111848.41982703446, -120616.40567975113, -113091.62385363864, -0.056, 0.874, 0.49, 192.0, 0.0, 0.0, 0.0, 0.0, 0.0, 0.0, 0.0, 0.0, 0.0, 1.7307448294393568E9, 0.0, 2024-11-04 15:27:09.439
8.0, -120329.29752222271, -112271.47129434005, -114099.91104601754, -113998.27766397926, -120515.91223668007, -112156.69508656206, -120613.94698786104, -113376.29567102143, -0.056, 0.874, 0.49, 192.0, 0.0, 0.0, 0.0, 0.0, 0.0, 0.0, 0.0, 0.0, 0.0, 1.7307448294433897E9, 0.0, 2024-11-04 15:27:09.443
9.0, -120324.26837972026, -112831.11427201204, -114408.78980264543, -114335.07374943183, -120511.50894302237, -112278.53444558794, -120610.34835700374, -113517.6928064457, -0.056, 0.874, 0.49, 192.0, 0.0, 0.0, 0.0, 0.0, 0.0, 0.0, 0.0, 0.0, 0.0, 1.730744829448456E9, 0.0, 2024-11-04 15:27:09.448
10.0, -120324.08956576462, -112231.61813397624, -113971.23205318835, -113898.49947673077, -120510.39135579961, -112107.09656561574, -120607.93436860257, -113260.58068997631, -0.056, 0.874, 0.49, 192.0, 0.0, 0.0, 0.0, 0.0, 0.0, 0.0, 0.0, 0.0, 0.0, 1.7307448294515517E9, 0.0, 2024-11-04 15:27:09.451
11.0, -120324.29073146472, -111578.90249239237, -113550.16989113926, -113397.23925557606, -120509.92196916604, -111824.95049535639, -120606.57091219079, -113068.24392893839, -0.056, 0.874, 0.49, 192.0, 0.0, 0.0, 0.0, 0.0, 0.0, 0.0, 0.0, 0.0, 0.0, 1.730744829454439E9, 0.0, 2024-11-04 15:27:09.454
12.0, -120321.11678375206, -112324.73550137706, -113969.8015415432, -113782.60568173, -120507.28446332032, -112077.3016902568, -120604.87217961218, -113293.95184444808, -0.062, 0.878, 0.492, 192.0, 254.0, 16.0, 27.0, 112.0, 15.0, 96.0, 0.0, 0.0, 0.0, 1.7307448294595575E9, 0.0, 2024-11-04 15:27:09.459
13.0, -120321.27324596325, -113198.10756422373, -114436.6624279812, -114220.56576258728, -120507.19505634249, -112264.85517798128, -120605.90035985713, -113535.84242294342, -0.062, 0.878, 0.492, 192.0, 0.0, 0.0, 0.0, 0.0, 0.0, 0.0, 0.0, 0.0, 0.0, 1.7307448294634788E9, 0.0, 2024-11-04 15:27:09.463
14.0, -120321.80968783019, -112426.14536597078, -114096.06654597123, -113877.42178170942, -120508.20088484298, -112167.44627564505, -120605.90035985713, -113326.74185356402, -0.062, 0.878, 0.492, 192.0, 0.0, 0.0, 0.0, 0.0, 0.0, 0.0, 0.0, 0.0, 0.0, 1.7307448294674456E9, 0.0, 2024-11-04 15:27:09.467
15.0, -120320.58034188514, -111515.40118639484, -113591.74413582614, -113286.32989958882, -120506.21157958647, -111857.38287656104, -120602.45819121102, -113086.72882160293, -0.062, 0.878, 0.492, 192.0, 0.0, 0.0, 0.0, 0.0, 0.0, 0.0, 0.0, 0.0, 0.0, 1.7307448294714208E9, 0.0, 2024-11-04 15:27:09.471
16.0, -120318.47927790634, -111970.0803721047, -113836.33927540056, -113647.57879347549, -120504.51284700786, -112008.41361384555, -120601.45236271052, -113219.11820401171, -0.062, 0.878, 0.492, 192.0, 0.0, 0.0, 0.0, 0.0, 0.0, 0.0, 0.0, 0.0, 0.0, 1.73074482947659E9, 0.0, 2024-11-04 15:27:09.476
17.0, -120317.00406277229, -113026.98260867389, -114407.24753227801, -114337.15246166618, -120503.10468710717, -112246.61615450575, -120601.67588015507, -113515.50233548909, -0.062, 0.878, 0.492, 192.0, 0.0, 0.0, 0.0, 0.0, 0.0, 0.0, 0.0, 0.0, 0.0, 1.730744829479394E9, 0.0, 2024-11-04 15:27:09.479
18.0, -120316.28880694971, -112492.64180572532, -114175.7058114655, -114101.56507510724, -120502.81411442926, -112194.35777596924, -120600.78181037687, -113361.07413304737, -0.062, 0.878, 0.492, 192.0, 0.0, 0.0, 0.0, 0.0, 0.0, 0.0, 0.0, 0.0, 0.0, 1.7307448294845335E9, 0.0, 2024-11-04 15:27:09.484
19.0, -120316.400565672, -111521.3243986755, -113640.29212478307, -113530.05332112948, -120502.09885860668, -111888.74237403183, -120598.68074639807, -113098.88817058661, -0.062, 0.878, 0.492, 192.0, 0.0, 0.0, 0.0, 0.0, 0.0, 0.0, 0.0, 0.0, 0.0, 1.730744829488423E9, 0.0, 2024-11-04 15:27:09.488
20.0, -120313.56189412618, -111688.89542685694, -113725.58638162451, -113556.33897260892, -120499.50605624987, -111942.43126421348, -120596.3114614858, -113154.11933113568, -0.062, 0.878, 0.492, 192.0, 0.0, 0.0, 0.0, 0.0, 0.0, 0.0, 0.0, 0.0, 0.0, 1.7307448294925673E9, 0.0, 2024-11-04 15:27:09.492
21.0, -120311.41612665846, -112821.19009747388, -114367.81905505885, -114174.63292773163, -120498.29906204928, -112237.20607009008, -120596.89260684165, -113491.94359683318, -0.062, 0.878, 0.492, 192.0, 0.0, 0.0, 0.0, 0.0, 0.0, 0.0, 0.0, 0.0, 0.0, 1.730744829496395E9, 0.0, 2024-11-04 15:27:09.496
22.0, -120312.13138248103, -112677.96011900427, -114268.35379223274, -114059.74496123135, -120499.08137310522, -112223.79502341688, -120597.18317951956, -113407.9680929146, -0.058, 0.874, 0.488, 192.0, 254.0, 48.0, 27.0, 80.0, 15.0, 64.0, 0.0, 0.0, 0.0, 1.7307448295004632E9, 0.0, 2024-11-04 15:27:09.500
23.0, -120313.15956272598, -111663.54854864461, -113724.78171882412, -113477.37025944833, -120499.01431787186, -111943.41474096951, -120595.68561264106, -113131.20879306899, -0.058, 0.874, 0.488, 192.0, 0.0, 0.0, 0.0, 0.0, 0.0, 0.0, 0.0, 0.0, 0.0, 1.7307448295034523E9, 0.0, 2024-11-04 15:27:09.503
24.0, -120309.80680105768, -111532.83554706998, -113627.7751478881, -113360.56004292489, -120495.54979748129, -111875.89012097003, -120592.37755446168, -113106.97950207944, -0.058, 0.874, 0.488, 192.0, 0.0, 0.0, 0.0, 0.0, 0.0, 0.0, 0.0, 0.0, 0.0, 1.7307448295063107E9, 0.0, 2024-11-04 15:27:09.506
25.0, -120306.18581845592, -112646.2876971111, -114269.69489690005, -114193.43074481854, -120493.0911055912, -112205.2877790079, -120591.55053991683, -113442.88151775379, -0.058, 0.874, 0.488, 192.0, 0.0, 0.0, 0.0, 0.0, 0.0, 0.0, 0.0, 0.0, 0.0, 1.7307448295105565E9, 0.0, 2024-11-04 15:27:09.510
26.0, -120307.07988823413, -112816.60798986054, -114317.12529863422, -114240.07883549677, -120493.87341664714, -112239.30713406888, -120592.28814748385, -113438.81350026293, -0.058, 0.874, 0.488, 192.0, 0.0, 0.0, 0.0, 0.0, 0.0, 0.0, 0.0, 0.0, 0.0, 1.730744829515447E9, 0.0, 2024-11-04 15:27:09.515
27.0, -120310.25383594679, -111831.23133554833, -113797.26842609268, -113713.18116345182, -120496.10859109266, -111994.95786368345, -120592.98105156196, -113164.3564300962, -0.058, 0.874, 0.488, 192.0, 0.0, 0.0, 0.0, 0.0, 0.0, 0.0, 0.0, 0.0, 0.0, 1.7307448295194368E9, 0.0, 2024-11-04 15:27:09.519
28.0, -120310.45500164689, -111445.1049500829, -113557.03187668705, -113396.25577882002, -120495.95212888147, -111831.61131520406, -120592.62342365069, -113070.56851036174, -0.058, 0.874, 0.488, 192.0, 0.0, 0.0, 0.0, 0.0, 0.0, 0.0, 0.0, 0.0, 0.0, 1.730744829523384E9, 0.0, 2024-11-04 15:27:09.523
29.0, -120307.30340567869, -112490.0490033685, -114165.87104390515, -113983.3019951942, -120493.76165792486, -112161.70187732004, -120591.95287131701, -113393.64062471876, -0.058, 0.874, 0.488, 192.0, 0.0, 0.0, 0.0, 0.0, 0.0, 0.0, 0.0, 0.0, 0.0, 1.7307448295277677E9, 0.0, 2024-11-04 15:27:09.527
30.0, -120307.63868184552, -112937.62033434157, -114380.73836335402, -114169.76024744037, -120494.20869281396, -112245.56562251635, -120592.86929283969, -113486.75799211956, -0.058, 0.874, 0.488, 192.0, 0.0, 0.0, 0.0, 0.0, 0.0, 0.0, 0.0, 0.0, 0.0, 1.7307448295304484E9, 0.0, 2024-11-04 15:27:09.530
31.0, -120309.71739407985, -112002.06571842024, -113908.33424429111, -113691.1870469078, -120495.70625969247, -112060.26966098187, -120592.84694109524, -113218.44765167806, -0.058, 0.874, 0.488, 192.0, 0.0, 0.0, 0.0, 0.0, 0.0, 0.0, 0.0, 0.0, 0.0, 1.730744829534603E9, 0.0, 2024-11-04 15:27:09.534
32.0, -120310.07502199114, -111381.1342574518, -113539.61986775635, -113220.92869531258, -120495.46039050346, -111805.638588147, -120591.99757480594, -113050.60840256316, -0.056, 0.876, 0.492, 192.0, 254.0, 64.0, 27.0, 96.0, 15.0, 96.0, 0.0, 0.0, 0.0, 1.7307448295384085E9, 0.0, 2024-11-04 15:27:09.538
33.0, -120304.95647251088, -112215.1896018016, -114031.02296960629, -113918.8395641851, -120491.48177999041, -112092.56793171978, -120589.27066198239, -113317.1976586816, -0.056, 0.876, 0.492, 192.0, 0.0, 0.0, 0.0, 0.0, 0.0, 0.0, 0.0, 0.0, 0.0, 1.7307448295435889E9, 0.0, 2024-11-04 15:27:09.543
34.0, -120301.64841433149, -112848.95096408737, -114389.54495066941, -114328.81526098434, -120489.17955031151, -112234.14388109969, -120587.8625020817, -113487.0932682864, -0.056, 0.876, 0.492, 192.0, 0.0, 0.0, 0.0, 0.0, 0.0, 0.0, 0.0, 0.0, 0.0, 1.7307448295475507E9, 0.0, 2024-11-04 15:27:09.547
35.0, -120303.61536784357, -112284.81528577987, -113974.60716660108, -113915.01741588324, -120490.00656485636, -112076.98876583444, -120587.39311544814, -113240.68763741109, -0.056, 0.876, 0.492, 192.0, 0.0, 0.0, 0.0, 0.0, 0.0, 0.0, 0.0, 0.0, 0.0, 1.7307448295516047E9, 0.0, 2024-11-04 15:27:09.551
36.0, -120303.50360912128, -111594.74987921119, -113526.61115248337, -113392.76890668499, -120488.8889776336, -111782.61629135803, -120585.67203112508, -113040.30424836926, -0.056, 0.876, 0.492, 192.0, 0.0, 0.0, 0.0, 0.0, 0.0, 0.0, 0.0, 0.0, 0.0, 1.7307448295555997E9, 0.0, 2024-11-04 15:27:09.555
37.0, -120300.53082710873, -112257.61321277777, -113898.70064243086, -113726.9498380363, -120486.36323051015, -112017.75664302787, -120583.97329854648, -113246.78966364737, -0.056, 0.876, 0.492, 192.0, 0.0, 0.0, 0.0, 0.0, 0.0, 0.0, 0.0, 0.0, 0.0, 1.7307448295584588E9, 0.0, 2024-11-04 15:27:09.558
38.0, -120298.58622534112, -113188.78688678586, -114401.79370663092, -114201.96911120048, -120484.2398147869, -112245.45386379409, -120582.92276655708, -113504.32646326143, -0.056, 0.876, 0.492, 192.0, 0.0, 0.0, 0.0, 0.0, 0.0, 0.0, 0.0, 0.0, 0.0, 1.730744829562713E9, 0.0, 2024-11-04 15:27:09.562
39.0, -120300.75434455328, -112475.45331423919, -114094.61368258164, -113890.98929059379, -120486.92202412154, -112148.84962425825, -120584.68855436904, -113310.35802487827, -0.056, 0.876, 0.492, 192.0, 0.0, 0.0, 0.0, 0.0, 0.0, 0.0, 0.0, 0.0, 0.0, 1.7307448295664792E9, 0.0, 2024-11-04 15:27:09.566
40.0, -120301.53665560922, -111527.0240935116, -113583.6081008444, -113290.75554499097, -120486.89967237708, -111831.3430942706, -120583.36980144618, -113060.51022535685, -0.056, 0.876, 0.492, 192.0, 0.0, 0.0, 0.0, 0.0, 0.0, 0.0, 0.0, 0.0, 0.0, 1.7307448295715466E9, 0.0, 2024-11-04 15:27:09.571
41.0, -120296.50751310677, -111890.26229265479, -113776.23543456024, -113581.86466477689, -120482.183454297, -111951.90840386253, -120579.10061825522, -113169.43027608756, -0.056, 0.876, 0.492, 192.0, 0.0, 0.0, 0.0, 0.0, 0.0, 0.0, 0.0, 0.0, 0.0, 1.730744829575614E9, 0.0, 2024-11-04 15:27:09.575
42.0, -120295.30051890618, -112989.07405007769, -114370.7918370714, -114306.0835368733, -120480.99881184088, -112221.11281408225, -120579.72646709997, -113481.79590485049, -0.062, 0.872, 0.486, 192.0, 254.0, 16.0, 27.0, 64.0, 15.0, 48.0, 0.0, 0.0, 0.0, 1.7307448295796888E9, 0.0, 2024-11-04 15:27:09.579
43.0, -120296.68632706242, -112528.09167243144, -114179.43855278952, -114109.14231647758, -120482.89871011958, -112177.0798775053, -120581.08992351174, -113349.51828116397, -0.062, 0.872, 0.486, 192.0, 0.0, 0.0, 0.0, 0.0, 0.0, 0.0, 0.0, 0.0, 0.0, 1.730744829582526E9, 0.0, 2024-11-04 15:27:09.582
44.0, -120298.80974278567, -111530.71213134672, -113641.81204340603, -113538.14465262232, -120484.15040780908, -111873.92316745796, -120580.9111095561, -113088.02522278133, -0.062, 0.872, 0.486, 192.0, 0.0, 0.0, 0.0, 0.0, 0.0, 0.0, 0.0, 0.0, 0.0, 1.73074482958655E9, 0.0, 2024-11-04 15:27:09.586
45.0, -120293.55708283867, -111603.98114967122, -113669.10352338596, -113504.14764930579, -120479.00950658435, -111890.84343801063, -120576.08313275376, -113123.43038599854, -0.062, 0.872, 0.486, 192.0, 0.0, 0.0, 0.0, 0.0, 0.0, 0.0, 0.0, 0.0, 0.0, 1.7307448295906353E9, 0.0, 2024-11-04 15:27:09.590
46.0, -120287.90209149149, -112677.20015969279, -114318.04172015688, -114130.66704638804, -120474.87443386012, -112204.84074411879, -120573.55738563031, -113462.95338427466, -0.062, 0.872, 0.486, 192.0, 0.0, 0.0, 0.0, 0.0, 0.0, 0.0, 0.0, 0.0, 0.0, 1.7307448295946777E9, 0.0, 2024-11-04 15:27:09.594
47.0, -120288.1479606805, -112659.27406063964, -114252.6181641362, -114049.08317912617, -120474.82973037122, -112197.79994461537, -120573.22210946347, -113391.67367120668, -0.062, 0.872, 0.486, 192.0, 0.0, 0.0, 0.0, 0.0, 0.0, 0.0, 0.0, 0.0, 0.0, 1.7307448295996888E9, 0.0, 2024-11-04 15:27:09.599
48.0, -120289.42201011445, -111872.44795232391, -113710.74482330619, -113468.45191341067, -120474.78502688231, -111915.43035691147, -120571.70219084051, -113110.75694689238, -0.062, 0.872, 0.486, 192.0, 0.0, 0.0, 0.0, 0.0, 0.0, 0.0, 0.0, 0.0, 0.0, 1.7307448296035104E9, 0.0, 2024-11-04 15:27:09.603
49.0, -120287.25389090227, -111669.85174058101, -113568.69948729272, -113289.83912346831, -120472.54985243677, -111809.46073644886, -120569.3105541838, -113056.06222821024, -0.062, 0.872, 0.486, 192.0, 0.0, 0.0, 0.0, 0.0, 0.0, 0.0, 0.0, 0.0, 0.0, 1.7307448296076784E9, 0.0, 2024-11-04 15:27:09.607
50.0, -120283.40939085596, -112822.24062946328, -114201.56677980028, -114137.35021798019, -120469.0853320462, -112152.64942081565, -120567.32124892727, -113390.37727002827, -0.062, 0.872, 0.486, 192.0, 0.0, 0.0, 0.0, 0.0, 0.0, 0.0, 0.0, 0.0, 0.0, 1.7307448296106627E9, 0.0, 2024-11-04 15:27:09.610
51.0, -120286.51628333525, -112974.05367780372, -114305.6812054731, -114245.17503323258, -120472.23692801439, -112218.81058440336, -120570.76341757338, -113422.38496808827, -0.062, 0.872, 0.486, 192.0, 0.0, 0.0, 0.0, 0.0, 0.0, 0.0, 0.0, 0.0, 0.0, 1.7307448296146739E9, 0.0, 2024-11-04 15:27:09.614
52.0, -120286.96331822436, -111919.92305754698, -113802.78930697315, -113735.04116952911, -120472.57220418123, -111979.15518035355, -120569.7575890729, -113154.00757241341, -0.062, 0.872, 0.488, 192.0, 254.0, 16.0, 27.0, 64.0, 15.0, 64.0, 0.0, 0.0, 0.0, 1.7307448296186528E9, 0.0, 2024-11-04 15:27:09.618
53.0, -120287.05272520217, -111454.5597379875, -113534.16604210927, -113376.89916812173, -120472.25927975886, -111787.31015769365, -120568.8635192947, -113038.49375706837, -0.062, 0.872, 0.488, 192.0, 0.0, 0.0, 0.0, 0.0, 0.0, 0.0, 0.0, 0.0, 0.0, 1.7307448296225853E9, 0.0, 2024-11-04 15:27:09.622
54.0, -120285.15282692348, -112485.22102656616, -114114.46203165795, -113937.61502952756, -120470.96287858044, -112112.43863254055, -120568.79646406132, -113344.42208342816, -0.062, 0.872, 0.488, 192.0, 0.0, 0.0, 0.0, 0.0, 0.0, 0.0, 0.0, 0.0, 0.0, 1.7307448296276066E9, 0.0, 2024-11-04 15:27:09.627
55.0, -120283.1858734114, -112978.1663987835, -114378.72670635305, -114174.76703819836, -120469.0853320462, -112211.54626745539, -120567.56711811628, -113468.80954132194, -0.062, 0.872, 0.488, 192.0, 0.0, 0.0, 0.0, 0.0, 0.0, 0.0, 0.0, 0.0, 0.0, 1.7307448296315784E9, 0.0, 2024-11-04 15:27:09.631
56.0, -120285.95748972386, -112019.25420990637, -113926.21563985535, -113719.79727981059, -120471.67813440302, -112043.03646600682, -120568.95292627251, -113210.26691320741, -0.062, 0.872, 0.488, 192.0, 0.0, 0.0, 0.0, 0.0, 0.0, 0.0, 0.0, 0.0, 0.0, 1.7307448296355903E9, 0.0, 2024-11-04 15:27:09.635
57.0, -120283.63290830051, -111345.34911457886, -113517.71515819016, -113219.29701796736, -120468.77240762382, -111776.24604418827, -120565.33194367075, -113029.86598370863, -0.062, 0.872, 0.488, 192.0, 0.0, 0.0, 0.0, 0.0, 0.0, 0.0, 0.0, 0.0, 0.0, 1.730744829639563E9, 0.0, 2024-11-04 15:27:09.639
58.0, -120278.15673090897, -112121.7146064895, -113971.07559097715, -113851.60551686354, -120464.25735524386, -112050.72546609945, -120562.00153374691, -113273.76821920494, -0.062, 0.872, 0.488, 192.0, 0.0, 0.0, 0.0, 0.0, 0.0, 0.0, 0.0, 0.0, 0.0, 1.730744829642449E9, 0.0, 2024-11-04 15:27:09.642
59.0, -120276.94973670838, -112820.6760073514, -114375.44099991811, -114309.77157470841, -120463.96678256593, -112224.15265132817, -120562.71678956949, -113468.8318930664, -0.062, 0.872, 0.488, 192.0, 0.0, 0.0, 0.0, 0.0, 0.0, 0.0, 0.0, 0.0, 0.0, 1.7307448296465547E9, 0.0, 2024-11-04 15:27:09.646
60.0, -120278.96139370935, -112304.26130345599, -113990.11927725308, -113925.1427561215, -120465.10672153316, -112076.6534896676, -120562.6050308472, -113234.20563151904, -0.062, 0.872, 0.488, 192.0, 0.0, 0.0, 0.0, 0.0, 0.0, 0.0, 0.0, 0.0, 0.0, 1.73074482965256E9, 0.0, 2024-11-04 15:27:09.652
61.0, -120280.92834722143, -111584.84805641748, -113521.71612044766, -113385.72810718157, -120466.06784654473, -111769.80874178515, -120562.67208608057, -113020.65706499304, -0.062, 0.872, 0.488, 192.0, 0.0, 0.0, 0.0, 0.0, 0.0, 0.0, 0.0, 0.0, 0.0, 1.7307448296565776E9, 0.0, 2024-11-04 15:27:09.656
62.0, -120277.75439950878, -112162.55124360934, -113839.82614753558, -113664.45436053925, -120463.36328546565, -111971.28736630529, -120560.8615947797, -113203.0696514928, -0.06, 0.876, 0.488, 192.0, 254.0, 32.0, 27.0, 96.0, 15.0, 64.0, 0.0, 0.0, 0.0, 1.7307448296607735E9, 0.0, 2024-11-04 15:27:09.660
63.0, -120277.4414750864, -113158.8579009602, -114380.98423254302, -114179.66207023407, -120462.80449185426, -112210.65219767716, -120561.44274013554, -113481.39357345029, -0.06, 0.876, 0.488, 192.0, 0.0, 0.0, 0.0, 0.0, 0.0, 0.0, 0.0, 0.0, 0.0, 1.7307448296644924E9, 0.0, 2024-11-04 15:27:09.664
64.0, -120278.4920070758, -112510.43379431174, -114108.76233682185, -113904.55679947816, -120464.39146571058, -112139.64070554265, -120562.11329246919, -113306.46882134305, -0.06, 0.876, 0.488, 192.0, 0.0, 0.0, 0.0, 0.0, 0.0, 0.0, 0.0, 0.0, 0.0, 1.730744829667761E9, 0.0, 2024-11-04 15:27:09.667
65.0, -120277.46382683085, -111525.23595395517, -113580.07652522046, -113301.70789977408, -120462.67038138752, -111823.67644592244, -120558.98404824545, -113052.53065258631, -0.06, 0.876, 0.488, 192.0, 0.0, 0.0, 0.0, 0.0, 0.0, 0.0, 0.0, 0.0, 0.0, 1.7307448296706505E9, 0.0, 2024-11-04 15:27:09.670
66.0, -120271.85353897257, -111794.84269557509, -113713.06940472954, -113506.00284409558, -120457.2836109738, -111908.07663298567, -120554.49134760993, -113140.86474667369, -0.06, 0.876, 0.488, 192.0, 0.0, 0.0, 0.0, 0.0, 0.0, 0.0, 0.0, 0.0, 0.0, 1.7307448296746185E9, 0.0, 2024-11-04 15:27:09.674
67.0, -120269.39484708248, -112930.08779646014, -114336.52661282143, -114266.85622535423, -120454.9813812949, -112195.22949400301, -120553.59727783171, -113464.42859940871, -0.06, 0.876, 0.488, 192.0, 0.0, 0.0, 0.0, 0.0, 0.0, 0.0, 0.0, 0.0, 0.0, 1.730744829678714E9, 0.0, 2024-11-04 15:27:09.678
68.0, -120272.79231223969, -112568.72714385118, -114193.20722737399, -114117.99360728188, -120458.9376400635, -112177.25869146094, -120557.01709473338, -113356.69319113412, -0.06, 0.876, 0.488, 192.0, 0.0, 0.0, 0.0, 0.0, 0.0, 0.0, 0.0, 0.0, 0.0, 1.7307448296827364E9, 0.0, 2024-11-04 15:27:09.682
69.0, -120274.11106516255, -111556.75191363716, -113650.84214816596, -113551.42158882876, -120459.31761971924, -111881.45570533941, -120555.92185925506, -113078.12339998763, -0.06, 0.876, 0.488, 192.0, 0.0, 0.0, 0.0, 0.0, 0.0, 0.0, 0.0, 0.0, 0.0, 1.730744829687536E9, 0.0, 2024-11-04 15:27:09.687
70.0, -120273.77578899573, -111534.62368662641, -113620.53318268456, -113455.30908767095, -120459.07175053022, -111854.79007420423, -120555.83245227725, -113084.87362681313, -0.06, 0.876, 0.488, 192.0, 0.0, 0.0, 0.0, 0.0, 0.0, 0.0, 0.0, 0.0, 0.0, 1.7307448296915092E9, 0.0, 2024-11-04 15:27:09.691
71.0, -120268.50077730427, -112621.25374332115, -114278.79205689336, -114092.04323196928, -120455.2272504839, -112168.85443554574, -120553.7537400429, -113430.34218911437, -0.06, 0.876, 0.488, 192.0, 0.0, 0.0, 0.0, 0.0, 0.0, 0.0, 0.0, 0.0, 0.0, 1.7307448296957948E9, 0.0, 2024-11-04 15:27:09.695
72.0, -120267.80787322616, -112682.67633708434, -114264.44223695305, -114059.58849902017, -120454.64610512806, -112186.84758983226, -120552.92672549805, -113387.58330197136, -0.06, 0.88, 0.488, 192.0, 254.0, 32.0, 27.0, 128.0, 15.0, 64.0, 0.0, 0.0, 0.0, 1.7307448296995952E9, 0.0, 2024-11-04 15:27:09.699
73.0, -120266.17619588092, -111910.20004870892, -113725.76519558016, -113494.31288174546, -120451.6286196266, -111920.25833371382, -120548.36696962918, -113107.67240615755, -0.06, 0.88, 0.488, 192.0, 0.0, 0.0, 0.0, 0.0, 0.0, 0.0, 0.0, 0.0, 0.0, 1.7307448297036965E9, 0.0, 2024-11-04 15:27:09.703
74.0, -120264.1868906244, -111636.14530994241, -113527.28170481703, -113248.86837588172, -120449.34874169216, -111785.56672162614, -120546.02003646137, -113035.16334714454, -0.06, 0.88, 0.488, 192.0, 0.0, 0.0, 0.0, 0.0, 0.0, 0.0, 0.0, 0.0, 0.0, 1.730744829706938E9, 0.0, 2024-11-04 15:27:09.706
75.0, -120262.04112315668, -112762.24854734524, -114150.38128499762, -114082.20846440893, -120447.53825039128, -112124.41916756859, -120545.66240855008, -113362.25877550349, -0.06, 0.88, 0.488, 192.0, 0.0, 0.0, 0.0, 0.0, 0.0, 0.0, 0.0, 0.0, 0.0, 1.730744829710692E9, 0.0, 2024-11-04 15:27:09.710
76.0, -120261.90701268996, -113011.55990499973, -114307.91637991864, -114248.72896060097, -120447.426491669, -112193.26254049093, -120545.79651901682, -113422.00498843253, -0.06, 0.88, 0.488, 192.0, 0.0, 0.0, 0.0, 0.0, 0.0, 0.0, 0.0, 0.0, 0.0, 1.7307448297157876E9, 0.0, 2024-11-04 15:27:09.715
77.0, -120262.71167549035, -111967.55462498125, -113820.04485369264, -113759.06929481856, -120448.20880272494, -111985.21250310093, -120545.26007714988, -113154.27579334687, -0.06, 0.88, 0.488, 192.0, 0.0, 0.0, 0.0, 0.0, 0.0, 0.0, 0.0, 0.0, 0.0, 1.7307448297186363E9, 0.0, 2024-11-04 15:27:09.718
78.0, -120263.38222782401, -111425.0554353065, -113499.05145156998, -113362.28112724796, -120448.38761668059, -111773.00504124226, -120544.96950447197, -113021.70759698244, -0.06, 0.88, 0.488, 192.0, 0.0, 0.0, 0.0, 0.0, 0.0, 0.0, 0.0, 0.0, 0.0, 1.7307448297227597E9, 0.0, 2024-11-04 15:27:09.722
79.0, -120262.80108246817, -112405.49235409408, -114051.69833322744, -113892.95624410585, -120448.18645098049, -112091.69621368602, -120546.10944343919, -113319.20931568257, -0.06, 0.88, 0.488, 192.0, 0.0, 0.0, 0.0, 0.0, 0.0, 0.0, 0.0, 0.0, 0.0, 1.7307448297266183E9, 0.0, 2024-11-04 15:27:09.726
80.0, -120259.67183824442, -112982.30147150773, -114368.10962773678, -114179.46090453397, -120445.19131722348, -112205.5783516858, -120543.71780678247, -113469.36833493333, -0.06, 0.88, 0.488, 192.0, 0.0, 0.0, 0.0, 0.0, 0.0, 0.0, 0.0, 0.0, 0.0, 1.7307448297306473E9, 0.0, 2024-11-04 15:27:09.730
81.0, -120261.30351558967, -112052.8488818227, -113935.8939452045, -113749.5921551695, -120446.93475329099, -112052.44655042251, -120544.12013818267, -113217.08419526627, -0.06, 0.88, 0.488, 192.0, 0.0, 0.0, 0.0, 0.0, 0.0, 0.0, 0.0, 0.0, 0.0, 1.730744829734609E9, 0.0, 2024-11-04 15:27:09.734
82.0, -120262.26464060125, -111330.08287311588, -113504.4382219837, -113222.76153835793, -120447.13591899109, -111775.75430581026, -120543.15901317108, -113019.02538764781, -0.054, 0.882, 0.492, 192.0, 254.0, 80.0, 27.0, 144.0, 15.0, 96.0, 0.0, 0.0, 0.0, 1.73074482973854E9, 0.0, 2024-11-04 15:27:09.738
83.0, -120256.09555913157, -112040.51071888336, -113919.97950315232, -113757.66113491789, -120441.81620381073, -112019.52243083983, -120539.11334742467, -113234.98794257498, -0.054, 0.882, 0.492, 192.0, 0.0, 0.0, 0.0, 0.0, 0.0, 0.0, 0.0, 0.0, 0.0, 1.7307448297435815E9, 0.0, 2024-11-04 15:27:09.743
84.0, -120254.17330910842, -112808.38254790098, -114371.17181672715, -114269.5160829444, -120441.05624449924, -112197.35290972627, -120539.64978929161, -113459.84649179537, -0.054, 0.882, 0.492, 192.0, 0.0, 0.0, 0.0, 0.0, 0.0, 0.0, 0.0, 0.0, 0.0, 1.7307448297466817E9, 0.0, 2024-11-04 15:27:09.746
85.0, -120256.3414283206, -112339.018266084, -114016.5613909437, -113913.72101470483, -120442.28559044428, -112087.27056828387, -120539.87330673616, -113239.34653274376, -0.054, 0.882, 0.492, 192.0, 0.0, 0.0, 0.0, 0.0, 0.0, 0.0, 0.0, 0.0, 0.0, 1.7307448297506447E9, 0.0, 2024-11-04 15:27:09.750
86.0, -120256.3414283206, -111591.62063498744, -113518.11748959035, -113358.74955162402, -120441.39152066607, -111777.27422443322, -120537.83929799072, -113009.74941369885, -0.054, 0.882, 0.492, 192.0, 0.0, 0.0, 0.0, 0.0, 0.0, 0.0, 0.0, 0.0, 0.0, 1.730744829754682E9, 0.0, 2024-11-04 15:27:09.754
87.0, -120253.54746026367, -112081.41441123658, -113780.14698983992, -113581.32822290996, -120438.93282877599, -111945.71697064841, -120535.96175145647, -113157.24857535942, -0.054, 0.882, 0.492, 192.0, 0.0, 0.0, 0.0, 0.0, 0.0, 0.0, 0.0, 0.0, 0.0, 1.7307448297588804E9, 0.0, 2024-11-04 15:27:09.758
88.0, -120251.22287884032, -113136.17088033806, -114358.27486017643, -114129.61651439864, -120436.31767467472, -112190.42386894512, -120534.73240551143, -113456.27021268252, -0.054, 0.882, 0.492, 192.0, 0.0, 0.0, 0.0, 0.0, 0.0, 0.0, 0.0, 0.0, 0.0, 1.7307448297627013E9, 0.0, 2024-11-04 15:27:09.762
89.0, -120252.25105908526, -112568.3695159399, -114124.07328177373, -113888.03886032569, -120437.83759329768, -112140.93710672106, -120535.62647528965, -113300.36679510675, -0.054, 0.882, 0.492, 192.0, 0.0, 0.0, 0.0, 0.0, 0.0, 0.0, 0.0, 0.0, 0.0, 1.7307448297665796E9, 0.0, 2024-11-04 15:27:09.766
90.0, -120252.69809397437, -111549.64405890038, -113581.84231303244, -113279.46791404104, -120437.61407585313, -111831.3430942706, -120534.10655666668, -113043.52289957082, -0.054, 0.882, 0.492, 192.0, 0.0, 0.0, 0.0, 0.0, 0.0, 0.0, 0.0, 0.0, 0.0, 1.7307448297717628E9, 0.0, 2024-11-04 15:27:09.771
91.0, -120249.16651835044, -111722.60185749554, -113663.44853203876, -113425.06717742291, -120434.21661069592, -111878.39351634902, -120531.13377465412, -113096.83181009673, -0.054, 0.882, 0.492, 192.0, 0.0, 0.0, 0.0, 0.0, 0.0, 0.0, 0.0, 0.0, 0.0, 1.7307448297748191E9, 0.0, 2024-11-04 15:27:09.774
92.0, -120246.4843090158, -112883.99849939329, -114299.95915889254, -114224.92435275608, -120431.7802705503, -112169.23441520148, -120530.1055944092, -113427.36940710181, -0.054, 0.882, 0.492, 192.0, 0.0, 0.0, 0.0, 0.0, 0.0, 0.0, 0.0, 0.0, 0.0, 1.7307448297786434E9, 0.0, 2024-11-04 15:27:09.778
93.0, -120249.52414626171, -112611.1284030829, -114198.9069222101, -114117.99360728188, -120435.20008745196, -112166.30633667784, -120533.32424561075, -113343.21508922758, -0.054, 0.886, 0.482, 192.0, 254.0, 80.0, 27.0, 176.0, 15.0, 16.0, 0.0, 0.0, 0.0, 1.7307448297827058E9, 0.0, 2024-11-04 15:27:09.782
94.0, -120251.06641662914, -111580.60122497097, -113655.67012496831, -113556.98717319813, -120435.98239850788, -111885.14374317453, -120532.58663804372, -113066.3887341486, -0.054, 0.886, 0.482, 192.0, 0.0, 0.0, 0.0, 0.0, 0.0, 0.0, 0.0, 0.0, 0.0, 1.7307448297868617E9, 0.0, 2024-11-04 15:27:09.786
95.0, -120250.10529161755, -111473.84929345243, -113578.28838566404, -113406.1128981248, -120434.95421826295, -111829.1973268029, -120531.6031612877, -113045.0875216827, -0.054, 0.886, 0.482, 192.0, 0.0, 0.0, 0.0, 0.0, 0.0, 0.0, 0.0, 0.0, 0.0, 1.7307448297907107E9, 0.0, 2024-11-04 15:27:09.790
96.0, -120246.41725378243, -112555.04787624454, -114230.86991678119, -114038.73432144336, -120432.60728509513, -112151.46477835951, -120531.08907116522, -113387.24802580453, -0.054, 0.886, 0.482, 192.0, 0.0, 0.0, 0.0, 0.0, 0.0, 0.0, 0.0, 0.0, 0.0, 1.730744829794669E9, 0.0, 2024-11-04 15:27:09.794
97.0, -120245.76905319323, -112687.92899703134, -114262.72115263, -114051.11718787161, -120432.07084322821, -112180.36558394022, -120530.5526292983, -113369.74660989603, -0.054, 0.886, 0.482, 192.0, 0.0, 0.0, 0.0, 0.0, 0.0, 0.0, 0.0, 0.0, 0.0, 1.73074482979989E9, 0.0, 2024-11-04 15:27:09.799
98.0, -120246.17138459343, -111933.31175247571, -113738.77391085314, -113500.03492832601, -120431.22147693891, -111930.89776407454, -120528.13864089712, -113089.90276931558, -0.054, 0.886, 0.482, 192.0, 0.0, 0.0, 0.0, 0.0, 0.0, 0.0, 0.0, 0.0, 0.0, 1.7307448298027384E9, 0.0, 2024-11-04 15:27:09.802
99.0, -120245.72434970431, -111580.0871348485, -113502.87359987183, -113193.43604963257, -120430.46151762742, -111766.59009058359, -120527.33397809674, -112994.14789606904, -0.054, 0.886, 0.482, 192.0, 0.0, 0.0, 0.0, 0.0, 0.0, 0.0, 0.0, 0.0, 0.0, 1.7307448298057313E9, 0.0, 2024-11-04 15:27:09.805
100.0, -120243.08684385859, -112666.78424677662, -114100.76041230684, -114017.18723978844, -120428.15928794853, -112094.08785034274, -120526.3505013407, -113310.73800453401, -0.054, 0.886, 0.482, 192.0, 0.0, 0.0, 0.0, 0.0, 0.0, 0.0, 0.0, 0.0, 0.0, 1.7307448298106985E9, 0.0, 2024-11-04 15:27:09.810
101.0, -120241.00813162424, -113021.81935570472, -114311.5820660093, -114244.0127425209, -120426.05822396974, -112174.95646178204, -120524.54001003981, -113400.25674107752, -0.054, 0.886, 0.482, 192.0, 0.0, 0.0, 0.0, 0.0, 0.0, 0.0, 0.0, 0.0, 0.0, 1.7307448298147993E9, 0.0, 2024-11-04 15:27:09.814
102.0, -120242.25982931374, -112002.89273296509, -113839.24500217976, -113771.36275426898, -120427.51108735932, -111989.682851992, -120524.67412050655, -113139.8589181732, -0.054, 0.886, 0.482, 192.0, 0.0, 0.0, 0.0, 0.0, 0.0, 0.0, 0.0, 0.0, 0.0, 1.7307448298187623E9, 0.0, 2024-11-04 15:27:09.818
103.0, -120242.57275373612, -111390.25376918957, -113476.31972745893, -113335.9954757685, -120427.24286642586, -111751.63677354298, -120523.86945770615, -112984.98368084237, -0.05, 0.888, 0.492, 192.0, 254.0, 112.0, 27.0, 192.0, 15.0, 96.0, 0.0, 0.0, 0.0, 1.730744829822719E9, 0.0, 2024-11-04 15:27:09.822
104.0, -120240.2258205683, -112299.81330630938, -113991.61684413158, -113825.18575491736, -120425.2759129138, -112043.01411426236, -120523.0424431613, -113257.00441086346, -0.05, 0.888, 0.492, 192.0, 0.0, 0.0, 0.0, 0.0, 0.0, 0.0, 0.0, 0.0, 0.0, 1.730744829825644E9, 0.0, 2024-11-04 15:27:09.825
105.0, -120240.80696592414, -112977.47349470538, -114359.21363344356, -114162.67474444804, -120425.99116873636, -112179.6279763732, -120524.58471352873, -113437.76296827353, -0.05, 0.888, 0.492, 192.0, 0.0, 0.0, 0.0, 0.0, 0.0, 0.0, 0.0, 0.0, 0.0, 1.7307448298296795E9, 0.0, 2024-11-04 15:27:09.829
106.0, -120241.92455314692, -112098.24527481143, -113954.62470705804, -113759.4045709854, -120427.30992165922, -112054.23468997893, -120524.696472251, -113197.52641886788, -0.05, 0.888, 0.492, 192.0, 0.0, 0.0, 0.0, 0.0, 0.0, 0.0, 0.0, 0.0, 0.0, 1.730744829833871E9, 0.0, 2024-11-04 15:27:09.833
107.0, -120244.15972759244, -111314.9283903752, -113490.58014042141, -113200.20862820253, -120428.78513679327, -111763.01381147074, -120525.32232109575, -112985.47541922038, -0.05, 0.888, 0.492, 192.0, 0.0, 0.0, 0.0, 0.0, 0.0, 0.0, 0.0, 0.0, 0.0, 1.7307448298387518E9, 0.0, 2024-11-04 15:27:09.838
108.0, -120240.85166941305, -111946.40987472652, -113855.36060993203, -113710.34249190599, -120426.21468618092, -111975.62360472961, -120523.86945770615, -113189.68095656407, -0.05, 0.888, 0.492, 192.0, 0.0, 0.0, 0.0, 0.0, 0.0, 0.0, 0.0, 0.0, 0.0, 1.730744829842697E9, 0.0, 2024-11-04 15:27:09.842
109.0, -120236.53778273318, -112779.95112895383, -114348.10481644927, -114285.83285639678, -120423.08544195718, -112164.09351397677, -120521.85780070518, -113434.81253800543, -0.05, 0.888, 0.492, 192.0, 0.0, 0.0, 0.0, 0.0, 0.0, 0.0, 0.0, 0.0, 0.0, 1.7307448298467956E9, 0.0, 2024-11-04 15:27:09.846
110.0, -120236.89541064447, -112356.36321978131, -114023.22221079138, -113958.82683501564, -120422.5266483458, -112073.59130067722, -120520.20377161549, -113225.15317501464, -0.05, 0.888, 0.492, 192.0, 0.0, 0.0, 0.0, 0.0, 0.0, 0.0, 0.0, 0.0, 0.0, 1.730744829850808E9, 0.0, 2024-11-04 15:27:09.850
111.0, -120236.40367226645, -111586.70325120728, -113517.31282678996, -113392.81361017391, -120421.00672972284, -111762.36561088153, -120517.58861751422, -112983.37435524158, -0.05, 0.888, 0.492, 192.0, 0.0, 0.0, 0.0, 0.0, 0.0, 0.0, 0.0, 0.0, 0.0, 1.7307448298547256E9, 0.0, 2024-11-04 15:27:09.854
112.0, -120232.76033792023, -111983.89375017807, -113733.25302997268, -113555.62371678636, -120417.58691282118, -111899.1135834591, -120514.68289073503, -113105.45958345647, -0.05, 0.888, 0.492, 192.0, 0.0, 0.0, 0.0, 0.0, 0.0, 0.0, 0.0, 0.0, 0.0, 1.730744829857735E9, 0.0, 2024-11-04 15:27:09.857
113.0, -120233.52029723172, -113086.57235939174, -114333.77734825342, -114131.87404058863, -120418.05629945474, -112171.0225547579, -120516.71689948045, -113417.64639826375, -0.048, 0.894, 0.492, 192.0, 254.0, 128.0, 27.0, 240.0, 15.0, 96.0, 0.0, 0.0, 0.0, 1.7307448298617525E9, 0.0, 2024-11-04 15:27:09.861
114.0, -120234.05673909864, -112604.44523149077, -114140.05477905927, -113929.16607012345, -120419.1738866775, -112130.67765601608, -120517.38745181412, -113282.12777163122, -0.048, 0.894, 0.492, 192.0, 0.0, 0.0, 0.0, 0.0, 0.0, 0.0, 0.0, 0.0, 0.0, 1.7307448298669124E9, 0.0, 2024-11-04 15:27:09.866
115.0, -120233.09561408707, -111560.79757938356, -113589.64307184734, -113329.53582162093, -120417.78807852128, -111825.10695756758, -120514.52642852384, -113018.66775973652, -0.048, 0.894, 0.492, 192.0, 0.0, 0.0, 0.0, 0.0, 0.0, 0.0, 0.0, 0.0, 0.0, 1.7307448298707004E9, 0.0, 2024-11-04 15:27:09.870
116.0, -120229.11700357402, -111639.78864428862, -113607.63622613387, -113380.14017106775, -120413.80946800823, -111838.2944867962, -120510.57016975524, -113047.50151008386, -0.048, 0.894, 0.492, 192.0, 0.0, 0.0, 0.0, 0.0, 0.0, 0.0, 0.0, 0.0, 0.0, 1.730744829874802E9, 0.0, 2024-11-04 15:27:09.874
117.0, -120227.48532622878, -112817.16678347193, -114261.04477179585, -114196.73880299793, -120412.4683633409, -112142.09939743274, -120510.86074243317, -113383.9623193696, -0.048, 0.894, 0.492, 192.0, 0.0, 0.0, 0.0, 0.0, 0.0, 0.0, 0.0, 0.0, 0.0, 1.7307448298788402E9, 0.0, 2024-11-04 15:27:09.878
118.0, -120229.16170706293, -112643.80665347657, -114206.61827404717, -114135.24915400139, -120414.5247238308, -112147.5755748243, -120512.76064071187, -113323.61260934027, -0.048, 0.894, 0.492, 192.0, 0.0, 0.0, 0.0, 0.0, 0.0, 0.0, 0.0, 0.0, 0.0, 1.7307448298816497E9, 0.0, 2024-11-04 15:27:09.881
119.0, -120231.50864023074, -111602.75180372618, -113665.54959601756, -113581.3058711655, -120416.17875292049, -111876.78419074825, -120513.11826862315, -113053.82705376472, -0.048, 0.894, 0.492, 192.0, 0.0, 0.0, 0.0, 0.0, 0.0, 0.0, 0.0, 0.0, 0.0, 1.7307448298877504E9, 0.0, 2024-11-04 15:27:09.887
120.0, -120230.56986696362, -111406.25761821958, -113534.68013223173, -113374.23931053154, -120415.15057267554, -111788.29363444968, -120511.79951570029, -113006.9777973864, -0.048, 0.894, 0.492, 192.0, 0.0, 0.0, 0.0, 0.0, 0.0, 0.0, 0.0, 0.0, 0.0, 1.7307448298916988E9, 0.0, 2024-11-04 15:27:09.891
121.0, -120223.84199188257, -112478.6496136963, -114181.04787839031, -114001.98805355885, -120409.78615400627, -112112.75155696292, -120508.15618135408, -113343.1033305053, -0.048, 0.894, 0.492, 192.0, 0.0, 0.0, 0.0, 0.0, 0.0, 0.0, 0.0, 0.0, 0.0, 1.730744829895826E9, 0.0, 2024-11-04 15:27:09.895
122.0, -120223.03732908217, -112689.94065403231, -114267.05739105433, -114065.55641478974, -120409.33911911717, -112144.37927536719, -120507.95501565398, -113356.5590806674, -0.048, 0.894, 0.492, 192.0, 0.0, 0.0, 0.0, 0.0, 0.0, 0.0, 0.0, 0.0, 0.0, 1.7307448298997993E9, 0.0, 2024-11-04 15:27:09.899
123.0, -120225.27250352771, -111956.46815973142, -113750.17330052535, -113531.93086766373, -120410.14378191755, -111920.70536860292, -120507.28446332032, -113077.3410889317, -0.054, 0.896, 0.492, 192.0, 254.0, 80.0, 28.0, 0.0, 15.0, 96.0, 0.0, 0.0, 0.0, 1.7307448299027464E9, 0.0, 2024-11-04 15:27:09.902
124.0, -120224.04315758267, -111535.07072151551, -113471.84937856787, -113170.48080807696, -120408.53445631677, -111729.68736048786, -120505.38456504162, -112963.50365442081, -0.054, 0.896, 0.492, 192.0, 0.0, 0.0, 0.0, 0.0, 0.0, 0.0, 0.0, 0.0, 0.0, 1.730744829906804E9, 0.0, 2024-11-04 15:27:09.906
125.0, -120221.51741045922, -112579.41127770083, -114049.06082738172, -113958.40215187099, -120406.36633710461, -112060.33671621523, -120504.53519875232, -113270.41545753664, -0.054, 0.896, 0.492, 192.0, 0.0, 0.0, 0.0, 0.0, 0.0, 0.0, 0.0, 0.0, 0.0, 1.7307448299097874E9, 0.0, 2024-11-04 15:27:09.909
126.0, -120222.45618372635, -113039.6783995245, -114308.69869097456, -114237.62014360669, -120407.10394467163, -112173.45889490354, -120505.80924818627, -113385.43753450365, -0.054, 0.896, 0.492, 192.0, 0.0, 0.0, 0.0, 0.0, 0.0, 0.0, 0.0, 0.0, 0.0, 1.7307448299138763E9, 0.0, 2024-11-04 15:27:09.913
127.0, -120224.04315758267, -112048.75851258737, -113854.623002365, -113783.0527166191, -120408.8697324836, -111995.33784333919, -120506.30098656428, -113131.83464191374, -0.054, 0.896, 0.492, 192.0, 0.0, 0.0, 0.0, 0.0, 0.0, 0.0, 0.0, 0.0, 0.0, 1.7307448299178023E9, 0.0, 2024-11-04 15:27:09.917
128.0, -120223.68552967138, -111370.49482709108, -113457.16428246073, -113314.42604236914, -120407.86390398312, -111737.66693325841, -120504.57990224122, -112965.09062827715, -0.054, 0.896, 0.492, 192.0, 0.0, 0.0, 0.0, 0.0, 0.0, 0.0, 0.0, 0.0, 0.0, 1.730744829921837E9, 0.0, 2024-11-04 15:27:09.921
129.0, -120219.86338136952, -112221.02340710443, -113930.99891316879, -113761.68444891984, -120404.46643882591, -111999.40586083005, -120502.30002430678, -113222.73918661347, -0.054, 0.896, 0.492, 192.0, 0.0, 0.0, 0.0, 0.0, 0.0, 0.0, 0.0, 0.0, 0.0, 1.7307448299268417E9, 0.0, 2024-11-04 15:27:09.926
130.0, -120220.131602303, -112986.88357912107, -114346.02610421492, -114146.20150878448, -120404.89112197056, -112138.18784215306, -120503.59642548519, -113427.83879373537, -0.054, 0.896, 0.492, 192.0, 0.0, 0.0, 0.0, 0.0, 0.0, 0.0, 0.0, 0.0, 0.0, 1.7307448299308631E9, 0.0, 2024-11-04 15:27:09.930
131.0, -120219.81867788061, -112147.75438877993, -113968.66160257597, -113767.67471643386, -120404.89112197056, -112040.10838748317, -120502.52354175133, -113201.23680844746, -0.054, 0.896, 0.492, 192.0, 0.0, 0.0, 0.0, 0.0, 0.0, 0.0, 0.0, 0.0, 0.0, 1.7307448299338853E9, 0.0, 2024-11-04 15:27:09.933
132.0, -120220.55628544764, -111316.76123342053, -113473.34694544638, -113191.58085484277, -120404.80171499273, -111745.73591300678, -120501.36125103966, -112979.95453833992, -0.054, 0.896, 0.492, 192.0, 0.0, 0.0, 0.0, 0.0, 0.0, 0.0, 0.0, 0.0, 0.0, 1.7307448299379063E9, 0.0, 2024-11-04 15:27:09.937
133.0, -120218.23170402429, -111879.62286229407, -113785.51140850919, -113631.41848223431, -120403.01357543631, -111940.5760694237, -120500.66834696155, -113155.59454626973, -0.062, 0.902, 0.498, 192.0, 254.0, 16.0, 28.0, 48.0, 15.0, 144.0, 0.0, 0.0, 0.0, 1.7307448299419827E9, 0.0, 2024-11-04 15:27:09.941
134.0, -120213.98487257778, -112873.6943451994, -114325.19427838258, -114255.23331823747, -120399.3702410901, -112158.90790926313, -120498.25435856037, -113428.26347688002, -0.062, 0.902, 0.498, 192.0, 0.0, 0.0, 0.0, 0.0, 0.0, 0.0, 0.0, 0.0, 0.0, 1.7307448299458568E9, 0.0, 2024-11-04 15:27:09.945
135.0, -120216.10828830104, -112332.20098402513, -114048.94906865944, -113973.71309682287, -120401.33719460217, -112090.66803344108, -120499.21548357196, -113248.62250669271, -0.062, 0.902, 0.498, 192.0, 0.0, 0.0, 0.0, 0.0, 0.0, 0.0, 0.0, 0.0, 0.0, 1.7307448299500875E9, 0.0, 2024-11-04 15:27:09.950
136.0, -120217.00235807925, -111386.27515867654, -113519.63740821331, -113400.50261026653, -120401.20308413543, -111777.98948025578, -120497.82967541572, -112993.3655850131, -0.062, 0.902, 0.498, 192.0, 0.0, 0.0, 0.0, 0.0, 0.0, 0.0, 0.0, 0.0, 0.0, 1.7307448299551554E9, 0.0, 2024-11-04 15:27:09.955
137.0, -120213.0237475662, -111682.36871747598, -113673.37270657692, -113500.8395911264, -120397.4703428114, -111870.7045162564, -120494.61102421416, -113085.58888263571, -0.062, 0.902, 0.498, 192.0, 0.0, 0.0, 0.0, 0.0, 0.0, 0.0, 0.0, 0.0, 0.0, 1.7307448299589903E9, 0.0, 2024-11-04 15:27:09.958
138.0, -120209.82744810909, -112825.9286672984, -114303.11075486074, -114104.24728444187, -120394.5646160322, -112127.23548736997, -120493.26991954684, -113416.01472091851, -0.062, 0.902, 0.498, 192.0, 0.0, 0.0, 0.0, 0.0, 0.0, 0.0, 0.0, 0.0, 0.0, 1.7307448299619393E9, 0.0, 2024-11-04 15:27:09.961
139.0, -120212.44260221036, -112463.15985478877, -114154.62811644413, -113943.51589006376, -120397.4703428114, -112111.7680802069, -120495.70625969247, -113304.993606209, -0.062, 0.902, 0.498, 192.0, 0.0, 0.0, 0.0, 0.0, 0.0, 0.0, 0.0, 0.0, 0.0, 1.7307448299670873E9, 0.0, 2024-11-04 15:27:09.967
140.0, -120213.85076211105, -111467.43434279376, -113598.24849346263, -113344.26562121698, -120398.05148816723, -111821.62008543254, -120494.76748642535, -113020.61236150413, -0.062, 0.902, 0.498, 192.0, 0.0, 0.0, 0.0, 0.0, 0.0, 0.0, 0.0, 0.0, 0.0, 1.7307448299709015E9, 0.0, 2024-11-04 15:27:09.970
141.0, -120210.9673870763, -111447.07190359497, -113551.46629231767, -113305.5971033093, -120395.14576138805, -111795.17797174191, -120492.12998057962, -113020.41119580403, -0.062, 0.902, 0.498, 192.0, 0.0, 0.0, 0.0, 0.0, 0.0, 0.0, 0.0, 0.0, 0.0, 1.7307448299760487E9, 0.0, 2024-11-04 15:27:09.976
