%OpenBCI Raw EXG Data
%Number of channels = 8
%Sample Rate = 250 Hz
%Board = OpenBCI_GUI$BoardCytonSerial
Sample Index, EXG Channel 0, EXG Channel 1, EXG Channel 2, EXG Channel 3, EXG Channel 4, EXG Channel 5, EXG Channel 6, EXG Channel 7, Accel Channel 0, Accel Channel 1, Accel Channel 2, Not Used, Digital Channel 0 (D11), Digital Channel 1 (D12), Digital Channel 2 (D13), Digital Channel 3 (D17), Not Used, Digital Channel 4 (D18), Analog Channel 0, Analog Channel 1, Analog Channel 2, Timestamp, Marker Channel, Timestamp (Formatted)
80.0, -102151.58488173306, -102218.17072846541, -102305.90132545249, -102335.13740720003, -102313.23269763384, -102273.15601982547, -102402.90789638853, -102325.59321231762, 0.0, 0.0, 0.0, 192.0, 0.0, 0.0, 0.0, 0.0, 0.0, 0.0, 0.0, 0.0, 0.0, 1.7307450622114108E9, 0.0, 2024-11-04 15:31:02.211
81.0, -102155.04940212362, -102221.50113838926, -102309.20938363188, -102338.6019275906, -102316.6972180244, -102276.50878149376, -102406.32771329019, -102329.01302921928, 0.0, 0.0, 0.0, 192.0, 0.0, 0.0, 0.0, 0.0, 0.0, 0.0, 0.0, 0.0, 0.0, 1.7307450622118144E9, 0.0, 2024-11-04 15:31:02.211
82.0, -102158.22334983628, -102224.87625180201, -102312.78566274473, -102342.08879972564, -102320.22879364835, -102279.95095013989, -102409.70282670294, -102332.34343914312, -0.006, 0.8280000000000001, 0.5700000000000001, 192.0, 255.0, 208.0, 25.0, 224.0, 17.0, 208.0, 0.0, 0.0, 0.0, 1.730745062212018E9, 0.0, 2024-11-04 15:31:02.212
83.0, -102162.06784988259, -102228.85486231506, -102316.76427325777, -102345.86624453859, -102324.0062384613, -102283.7954501862, -102413.59203023816, -102336.2549944228, -0.006, 0.8280000000000001, 0.5700000000000001, 192.0, 0.0, 0.0, 0.0, 0.0, 0.0, 0.0, 0.0, 0.0, 0.0, 1.7307450622122192E9, 0.0, 2024-11-04 15:31:02.212
0.0, 0.0, 0.0, 0.0, 0.0, 0.0, 0.0, 0.0, 0.0, -0.004, 0.8200000000000001, 0.58, 192.0, 255.0, 224.0, 25.0, 160.0, 18.0, 32.0, 0.0, 0.0, 0.0, 1.7307450622769468E9, 0.0, 2024-11-04 15:31:02.276
1.0, -103566.85263715418, -103633.95257400902, -103727.5393280434, -103754.1379039452, -103735.1836246471, -103694.74931892745, -103824.9035268907, -103744.4372468516, -0.004, 0.8200000000000001, 0.58, 192.0, 0.0, 0.0, 0.0, 0.0, 0.0, 0.0, 0.0, 0.0, 0.0, 1.7307450622938273E9, 0.0, 2024-11-04 15:31:02.293
2.0, -103569.37838427763, -103636.59007985474, -103729.99801993347, -103756.484837113, -103737.73172351501, -103697.29741779536, -103827.38457052525, -103746.96299397504, -0.004, 0.8200000000000001, 0.58, 192.0, 0.0, 0.0, 0.0, 0.0, 0.0, 0.0, 0.0, 0.0, 0.0, 1.730745062296832E9, 0.0, 2024-11-04 15:31:02.296
3.0, -103571.43474476752, -103638.57938511127, -103731.92026995662, -103758.2953284139, -103739.63162179371, -103699.15261258515, -103829.28446880395, -103748.84054050929, -0.004, 0.8200000000000001, 0.58, 192.0, 0.0, 0.0, 0.0, 0.0, 0.0, 0.0, 0.0, 0.0, 0.0, 1.7307450623007045E9, 0.0, 2024-11-04 15:31:02.300
4.0, -103573.08877385722, -103640.03224850087, -103733.75311300196, -103760.28463367041, -103741.46446483904, -103700.89604865266, -103831.1620153382, -103750.51692134344, -0.004, 0.8200000000000001, 0.58, 192.0, 0.0, 0.0, 0.0, 0.0, 0.0, 0.0, 0.0, 0.0, 0.0, 1.7307450623037007E9, 0.0, 2024-11-04 15:31:02.303
5.0, -103576.5979977367, -103643.65323110262, -103737.44115083708, -103764.0397267389, -103745.15250267417, -103704.69584521007, -103834.87240491777, -103754.24966266748, -0.004, 0.8200000000000001, 0.58, 192.0, 0.0, 0.0, 0.0, 0.0, 0.0, 0.0, 0.0, 0.0, 0.0, 1.730745062307786E9, 0.0, 2024-11-04 15:31:02.307
6.0, -103580.93423616103, -103648.03417301585, -103741.57622356132, -103768.13009597422, -103749.46638935404, -103708.87562142321, -103839.09688461982, -103758.49649411399, -0.004, 0.8200000000000001, 0.58, 192.0, 0.0, 0.0, 0.0, 0.0, 0.0, 0.0, 0.0, 0.0, 0.0, 1.7307450623118052E9, 0.0, 2024-11-04 15:31:02.311
7.0, -103585.18106760754, -103652.30335620683, -103745.57718581882, -103772.04165125391, -103753.489703356, -103712.8765836807, -103843.23195734406, -103762.67627032714, -0.004, 0.8200000000000001, 0.58, 192.0, 0.0, 0.0, 0.0, 0.0, 0.0, 0.0, 0.0, 0.0, 0.0, 1.730745062316089E9, 0.0, 2024-11-04 15:31:02.316
8.0, -103589.69611998751, -103656.72900160897, -103750.3381073878, -103776.93668328962, -103758.07181096934, -103717.61515350523, -103847.81406495739, -103767.3477849183, -0.004, 0.8240000000000001, 0.582, 192.0, 255.0, 224.0, 25.0, 192.0, 18.0, 48.0, 0.0, 0.0, 0.0, 1.7307450623198795E9, 0.0, 2024-11-04 15:31:02.319
9.0, -103594.83702121222, -103661.9146063226, -103755.7919330349, -103782.41286068117, -103763.50328487197, -103722.9795721745, -103853.3125940934, -103772.6451483542, -0.004, 0.8240000000000001, 0.582, 192.0, 0.0, 0.0, 0.0, 0.0, 0.0, 0.0, 0.0, 0.0, 0.0, 1.7307450623239057E9, 0.0, 2024-11-04 15:31:02.323
10.0, -103597.8545067137, -103664.97679531298, -103758.63060458071, -103785.16212524918, -103766.3419564178, -103725.8852989537, -103856.17361738368, -103775.48381990002, -0.004, 0.8240000000000001, 0.582, 192.0, 0.0, 0.0, 0.0, 0.0, 0.0, 0.0, 0.0, 0.0, 0.0, 1.7307450623269875E9, 0.0, 2024-11-04 15:31:02.326
11.0, -103601.22962012645, -103668.39661221465, -103761.73749706, -103788.11255551728, -103769.51590413046, -103729.0368949219, -103859.25815811851, -103778.70247110158, -0.004, 0.8240000000000001, 0.582, 192.0, 0.0, 0.0, 0.0, 0.0, 0.0, 0.0, 0.0, 0.0, 0.0, 1.7307450623318799E9, 0.0, 2024-11-04 15:31:02.331
12.0, -103602.81659398277, -103669.89417909316, -103763.48093312752, -103789.81128809588, -103771.25934019797, -103730.66857226712, -103861.00159418603, -103780.42355542464, -0.004, 0.8240000000000001, 0.582, 192.0, 0.0, 0.0, 0.0, 0.0, 0.0, 0.0, 0.0, 0.0, 0.0, 1.7307450623359103E9, 0.0, 2024-11-04 15:31:02.335
13.0, -103606.39287309562, -103673.470458206, -103767.28072968492, -103793.85695384229, -103774.99208152201, -103734.46836882453, -103864.89079772125, -103784.08924151532, -0.004, 0.8240000000000001, 0.582, 192.0, 0.0, 0.0, 0.0, 0.0, 0.0, 0.0, 0.0, 0.0, 0.0, 1.730745062339924E9, 0.0, 2024-11-04 15:31:02.339
14.0, -103609.92444871957, -103676.95733034103, -103770.61113960877, -103797.23206725504, -103778.43425016812, -103737.82113049283, -103868.31061462291, -103787.53141016143, -0.004, 0.8240000000000001, 0.582, 192.0, 0.0, 0.0, 0.0, 0.0, 0.0, 0.0, 0.0, 0.0, 0.0, 1.7307450623441632E9, 0.0, 2024-11-04 15:31:02.344
15.0, -103613.99246621043, -103681.04769957635, -103774.5450466329, -103800.96480857907, -103782.47991591453, -103741.75503751697, -103872.15511466922, -103791.5994276523, -0.004, 0.8240000000000001, 0.582, 192.0, 0.0, 0.0, 0.0, 0.0, 0.0, 0.0, 0.0, 0.0, 0.0, 1.7307450623470216E9, 0.0, 2024-11-04 15:31:02.347
16.0, -103616.4511581005, -103683.46168797753, -103777.02609026743, -103803.53525919143, -103785.00566303798, -103744.28078464042, -103874.61380655931, -103794.08047128684, -0.004, 0.8240000000000001, 0.582, 192.0, 0.0, 0.0, 0.0, 0.0, 0.0, 0.0, 0.0, 0.0, 0.0, 1.7307450623508747E9, 0.0, 2024-11-04 15:31:02.350
17.0, -103620.69798954701, -103687.68616767958, -103781.54114264742, -103808.18442203813, -103789.38660495123, -103748.84054050929, -103879.19591417264, -103798.46141320007, -0.004, 0.8240000000000001, 0.582, 192.0, 0.0, 0.0, 0.0, 0.0, 0.0, 0.0, 0.0, 0.0, 0.0, 1.7307450623549943E9, 0.0, 2024-11-04 15:31:02.354
18.0, -103624.90011750461, -103692.00005435945, -103785.67621537164, -103812.27479127346, -103793.58873290881, -103752.95326148908, -103883.35333864133, -103802.59648592431, -0.004, 0.8220000000000001, 0.58, 192.0, 255.0, 224.0, 25.0, 176.0, 18.0, 32.0, 0.0, 0.0, 0.0, 1.730745062359842E9, 0.0, 2024-11-04 15:31:02.359
19.0, -103629.52692860687, -103696.64921720616, -103790.19126775161, -103816.67808493115, -103798.12613703325, -103757.51301735795, -103887.77898404349, -103807.17859353765, -0.004, 0.8220000000000001, 0.58, 192.0, 0.0, 0.0, 0.0, 0.0, 0.0, 0.0, 0.0, 0.0, 0.0, 1.7307450623637478E9, 0.0, 2024-11-04 15:31:02.363
20.0, -103632.45500713051, -103699.48788875197, -103793.0522910419, -103819.53910822143, -103801.00951206798, -103760.4410958816, -103890.70706256713, -103810.08432031683, -0.004, 0.8220000000000001, 0.58, 192.0, 0.0, 0.0, 0.0, 0.0, 0.0, 0.0, 0.0, 0.0, 0.0, 1.7307450623678665E9, 0.0, 2024-11-04 15:31:02.367
21.0, -103635.3607339097, -103702.39361553117, -103796.36034922127, -103822.93657337864, -103804.18345978063, -103763.68209882762, -103893.9257137687, -103813.25826802949, -0.004, 0.8220000000000001, 0.58, 192.0, 0.0, 0.0, 0.0, 0.0, 0.0, 0.0, 0.0, 0.0, 0.0, 1.730745062371946E9, 0.0, 2024-11-04 15:31:02.371
22.0, -103638.19940545553, -103705.36639754372, -103799.1990207671, -103825.84230015783, -103807.13389004873, -103766.67723258463, -103896.8761440368, -103816.11929131977, -0.004, 0.8220000000000001, 0.58, 192.0, 0.0, 0.0, 0.0, 0.0, 0.0, 0.0, 0.0, 0.0, 0.0, 1.7307450623759308E9, 0.0, 2024-11-04 15:31:02.375
23.0, -103641.28394619036, -103708.38388304519, -103802.03769231292, -103828.56921298137, -103809.99491333902, -103769.47120064155, -103899.6701120937, -103819.02501809895, -0.004, 0.8220000000000001, 0.58, 192.0, 0.0, 0.0, 0.0, 0.0, 0.0, 0.0, 0.0, 0.0, 0.0, 1.7307450623789852E9, 0.0, 2024-11-04 15:31:02.378
24.0, -103645.68723984805, -103712.67541798062, -103806.23982027052, -103832.6595822167, -103814.21939304107, -103773.65097685468, -103903.93929528467, -103823.33890477884, -0.004, 0.8220000000000001, 0.58, 192.0, 0.0, 0.0, 0.0, 0.0, 0.0, 0.0, 0.0, 0.0, 0.0, 1.7307450623827727E9, 0.0, 2024-11-04 15:31:02.382
25.0, -103647.78830382685, -103714.93294417059, -103808.81027088288, -103835.27473631797, -103816.6557331867, -103776.08731700032, -103906.30858019693, -103825.73054143555, -0.004, 0.8220000000000001, 0.58, 192.0, 0.0, 0.0, 0.0, 0.0, 0.0, 0.0, 0.0, 0.0, 0.0, 1.730745062387872E9, 0.0, 2024-11-04 15:31:02.387
26.0, -103650.78343758386, -103718.10689188325, -103811.98421859553, -103838.51573926398, -103819.82968089935, -103779.21656122406, -103909.43782442067, -103828.81508217039, -0.004, 0.8220000000000001, 0.58, 192.0, 0.0, 0.0, 0.0, 0.0, 0.0, 0.0, 0.0, 0.0, 0.0, 1.7307450623917894E9, 0.0, 2024-11-04 15:31:02.391
27.0, -103656.2149114865, -103723.51601404144, -103817.08041633134, -103843.56723351088, -103825.0599891019, -103784.42451768214, -103914.69048436767, -103833.97833513956, -0.004, 0.8220000000000001, 0.58, 192.0, 0.0, 0.0, 0.0, 0.0, 0.0, 0.0, 0.0, 0.0, 0.0, 1.7307450623959384E9, 0.0, 2024-11-04 15:31:02.395
28.0, -103661.71344062251, -103728.94748794407, -103822.46718674508, -103848.79754171343, -103830.3573525378, -103789.81128809588, -103920.0772547814, -103839.38745729775, -0.008, 0.8240000000000001, 0.5760000000000001, 192.0, 255.0, 192.0, 25.0, 192.0, 18.0, 0.0, 0.0, 0.0, 0.0, 1.730745062399912E9, 0.0, 2024-11-04 15:31:02.399
29.0, -103665.73675462446, -103732.74728450147, -103826.78107342495, -103853.22318711558, -103834.53712875095, -103794.05811954239, -103924.21232750564, -103843.61193699979, -0.008, 0.8240000000000001, 0.5760000000000001, 192.0, 0.0, 0.0, 0.0, 0.0, 0.0, 0.0, 0.0, 0.0, 0.0, 1.7307450624040313E9, 0.0, 2024-11-04 15:31:02.404
30.0, -103669.31303373731, -103736.4353223366, -103830.53616649345, -103857.00063192853, -103838.3592770528, -103797.85791609979, -103928.0344758075, -103847.32232657938, -0.008, 0.8240000000000001, 0.5760000000000001, 192.0, 0.0, 0.0, 0.0, 0.0, 0.0, 0.0, 0.0, 0.0, 0.0, 1.7307450624069517E9, 0.0, 2024-11-04 15:31:02.406
31.0, -103673.35869948372, -103740.45863633856, -103834.33596305085, -103860.75572499701, -103842.22612884357, -103801.76947137946, -103931.90132759826, -103851.2115301146, -0.008, 0.8240000000000001, 0.5760000000000001, 192.0, 0.0, 0.0, 0.0, 0.0, 0.0, 0.0, 0.0, 0.0, 0.0, 1.730745062411026E9, 0.0, 2024-11-04 15:31:02.411
32.0, -103675.05743206233, -103742.09031368379, -103835.76647469598, -103862.1191814088, -103843.65664048871, -103803.22233476906, -103933.42124622122, -103852.84320745984, -0.008, 0.8240000000000001, 0.5760000000000001, 192.0, 0.0, 0.0, 0.0, 0.0, 0.0, 0.0, 0.0, 0.0, 0.0, 1.73074506241584E9, 0.0, 2024-11-04 15:31:02.415
33.0, -103677.9184553526, -103744.95133697407, -103838.87336717527, -103865.33783261036, -103846.74118122354, -103806.19511678162, -103936.52813870051, -103855.8606929613, -0.008, 0.8240000000000001, 0.5760000000000001, 192.0, 0.0, 0.0, 0.0, 0.0, 0.0, 0.0, 0.0, 0.0, 0.0, 1.7307450624199824E9, 0.0, 2024-11-04 15:31:02.419
34.0, -103680.6677199206, -103747.8347120088, -103841.93555616566, -103868.4223733452, -103849.71396323609, -103809.19025053862, -103939.47856896861, -103858.74406799604, -0.008, 0.8240000000000001, 0.5760000000000001, 192.0, 0.0, 0.0, 0.0, 0.0, 0.0, 0.0, 0.0, 0.0, 0.0, 1.730745062424116E9, 0.0, 2024-11-04 15:31:02.424
35.0, -103684.221647289, -103751.41099112165, -103845.35537306732, -103871.77513501348, -103853.33494583785, -103812.74417790702, -103942.96544110363, -103862.18623664216, -0.008, 0.8240000000000001, 0.5760000000000001, 192.0, 0.0, 0.0, 0.0, 0.0, 0.0, 0.0, 0.0, 0.0, 0.0, 1.7307450624280233E9, 0.0, 2024-11-04 15:31:02.428
36.0, -103689.83193514729, -103757.02127897994, -103850.76449522549, -103877.09485019385, -103858.74406799604, -103818.19800355412, -103948.44161849518, -103867.64006228925, -0.008, 0.8240000000000001, 0.5760000000000001, 192.0, 0.0, 0.0, 0.0, 0.0, 0.0, 0.0, 0.0, 0.0, 0.0, 1.7307450624310703E9, 0.0, 2024-11-04 15:31:02.431
37.0, -103691.21774330351, -103758.3400319028, -103852.23971035954, -103878.59241707236, -103860.08517266336, -103819.56145996589, -103949.82742665142, -103869.13762916776, -0.008, 0.8240000000000001, 0.5760000000000001, 192.0, 0.0, 0.0, 0.0, 0.0, 0.0, 0.0, 0.0, 0.0, 0.0, 1.7307450624350038E9, 0.0, 2024-11-04 15:31:02.435
38.0, -103692.93882762657, -103760.12817145922, -103854.31842259389, -103880.76053628452, -103862.07447791989, -103821.5507652224, -103951.86143539684, -103871.10458267982, -0.006, 0.8140000000000001, 0.5740000000000001, 192.0, 255.0, 208.0, 25.0, 112.0, 17.0, 240.0, 0.0, 0.0, 0.0, 1.730745062439108E9, 0.0, 2024-11-04 15:31:02.439
39.0, -103697.2750660509, -103764.50911337246, -103858.6099575293, -103885.02971947548, -103866.43306808866, -103825.88700364674, -103956.10826684335, -103875.30671063742, -0.006, 0.8140000000000001, 0.5740000000000001, 192.0, 0.0, 0.0, 0.0, 0.0, 0.0, 0.0, 0.0, 0.0, 0.0, 1.7307450624430904E9, 0.0, 2024-11-04 15:31:02.443
40.0, -103702.25950506443, -103769.40414540817, -103863.30382386492, -103889.5671235999, -103871.1716379132, -103830.64792521572, -103960.8915401568, -103880.13468743977, -0.006, 0.8140000000000001, 0.5740000000000001, 192.0, 0.0, 0.0, 0.0, 0.0, 0.0, 0.0, 0.0, 0.0, 0.0, 1.730745062447958E9, 0.0, 2024-11-04 15:31:02.447
41.0, -103706.14870859966, -103773.20394196558, -103867.08126867787, -103893.45632713514, -103875.01613795951, -103834.42537002866, -103964.71368845865, -103884.00153923054, -0.006, 0.8140000000000001, 0.5740000000000001, 192.0, 0.0, 0.0, 0.0, 0.0, 0.0, 0.0, 0.0, 0.0, 0.0, 1.7307450624520977E9, 0.0, 2024-11-04 15:31:02.452
42.0, -103709.32265631232, -103776.46729665606, -103870.72460302408, -103897.21142020362, -103878.52536183898, -103837.86753867478, -103968.26761582705, -103887.4660596211, -0.006, 0.8140000000000001, 0.5740000000000001, 192.0, 0.0, 0.0, 0.0, 0.0, 0.0, 0.0, 0.0, 0.0, 0.0, 1.730745062455866E9, 0.0, 2024-11-04 15:31:02.455
43.0, -103713.14480461417, -103780.40120368019, -103874.52439958148, -103900.9218097832, -103882.32515839639, -103841.84614918783, -103972.17917110672, -103891.17644920069, -0.006, 0.8140000000000001, 0.5740000000000001, 192.0, 0.0, 0.0, 0.0, 0.0, 0.0, 0.0, 0.0, 0.0, 0.0, 1.7307450624589531E9, 0.0, 2024-11-04 15:31:02.458
44.0, -103715.64819999317, -103782.81519208137, -103876.80427751593, -103903.022873762, -103884.67209156419, -103844.17073061118, -103974.36964206335, -103893.41162364623, -0.006, 0.8140000000000001, 0.5740000000000001, 192.0, 0.0, 0.0, 0.0, 0.0, 0.0, 0.0, 0.0, 0.0, 0.0, 1.730745062463015E9, 0.0, 2024-11-04 15:31:02.463
45.0, -103719.4256448061, -103786.57028514985, -103880.51466709551, -103906.80031857495, -103888.42718463269, -103847.90347193522, -103978.16943862075, -103897.34553067035, -0.006, 0.8140000000000001, 0.5740000000000001, 192.0, 0.0, 0.0, 0.0, 0.0, 0.0, 0.0, 0.0, 0.0, 0.0, 1.7307450624670525E9, 0.0, 2024-11-04 15:31:02.467
46.0, -103724.8347669643, -103791.86764858576, -103886.28141716498, -103912.63412387778, -103894.1268794688, -103853.49140804904, -103983.82442996794, -103903.00052201755, -0.006, 0.8140000000000001, 0.5740000000000001, 192.0, 0.0, 0.0, 0.0, 0.0, 0.0, 0.0, 0.0, 0.0, 0.0, 1.7307450624710767E9, 0.0, 2024-11-04 15:31:02.471
47.0, -103727.56167978785, -103794.77337536495, -103889.14244045525, -103915.47279542362, -103896.89849578125, -103856.35243133933, -103986.64074976931, -103905.68273135218, -0.006, 0.8140000000000001, 0.5740000000000001, 192.0, 0.0, 0.0, 0.0, 0.0, 0.0, 0.0, 0.0, 0.0, 0.0, 1.7307450624760518E9, 0.0, 2024-11-04 15:31:02.476
48.0, -103731.1826623896, -103798.43906145562, -103892.53990561246, -103918.71379836963, -103900.36301617182, -103859.88400696326, -103990.17232539324, -103909.19195523167, -0.004, 0.8180000000000001, 0.5740000000000001, 192.0, 255.0, 224.0, 25.0, 144.0, 17.0, 240.0, 0.0, 0.0, 0.0, 1.73074506248012E9, 0.0, 2024-11-04 15:31:02.480
49.0, -103733.73076125751, -103800.87540160125, -103894.84213529136, -103920.99367630408, -103902.73230108409, -103862.20858838661, -103992.56396204996, -103911.58359188838, -0.004, 0.8180000000000001, 0.5740000000000001, 192.0, 0.0, 0.0, 0.0, 0.0, 0.0, 0.0, 0.0, 0.0, 0.0, 1.73074506248311E9, 0.0, 2024-11-04 15:31:02.483
50.0, -103735.36243860275, -103802.44002371312, -103896.7196818256, -103923.05003679395, -103904.58749587387, -103864.0637831764, -103994.4415085842, -103913.39408318927, -0.004, 0.8180000000000001, 0.5740000000000001, 192.0, 0.0, 0.0, 0.0, 0.0, 0.0, 0.0, 0.0, 0.0, 0.0, 1.7307450624871168E9, 0.0, 2024-11-04 15:31:02.487
51.0, -103738.44697933758, -103805.61397142577, -103899.93833302717, -103926.26868799553, -103907.8284988199, -103867.23773088906, -103997.50369757459, -103916.52332741302, -0.004, 0.8180000000000001, 0.5740000000000001, 192.0, 0.0, 0.0, 0.0, 0.0, 0.0, 0.0, 0.0, 0.0, 0.0, 1.7307450624910471E9, 0.0, 2024-11-04 15:31:02.491
52.0, -103740.12336017172, -103807.35740749328, -103901.39119641676, -103927.6321444073, -103909.39312093177, -103868.8694082343, -103999.0012644531, -103918.08794952488, -0.004, 0.8180000000000001, 0.5740000000000001, 192.0, 0.0, 0.0, 0.0, 0.0, 0.0, 0.0, 0.0, 0.0, 0.0, 1.7307450624951384E9, 0.0, 2024-11-04 15:31:02.495
53.0, -103744.37019161823, -103811.55953545088, -103905.48156565208, -103931.58840317589, -103913.46113842263, -103872.93742572516, -104003.2033924107, -103922.29007748248, -0.004, 0.8180000000000001, 0.5740000000000001, 192.0, 0.0, 0.0, 0.0, 0.0, 0.0, 0.0, 0.0, 0.0, 0.0, 1.730745062499689E9, 0.0, 2024-11-04 15:31:02.499
54.0, -103750.29340389889, -103817.3039337759, -103911.67299886621, -103937.86924336782, -103919.56316465893, -103878.95004498363, -104009.32777039145, -103928.3250484854, -0.004, 0.8180000000000001, 0.5740000000000001, 192.0, 0.0, 0.0, 0.0, 0.0, 0.0, 0.0, 0.0, 0.0, 0.0, 1.7307450625041003E9, 0.0, 2024-11-04 15:31:02.504
55.0, -103752.79679927789, -103820.03084659945, -103914.48931866758, -103940.77497014702, -103922.33478097139, -103881.72166129609, -104012.07703495945, -103931.05196130896, -0.004, 0.8180000000000001, 0.5740000000000001, 192.0, 0.0, 0.0, 0.0, 0.0, 0.0, 0.0, 0.0, 0.0, 0.0, 1.730745062508162E9, 0.0, 2024-11-04 15:31:02.508
56.0, -103756.61894757974, -103823.89769839021, -103918.15500475824, -103944.50771147106, -103926.04517055098, -103885.45440262013, -104015.85447977239, -103934.85175786636, -0.004, 0.8180000000000001, 0.5740000000000001, 192.0, 0.0, 0.0, 0.0, 0.0, 0.0, 0.0, 0.0, 0.0, 0.0, 1.7307450625110447E9, 0.0, 2024-11-04 15:31:02.511
57.0, -103761.87160752674, -103829.12800659276, -103923.09474028288, -103949.35804001786, -103931.14136828679, -103890.50589686703, -104020.92832576374, -103939.94795560217, -0.004, 0.8180000000000001, 0.5740000000000001, 192.0, 0.0, 0.0, 0.0, 0.0, 0.0, 0.0, 0.0, 0.0, 0.0, 1.730745062514906E9, 0.0, 2024-11-04 15:31:02.514
58.0, -103763.1456569607, -103830.44675951562, -103924.63701065029, -103950.78855166299, -103932.57187993191, -103891.91405676771, -104022.38118915334, -103941.3337637584, -0.002, 0.8260000000000001, 0.5720000000000001, 192.0, 255.0, 240.0, 25.0, 208.0, 17.0, 224.0, 0.0, 0.0, 0.0, 1.7307450625191317E9, 0.0, 2024-11-04 15:31:02.519
59.0, -103766.67723258463, -103833.88892816174, -103928.43680720769, -103954.70010694268, -103936.21521427814, -103895.6244463473, -104026.06922698847, -103945.02180159352, -0.002, 0.8260000000000001, 0.5720000000000001, 192.0, 0.0, 0.0, 0.0, 0.0, 0.0, 0.0, 0.0, 0.0, 0.0, 1.730745062523177E9, 0.0, 2024-11-04 15:31:02.523
60.0, -103772.15340997618, -103839.32040206438, -103933.66711541024, -103960.06452561195, -103941.51257771405, -103901.01121676102, -104031.41129391329, -103950.29681328498, -0.002, 0.8260000000000001, 0.5720000000000001, 192.0, 0.0, 0.0, 0.0, 0.0, 0.0, 0.0, 0.0, 0.0, 0.0, 1.7307450625270934E9, 0.0, 2024-11-04 15:31:02.527
61.0, -103775.64028211121, -103842.80727419941, -103936.8857666118, -103963.19376983569, -103944.88769112679, -103904.34162668487, -104034.76405558159, -103953.67192669773, -0.002, 0.8260000000000001, 0.5720000000000001, 192.0, 0.0, 0.0, 0.0, 0.0, 0.0, 0.0, 0.0, 0.0, 0.0, 1.7307450625320432E9, 0.0, 2024-11-04 15:31:02.532
62.0, -103779.03774726842, -103846.13768412324, -103940.32793525791, -103966.56888324844, -103948.32985977292, -103907.76144358653, -104038.13916899434, -103957.09174359939, -0.002, 0.8260000000000001, 0.5720000000000001, 192.0, 0.0, 0.0, 0.0, 0.0, 0.0, 0.0, 0.0, 0.0, 0.0, 1.7307450625360773E9, 0.0, 2024-11-04 15:31:02.536
63.0, -103781.76466009197, -103848.9093004357, -103943.39012424828, -103969.7428309611, -103951.25793829656, -103910.73422559908, -104041.1119510069, -103960.06452561195, -0.002, 0.8260000000000001, 0.5720000000000001, 192.0, 0.0, 0.0, 0.0, 0.0, 0.0, 0.0, 0.0, 0.0, 0.0, 1.7307450625390332E9, 0.0, 2024-11-04 15:31:02.539
64.0, -103785.72091886055, -103852.84320745984, -103947.36873476133, -103973.58733100741, -103955.19184532069, -103914.69048436767, -104045.02350628657, -103963.93137740271, -0.002, 0.8260000000000001, 0.5720000000000001, 192.0, 0.0, 0.0, 0.0, 0.0, 0.0, 0.0, 0.0, 0.0, 0.0, 1.7307450625430863E9, 0.0, 2024-11-04 15:31:02.543
65.0, -103788.8948665732, -103856.12891389478, -103950.29681328498, -103976.31424383096, -103958.1869790777, -103917.75267335805, -104048.01864004358, -103966.94886290419, -0.002, 0.8260000000000001, 0.5720000000000001, 192.0, 0.0, 0.0, 0.0, 0.0, 0.0, 0.0, 0.0, 0.0, 0.0, 1.7307450625470188E9, 0.0, 2024-11-04 15:31:02.547
66.0, -103792.40409045269, -103859.6157860298, -103953.80603716447, -103979.84581945489, -103961.785609935, -103921.21719374863, -104051.57256741197, -103970.48043852812, -0.002, 0.8260000000000001, 0.5720000000000001, 192.0, 0.0, 0.0, 0.0, 0.0, 0.0, 0.0, 0.0, 0.0, 0.0, 1.7307450625512178E9, 0.0, 2024-11-04 15:31:02.551
67.0, -103795.48863118752, -103862.63327153126, -103957.22585406613, -103983.46680205666, -103964.95955764766, -103924.4805484391, -104054.83592210244, -103973.7437932186, -0.002, 0.8260000000000001, 0.5720000000000001, 192.0, 0.0, 0.0, 0.0, 0.0, 0.0, 0.0, 0.0, 0.0, 0.0, 1.7307450625551589E9, 0.0, 2024-11-04 15:31:02.555
68.0, -103798.66257890017, -103865.9636814551, -103960.51156050105, -103986.73015674713, -103968.22291233814, -103927.6768478962, -104058.09927679293, -103976.94009267571, -0.002, 0.8260000000000001, 0.5720000000000001, 192.0, 0.0, 0.0, 25.0, 176.0, 17.0, 224.0, 0.0, 0.0, 0.0, 1.7307450625600123E9, 0.0, 2024-11-04 15:31:02.560
69.0, -103801.03186381244, -103868.19885590064, -103962.50086575758, -103988.71946200365, -103970.41338329476, -103929.82261536391, -104060.20034077173, -103979.10821188787, -0.002, 0.8260000000000001, 0.5720000000000001, 192.0, 0.0, 0.0, 0.0, 0.0, 0.0, 0.0, 0.0, 0.0, 0.0, 1.730745062564118E9, 0.0, 2024-11-04 15:31:02.564
70.0, -103806.3515789928, -103873.518571081, -103967.77587744902, -103993.92741846174, -103975.75545021957, -103935.1870340332, -104065.58711118545, -103984.36087183487, -0.002, 0.8260000000000001, 0.5720000000000001, 192.0, 0.0, 0.0, 0.0, 0.0, 0.0, 0.0, 0.0, 0.0, 0.0, 1.7307450625672517E9, 0.0, 2024-11-04 15:31:02.567
71.0, -103807.91620110467, -103875.06084144842, -103969.72047921664, -103995.96142720718, -103977.61064500936, -103936.95282184516, -104067.41995423079, -103986.14901139129, -0.002, 0.8260000000000001, 0.5720000000000001, 192.0, 0.0, 0.0, 0.0, 0.0, 0.0, 0.0, 0.0, 0.0, 0.0, 1.7307450625711715E9, 0.0, 2024-11-04 15:31:02.571
72.0, -103810.19607903912, -103877.43012636068, -103972.04506064, -103998.24130514161, -103979.91287468826, -103939.34445850187, -104069.7668873986, -103988.51829630355, -0.002, 0.8260000000000001, 0.5720000000000001, 192.0, 0.0, 0.0, 0.0, 0.0, 0.0, 0.0, 0.0, 0.0, 0.0, 1.7307450625751224E9, 0.0, 2024-11-04 15:31:02.575
73.0, -103815.69460817512, -103882.92865549668, -103977.20831360917, -104003.42690985525, -103985.18788637972, -103944.73122891561, -104075.0195473456, -103993.81565973946, -0.002, 0.8260000000000001, 0.5720000000000001, 192.0, 0.0, 0.0, 0.0, 0.0, 0.0, 0.0, 0.0, 0.0, 0.0, 1.7307450625789716E9, 0.0, 2024-11-04 15:31:02.578
74.0, -103819.38264601024, -103886.46023112063, -103980.69518574419, -104006.8467267569, -103988.78651723702, -103948.19574930618, -104078.64052994736, -103997.3472353634, -0.002, 0.8260000000000001, 0.5720000000000001, 192.0, 0.0, 0.0, 0.0, 0.0, 0.0, 0.0, 0.0, 0.0, 0.0, 1.7307450625830936E9, 0.0, 2024-11-04 15:31:02.583
75.0, -103822.757759423, -103889.88004802229, -103984.56203753497, -104010.71357854767, -103992.47455507214, -103951.90613888577, -104082.32856778248, -104001.1023284319, -0.002, 0.8260000000000001, 0.5720000000000001, 192.0, 0.0, 0.0, 0.0, 0.0, 0.0, 0.0, 0.0, 0.0, 0.0, 1.730745062588161E9, 0.0, 2024-11-04 15:31:02.588
76.0, -103825.46232050209, -103892.69636782365, -103987.37835733633, -104013.59695358241, -103995.22381964014, -103954.70010694268, -104085.12253583939, -104003.87394474435, -0.002, 0.8260000000000001, 0.5720000000000001, 192.0, 0.0, 0.0, 0.0, 0.0, 0.0, 0.0, 0.0, 0.0, 0.0, 1.730745062592024E9, 0.0, 2024-11-04 15:31:02.592
77.0, -103826.6022594693, -103893.90336202424, -103988.27242711454, -104014.37926463834, -103996.3414068629, -103955.75063893208, -104086.10601259542, -104004.87977324484, -0.002, 0.8260000000000001, 0.5720000000000001, 192.0, 0.0, 0.0, 0.0, 0.0, 0.0, 0.0, 0.0, 0.0, 0.0, 1.7307450625951452E9, 0.0, 2024-11-04 15:31:02.595
78.0, -103830.46911126007, -103897.70315858164, -103992.02752018304, -104017.97789549564, -104000.0517964425, -103959.4386767672, -104089.86110566392, -104008.63486631332, -0.002, 0.8260000000000001, 0.5720000000000001, 192.0, 0.0, 0.0, 25.0, 208.0, 17.0, 224.0, 0.0, 0.0, 0.0, 1.7307450625990994E9, 0.0, 2024-11-04 15:31:02.599
79.0, -103834.49242526203, -103901.61471386132, -103996.27435162954, -104022.35883740889, -104004.20922091117, -103963.59610123589, -104093.99617838814, -104012.76993903756, -0.002, 0.8260000000000001, 0.5720000000000001, 192.0, 0.0, 0.0, 0.0, 0.0, 0.0, 0.0, 0.0, 0.0, 0.0, 1.7307450626031575E9, 0.0, 2024-11-04 15:31:02.603
80.0, -103837.68872471915, -103905.01217901852, -103999.78357550903, -104025.82335779945, -104007.56198257947, -103966.94886290419, -104097.34894005644, -104016.01094198358, -0.002, 0.8260000000000001, 0.5720000000000001, 192.0, 0.0, 0.0, 0.0, 0.0, 0.0, 0.0, 0.0, 0.0, 0.0, 1.7307450626091695E9, 0.0, 2024-11-04 15:31:02.609
81.0, -103842.00261139902, -103909.34841744286, -104003.94099997771, -104029.93607877924, -104011.76411053707, -103971.1956943507, -104101.68517848077, -104020.32482866345, -0.002, 0.8260000000000001, 0.5720000000000001, 192.0, 0.0, 0.0, 0.0, 0.0, 0.0, 0.0, 0.0, 0.0, 0.0, 1.7307450626122007E9, 0.0, 2024-11-04 15:31:02.612
82.0, -103845.22126260058, -103912.38825468878, -104006.89143024581, -104032.7523985806, -104014.82629952746, -103974.1908281077, -104104.7250157267, -104023.4540728872, -0.002, 0.8260000000000001, 0.5720000000000001, 192.0, 0.0, 0.0, 0.0, 0.0, 0.0, 0.0, 0.0, 0.0, 0.0, 1.7307450626151688E9, 0.0, 2024-11-04 15:31:02.615
83.0, -103847.99287891304, -103915.18222274569, -104009.93126749173, -104035.9039945488, -104017.77672979554, -103977.20831360917, -104107.63074250589, -104026.33744792193, -0.002, 0.8260000000000001, 0.5720000000000001, 192.0, 0.0, 0.0, 0.0, 0.0, 0.0, 0.0, 0.0, 0.0, 0.0, 1.7307450626191864E9, 0.0, 2024-11-04 15:31:02.619
84.0, -103852.17265512618, -103919.4290541922, -104014.28985766052, -104040.35199169541, -104022.09061647543, -103981.58925552241, -104111.83287046348, -104030.6513346018, -0.002, 0.8260000000000001, 0.5720000000000001, 192.0, 0.0, 0.0, 0.0, 0.0, 0.0, 0.0, 0.0, 0.0, 0.0, 1.7307450626223238E9, 0.0, 2024-11-04 15:31:02.622
85.0, -103853.9607946826, -103921.28424898199, -104015.98859023913, -104041.87191031837, -104023.76699730958, -103983.26563635656, -104113.55395478653, -104032.28301194705, -0.002, 0.8260000000000001, 0.5720000000000001, 192.0, 0.0, 0.0, 0.0, 0.0, 0.0, 0.0, 0.0, 0.0, 0.0, 1.7307450626271074E9, 0.0, 2024-11-04 15:31:02.627
86.0, -103857.3135563509, -103924.54760367246, -104019.11783446287, -104044.9564510532, -104026.89624153332, -103986.3948805803, -104116.72790249919, -104035.43460791525, -0.002, 0.8260000000000001, 0.5720000000000001, 192.0, 0.0, 0.0, 0.0, 0.0, 0.0, 0.0, 0.0, 0.0, 0.0, 1.7307450626312609E9, 0.0, 2024-11-04 15:31:02.631
87.0, -103861.22511163059, -103928.3250484854, -104022.96233450918, -104048.97976505516, -104030.91955553526, -103990.23938062662, -104120.61710603442, -104039.4132184283, -0.002, 0.8260000000000001, 0.5720000000000001, 192.0, 0.0, 0.0, 0.0, 0.0, 0.0, 0.0, 0.0, 0.0, 0.0, 1.7307450626352265E9, 0.0, 2024-11-04 15:31:02.635
88.0, -103865.4719430771, -103932.6836386542, -104027.54444212253, -104053.67363139077, -104035.4569596597, -103994.88854347331, -104125.19921364775, -104043.88356731935, -0.006, 0.8300000000000001, 0.58, 192.0, 255.0, 208.0, 25.0, 240.0, 18.0, 32.0, 0.0, 0.0, 0.0, 1.7307450626394737E9, 0.0, 2024-11-04 15:31:02.639
89.0, -103868.82470474538, -103936.01404857804, -104030.83014855745, -104056.82522735898, -104038.69796260571, -103998.26365688606, -104128.5296235716, -104047.12457026537, -0.006, 0.8300000000000001, 0.58, 192.0, 0.0, 0.0, 0.0, 0.0, 0.0, 0.0, 0.0, 0.0, 0.0, 1.730745062643324E9, 0.0, 2024-11-04 15:31:02.643
90.0, -103873.00448095852, -103940.14912130227, -104034.74170383713, -104060.5132651941, -104042.72127660767, -104002.1528604213, -104132.41882710683, -104051.12553252287, -0.006, 0.8300000000000001, 0.58, 192.0, 0.0, 0.0, 0.0, 0.0, 0.0, 0.0, 0.0, 0.0, 0.0, 1.7307450626471982E9, 0.0, 2024-11-04 15:31:02.647
91.0, -103877.34071938286, -103944.4853597266, -104039.055590517, -104064.93891059625, -104047.05751503201, -104006.51145059007, -104136.82212076451, -104055.55117792502, -0.006, 0.8300000000000001, 0.58, 192.0, 0.0, 0.0, 0.0, 0.0, 0.0, 0.0, 0.0, 0.0, 0.0, 1.730745062650365E9, 0.0, 2024-11-04 15:31:02.650
92.0, -103881.16286768472, -103948.39691500628, -104043.2577184746, -104069.31985250949, -104051.17023601178, -104010.57946808093, -104140.95719348875, -104059.59684367143, -0.006, 0.8300000000000001, 0.58, 192.0, 0.0, 0.0, 0.0, 0.0, 0.0, 0.0, 0.0, 0.0, 0.0, 1.7307450626544275E9, 0.0, 2024-11-04 15:31:02.654
93.0, -103883.95683574163, -103951.39204876329, -104046.16344525378, -104072.20322754422, -104054.0089075576, -104013.46284311567, -104143.86292026794, -104062.34610823944, -0.006, 0.8300000000000001, 0.58, 192.0, 0.0, 0.0, 0.0, 0.0, 0.0, 0.0, 0.0, 0.0, 0.0, 1.730745062659344E9, 0.0, 2024-11-04 15:31:02.659
94.0, -103888.20366718814, -103955.57182497643, -104050.11970402238, -104076.070079335, -104058.05457330402, -104017.62026758437, -104147.86388252543, -104066.57058794149, -0.006, 0.8300000000000001, 0.58, 192.0, 0.0, 0.0, 0.0, 0.0, 0.0, 0.0, 0.0, 0.0, 0.0, 1.7307450626633267E9, 0.0, 2024-11-04 15:31:02.663
95.0, -103892.13757421228, -103959.46102851165, -104053.98655581314, -104079.80282065902, -104061.94377683924, -104021.46476763068, -104151.73073431621, -104070.4150879878, -0.006, 0.8300000000000001, 0.58, 192.0, 0.0, 0.0, 0.0, 0.0, 0.0, 0.0, 0.0, 0.0, 0.0, 1.7307450626671927E9, 0.0, 2024-11-04 15:31:02.667
96.0, -103894.19393470215, -103961.539740746, -104056.5123029366, -104082.39562301584, -104064.3577652404, -104023.87875603185, -104154.10001922847, -104072.7173176667, -0.006, 0.8300000000000001, 0.58, 192.0, 0.0, 0.0, 0.0, 0.0, 0.0, 0.0, 0.0, 0.0, 0.0, 1.7307450626712835E9, 0.0, 2024-11-04 15:31:02.671
97.0, -103897.70315858164, -103965.02661288103, -104060.04387856054, -104086.01660561761, -104067.93404435326, -104027.38797991133, -104157.67629834132, -104076.24889329063, -0.006, 0.8300000000000001, 0.58, 192.0, 0.0, 0.0, 0.0, 0.0, 0.0, 0.0, 0.0, 0.0, 0.0, 1.730745062675166E9, 0.0, 2024-11-04 15:31:02.675
98.0, -103900.18420221617, -103967.46295302665, -104062.23434951715, -104087.98355912967, -104070.14686705434, -104029.57845086795, -104159.9338245313, -104078.50641948062, -0.008, 0.8280000000000001, 0.5760000000000001, 192.0, 255.0, 192.0, 25.0, 224.0, 18.0, 0.0, 0.0, 0.0, 0.0, 1.7307450626782064E9, 0.0, 2024-11-04 15:31:02.678
99.0, -103903.26874295101, -103970.45808678366, -104065.07302106298, -104090.88928590887, -104073.00789034461, -104032.48417764714, -104162.79484782158, -104081.43449800427, -0.008, 0.8280000000000001, 0.5760000000000001, 192.0, 0.0, 0.0, 0.0, 0.0, 0.0, 0.0, 0.0, 0.0, 0.0, 1.7307450626831992E9, 0.0, 2024-11-04 15:31:02.683
100.0, -103905.63802786327, -103972.8944269293, -104067.82228563099, -104093.72795745468, -104075.6677479348, -104035.2110904707, -104165.36529843394, -104084.07200384999, -0.008, 0.8280000000000001, 0.5760000000000001, 192.0, 0.0, 0.0, 0.0, 0.0, 0.0, 0.0, 0.0, 0.0, 0.0, 1.730745062687322E9, 0.0, 2024-11-04 15:31:02.687
101.0, -103907.91790579772, -103975.1966566082, -104070.23627403216, -104096.14194585585, -104078.10408808042, -104037.46861666067, -104167.75693509066, -104086.35188178443, -0.008, 0.8280000000000001, 0.5760000000000001, 192.0, 0.0, 0.0, 0.0, 0.0, 0.0, 0.0, 0.0, 0.0, 0.0, 1.7307450626913855E9, 0.0, 2024-11-04 15:31:02.691
102.0, -103910.77892908799, -103978.10238338738, -104072.94083511125, -104098.69004472376, -104080.87570439288, -104040.12847425086, -104170.55090314757, -104089.1682015858, -0.008, 0.8280000000000001, 0.5760000000000001, 192.0, 0.0, 0.0, 0.0, 0.0, 0.0, 0.0, 0.0, 0.0, 0.0, 1.7307450626953297E9, 0.0, 2024-11-04 15:31:02.695
103.0, -103915.87512682381, -103983.13152588982, -104077.92527412478, -104103.5180215261, -104085.79308817304, -104045.06820977548, -104175.5353421611, -104094.17499234379, -0.008, 0.8280000000000001, 0.5760000000000001, 192.0, 0.0, 0.0, 0.0, 0.0, 0.0, 0.0, 0.0, 0.0, 0.0, 1.7307450626990778E9, 0.0, 2024-11-04 15:31:02.699
104.0, -103920.88191758179, -103988.0936131589, -104083.08852709396, -104108.9271436843, -104091.0680998645, -104050.38792495584, -104180.60918815246, -104099.38294880188, -0.008, 0.8280000000000001, 0.5760000000000001, 192.0, 0.0, 0.0, 0.0, 0.0, 0.0, 0.0, 0.0, 0.0, 0.0, 1.7307450627031548E9, 0.0, 2024-11-04 15:31:02.703
105.0, -103922.29007748248, -103989.56882829295, -104084.72020443919, -104110.64822800735, -104092.61037023192, -104051.97489881217, -104182.21851375325, -104100.90286742484, -0.008, 0.8280000000000001, 0.5760000000000001, 192.0, 0.0, 0.0, 0.0, 0.0, 0.0, 0.0, 0.0, 0.0, 0.0, 1.7307450627062085E9, 0.0, 2024-11-04 15:31:02.706
106.0, -103926.11222578434, -103993.36862485035, -104088.3188352965, -104114.17980363128, -104096.25370457814, -104055.64058490284, -104186.01831031064, -104104.63560874887, -0.008, 0.8280000000000001, 0.5760000000000001, 192.0, 0.0, 0.0, 0.0, 0.0, 0.0, 0.0, 0.0, 0.0, 0.0, 1.7307450627113135E9, 0.0, 2024-11-04 15:31:02.711
107.0, -103929.64380140828, -103996.92255221875, -104091.62689347588, -104117.3761030884, -104099.56176275751, -104058.97099482668, -104189.37107197894, -104108.05542565054, -0.008, 0.8280000000000001, 0.5760000000000001, 192.0, 0.0, 0.0, 0.0, 0.0, 0.0, 0.0, 0.0, 0.0, 0.0, 1.730745062715165E9, 0.0, 2024-11-04 15:31:02.715
108.0, -103932.34836248736, -103999.58240980894, -104094.51026851062, -104120.25947812313, -104102.24397209215, -104061.7649628836, -104192.07563305803, -104110.78233847408, -0.006, 0.8280000000000001, 0.578, 192.0, 255.0, 208.0, 25.0, 224.0, 18.0, 16.0, 0.0, 0.0, 0.0, 1.7307450627194011E9, 0.0, 2024-11-04 15:31:02.719
109.0, -103935.58936543339, -104002.93517147722, -104098.0194923901, -104123.96986770272, -104105.86495469391, -104065.3635937409, -104195.51780170415, -104114.24685886466, -0.006, 0.8280000000000001, 0.578, 192.0, 0.0, 0.0, 0.0, 0.0, 0.0, 0.0, 0.0, 0.0, 0.0, 1.730745062723454E9, 0.0, 2024-11-04 15:31:02.723
110.0, -103939.70208641316, -104007.11494769037, -104102.15456511434, -104128.08258868249, -104110.04473090706, -104069.43161123176, -104199.7422814062, -104118.47133856671, -0.006, 0.8280000000000001, 0.578, 192.0, 0.0, 0.0, 0.0, 0.0, 0.0, 0.0, 0.0, 0.0, 0.0, 1.730745062726242E9, 0.0, 2024-11-04 15:31:02.726
111.0, -103943.2336620371, -104010.55711633648, -104105.44027154926, -104131.1224259284, -104113.30808559753, -104072.7173176667, -104203.0950430745, -104121.77939674609, -0.006, 0.8280000000000001, 0.578, 192.0, 0.0, 0.0, 0.0, 0.0, 0.0, 0.0, 0.0, 0.0, 0.0, 1.730745062730257E9, 0.0, 2024-11-04 15:31:02.730
112.0, -103945.58059520491, -104012.7028838042, -104107.74250122816, -104133.35760037394, -104115.61031527643, -104075.0195473456, -104205.37492100894, -104124.01457119163, -0.006, 0.8280000000000001, 0.578, 192.0, 0.0, 0.0, 0.0, 0.0, 0.0, 0.0, 0.0, 0.0, 0.0, 1.7307450627343912E9, 0.0, 2024-11-04 15:31:02.734
113.0, -103949.76037141804, -104016.90501176179, -104112.23520186367, -104138.14087368739, -104120.14771940086, -104079.4675444922, -104209.68880768881, -104128.39551310487, -0.006, 0.8280000000000001, 0.578, 192.0, 0.0, 0.0, 0.0, 0.0, 0.0, 0.0, 0.0, 0.0, 0.0, 1.7307450627383256E9, 0.0, 2024-11-04 15:31:02.738
114.0, -103952.12965633032, -104019.43075888524, -104114.6268385204, -104140.48780685519, -104122.51700431312, -104081.88153289337, -104212.1474995789, -104130.76479801713, -0.006, 0.8280000000000001, 0.578, 192.0, 0.0, 0.0, 0.0, 0.0, 0.0, 0.0, 0.0, 0.0, 0.0, 1.7307450627432835E9, 0.0, 2024-11-04 15:31:02.743
115.0, -103955.75063893208, -104023.02938974254, -104118.04665542206, -104143.63940282338, -104125.93682121478, -104085.34605328394, -104215.7014269473, -104134.25167015215, -0.006, 0.8280000000000001, 0.578, 192.0, 0.0, 0.0, 0.0, 0.0, 0.0, 0.0, 0.0, 0.0, 0.0, 1.7307450627473233E9, 0.0, 2024-11-04 15:31:02.747
116.0, -103961.31622330144, -104028.52791887855, -104123.54518455807, -104149.20498719276, -104131.5247573286, -104090.91163765332, -104221.28936306112, -104139.81725452152, -0.006, 0.8280000000000001, 0.578, 192.0, 0.0, 0.0, 0.0, 0.0, 0.0, 0.0, 0.0, 0.0, 0.0, 1.7307450627512407E9, 0.0, 2024-11-04 15:31:02.751
117.0, -103966.32301405944, -104033.62411661436, -104128.90960322734, -104154.85997853994, -104136.82212076451, -104096.20900108923, -104226.45261603029, -104145.02521097961, -0.006, 0.8280000000000001, 0.578, 192.0, 0.0, 0.0, 0.0, 0.0, 0.0, 0.0, 0.0, 0.0, 0.0, 1.7307450627543197E9, 0.0, 2024-11-04 15:31:02.754
118.0, -103966.1889035927, -104033.49000614764, -104128.68608578279, -104154.54705411757, -104136.64330680887, -104096.00783538913, -104226.18439509683, -104144.80169353506, -0.004, 0.8240000000000001, 0.582, 192.0, 255.0, 224.0, 25.0, 192.0, 18.0, 48.0, 0.0, 0.0, 0.0, 1.7307450627584968E9, 0.0, 2024-11-04 15:31:02.758
119.0, -103972.00035715108, -104039.2567562171, -104134.18461491879, -104160.00087976467, -104142.1865394338, -104101.59577150295, -104231.86173818848, -104150.4343331378, -0.004, 0.8240000000000001, 0.582, 192.0, 0.0, 0.0, 0.0, 0.0, 0.0, 0.0, 0.0, 0.0, 0.0, 1.7307450627625093E9, 0.0, 2024-11-04 15:31:02.762
120.0, -103978.03532815402, -104045.17996849776, -104140.21958592172, -104165.99114727869, -104148.15445520336, -104107.63074250589, -104237.98611616924, -104156.55871111855, -0.004, 0.8240000000000001, 0.582, 192.0, 0.0, 0.0, 0.0, 0.0, 0.0, 0.0, 0.0, 0.0, 0.0, 1.730745062767331E9, 0.0, 2024-11-04 15:31:02.767
121.0, -103980.13639213282, -104047.28103247656, -104142.79003653408, -104168.67335661333, -104150.56844360453, -104110.06708265151, -104240.33304933704, -104158.90564428637, -0.004, 0.8240000000000001, 0.582, 192.0, 0.0, 0.0, 0.0, 0.0, 0.0, 0.0, 0.0, 0.0, 0.0, 1.730745062771114E9, 0.0, 2024-11-04 15:31:02.771
122.0, -103982.59508402289, -104049.96324181119, -104145.36048714645, -104171.24380722569, -104153.1835977058, -104112.57047803051, -104242.81409297159, -104161.31963268753, -0.004, 0.8240000000000001, 0.582, 192.0, 0.0, 0.0, 0.0, 0.0, 0.0, 0.0, 0.0, 0.0, 0.0, 1.7307450627752228E9, 0.0, 2024-11-04 15:31:02.775
123.0, -103984.45027881268, -104051.70667787871, -104146.8804057694, -104172.67431887084, -104154.81527505103, -104114.17980363128, -104244.64693601691, -104162.97366177723, -0.004, 0.8240000000000001, 0.582, 192.0, 0.0, 0.0, 0.0, 0.0, 0.0, 0.0, 0.0, 0.0, 0.0, 1.7307450627794142E9, 0.0, 2024-11-04 15:31:02.779
124.0, -103987.49011605862, -104054.79121861354, -104149.83083603751, -104175.5353421611, -104157.81040880804, -104117.15258564384, -104247.57501454056, -104166.0358507676, -0.004, 0.8240000000000001, 0.582, 192.0, 0.0, 0.0, 0.0, 0.0, 0.0, 0.0, 0.0, 0.0, 0.0, 1.7307450627823584E9, 0.0, 2024-11-04 15:31:02.782
125.0, -103991.6922440162, -104058.90393959332, -104154.23412969519, -104180.07274628553, -104162.2360542102, -104121.51117581263, -104251.79949424262, -104170.32738570301, -0.004, 0.8240000000000001, 0.582, 192.0, 0.0, 0.0, 0.0, 0.0, 0.0, 0.0, 0.0, 0.0, 0.0, 1.7307450627863529E9, 0.0, 2024-11-04 15:31:02.786
126.0, -103997.43664234121, -104064.62598617388, -104160.15734197585, -104185.99595856619, -104168.09221125749, -104127.38968460438, -104257.63329954544, -104176.16119100586, -0.004, 0.8240000000000001, 0.582, 192.0, 0.0, 0.0, 0.0, 0.0, 0.0, 0.0, 0.0, 0.0, 0.0, 1.7307450627903256E9, 0.0, 2024-11-04 15:31:02.790
127.0, -103999.80592725349, -104067.08467806395, -104162.32546118803, -104188.09702254499, -104170.2379787252, -104129.69191428328, -104259.91317747989, -104178.41871719585, -0.004, 0.8240000000000001, 0.582, 192.0, 0.0, 0.0, 0.0, 0.0, 0.0, 0.0, 0.0, 0.0, 0.0, 1.7307450627943954E9, 0.0, 2024-11-04 15:31:02.794
128.0, -104001.97404646565, -104069.25279727612, -104164.27006295563, -104189.90751384587, -104172.22728398172, -104131.7259230287, -104261.96953796978, -104180.49742943018, -0.008, 0.8320000000000001, 0.582, 192.0, 255.0, 192.0, 26.0, 0.0, 18.0, 48.0, 0.0, 0.0, 0.0, 1.730745062799498E9, 0.0, 2024-11-04 15:31:02.799
129.0, -104007.49492734611, -104074.77367815658, -104170.19327523629, -104195.87542961544, -104178.06108928456, -104137.47032135371, -104267.66923280589, -104186.26417949966, -0.008, 0.8320000000000001, 0.582, 192.0, 0.0, 0.0, 0.0, 0.0, 0.0, 0.0, 0.0, 0.0, 0.0, 1.730745062803276E9, 0.0, 2024-11-04 15:31:02.803
130.0, -104011.20531692568, -104078.59582645845, -104174.26129272715, -104199.89874361739, -104182.10675503097, -104141.51598710012, -104271.5137328522, -104190.13103129042, -0.008, 0.8320000000000001, 0.582, 192.0, 0.0, 0.0, 0.0, 0.0, 0.0, 0.0, 0.0, 0.0, 0.0, 1.7307450628072815E9, 0.0, 2024-11-04 15:31:02.807
131.0, -104014.93805824973, -104082.35091952693, -104177.72581311772, -104203.40796749688, -104185.66068239936, -104145.09226621297, -104275.22412243178, -104193.72966214773, -0.008, 0.8320000000000001, 0.582, 192.0, 0.0, 0.0, 0.0, 0.0, 0.0, 0.0, 0.0, 0.0, 0.0, 1.73074506281028E9, 0.0, 2024-11-04 15:31:02.810
132.0, -104018.13435770683, -104085.45781200622, -104180.58683640801, -104206.2466390427, -104188.54405743409, -104147.99799299217, -104278.19690444434, -104196.72479590474, -0.008, 0.8320000000000001, 0.582, 192.0, 0.0, 0.0, 0.0, 0.0, 0.0, 0.0, 0.0, 0.0, 0.0, 1.7307450628143191E9, 0.0, 2024-11-04 15:31:02.814
133.0, -104020.23542168563, -104087.58122772948, -104182.86671434245, -104208.45946174377, -104190.80158362408, -104150.12140871542, -104280.29796842312, -104198.84821162799, -0.008, 0.8320000000000001, 0.582, 192.0, 0.0, 0.0, 0.0, 0.0, 0.0, 0.0, 0.0, 0.0, 0.0, 1.730745062818354E9, 0.0, 2024-11-04 15:31:02.818
134.0, -104024.41519789878, -104091.82805917598, -104187.38176672242, -104213.13097633493, -104195.27193251514, -104154.59175760648, -104284.70126208082, -104203.27385703014, -0.008, 0.8320000000000001, 0.582, 192.0, 0.0, 0.0, 0.0, 0.0, 0.0, 0.0, 0.0, 0.0, 0.0, 1.7307450628224547E9, 0.0, 2024-11-04 15:31:02.822
135.0, -104027.20916595569, -104094.57732374399, -104190.10867954597, -104215.74613043621, -104198.02119708314, -104157.43042915231, -104287.5175818822, -104205.97841810924, -0.008, 0.8320000000000001, 0.582, 192.0, 0.0, 0.0, 0.0, 0.0, 0.0, 0.0, 0.0, 0.0, 0.0, 1.730745062827394E9, 0.0, 2024-11-04 15:31:02.827
136.0, -104032.59593636941, -104099.9193906688, -104195.24958077069, -104220.79762468311, -104203.25150528569, -104162.66073735485, -104292.79259357364, -104211.23107805623, -0.008, 0.8320000000000001, 0.582, 192.0, 0.0, 0.0, 0.0, 0.0, 0.0, 0.0, 0.0, 0.0, 0.0, 1.73074506283137E9, 0.0, 2024-11-04 15:31:02.831
137.0, -104036.64160211584, -104103.89800118185, -104199.27289477264, -104224.84329042952, -104207.23011579874, -104166.66169961235, -104296.8159075756, -104215.25439205818, -0.008, 0.8320000000000001, 0.582, 192.0, 0.0, 0.0, 0.0, 0.0, 0.0, 0.0, 0.0, 0.0, 0.0, 1.7307450628354008E9, 0.0, 2024-11-04 15:31:02.835
138.0, -104036.66395386029, -104103.9203529263, -104199.7422814062, -104225.37973229644, -104207.61009545447, -104166.97462403473, -104297.0170732757, -104215.5002612472, -0.004, 0.8320000000000001, 0.578, 192.0, 255.0, 224.0, 26.0, 0.0, 18.0, 16.0, 0.0, 0.0, 0.0, 1.730745062838642E9, 0.0, 2024-11-04 15:31:02.838
139.0, -104040.2625847176, -104107.58603901697, -104203.22915354124, -104228.88895617593, -104211.11931933396, -104170.55090314757, -104300.63805587745, -104219.07654036005, -0.004, 0.8320000000000001, 0.578, 192.0, 0.0, 0.0, 0.0, 0.0, 0.0, 0.0, 0.0, 0.0, 0.0, 1.7307450628425236E9, 0.0, 2024-11-04 15:31:02.842
140.0, -104046.07403827597, -104113.48689955317, -104208.7947379106, -104234.43218880084, -104216.79666242561, -104176.20589449476, -104306.33775071356, -104224.79858694061, -0.004, 0.8320000000000001, 0.578, 192.0, 0.0, 0.0, 0.0, 0.0, 0.0, 0.0, 0.0, 0.0, 0.0, 1.7307450628463497E9, 0.0, 2024-11-04 15:31:02.846
141.0, -104048.73389586616, -104116.1244053989, -104211.4992989897, -104237.06969464656, -104219.52357524916, -104178.82104859604, -104308.99760830375, -104227.52549976415, -0.004, 0.8320000000000001, 0.578, 192.0, 0.0, 0.0, 0.0, 0.0, 0.0, 0.0, 0.0, 0.0, 0.0, 1.7307450628505368E9, 0.0, 2024-11-04 15:31:02.850
142.0, -104050.76790461158, -104118.13606239988, -104213.95799087978, -104239.64014525893, -104221.84815667251, -104181.05622304157, -104311.14337577145, -104229.67126723187, -0.004, 0.8320000000000001, 0.578, 192.0, 0.0, 0.0, 0.0, 0.0, 0.0, 0.0, 0.0, 0.0, 0.0, 1.7307450628553631E9, 0.0, 2024-11-04 15:31:02.855
143.0, -104053.04778254603, -104120.48299556768, -104216.1484618364, -104241.92002319336, -104223.99392414022, -104183.31374923156, -104313.4232537059, -104231.88408993294, -0.004, 0.8320000000000001, 0.578, 192.0, 0.0, 0.0, 0.0, 0.0, 0.0, 0.0, 0.0, 0.0, 0.0, 1.7307450628594859E9, 0.0, 2024-11-04 15:31:02.859
144.0, -104054.90297733582, -104122.38289384638, -104217.66838045936, -104243.37288658296, -104225.69265671882, -104185.07953704352, -104315.16668977341, -104233.67222948936, -0.004, 0.8320000000000001, 0.578, 192.0, 0.0, 0.0, 0.0, 0.0, 0.0, 0.0, 0.0, 0.0, 0.0, 1.730745062862387E9, 0.0, 2024-11-04 15:31:02.862
145.0, -104060.78148612755, -104128.26140263813, -104223.52453750666, -104249.07258141907, -104231.5488137661, -104191.00274932418, -104321.00049507625, -104239.52838653665, -0.004, 0.8320000000000001, 0.578, 192.0, 0.0, 0.0, 0.0, 0.0, 0.0, 0.0, 0.0, 0.0, 0.0, 1.730745062866454E9, 0.0, 2024-11-04 15:31:02.866
146.0, -104064.69304140724, -104132.01649570663, -104227.72666546424, -104253.4088198434, -104235.61683125698, -104195.04841507059, -104324.95675384483, -104243.64110751642, -0.004, 0.8320000000000001, 0.578, 192.0, 0.0, 0.0, 0.0, 0.0, 0.0, 0.0, 0.0, 0.0, 0.0, 1.7307450628705115E9, 0.0, 2024-11-04 15:31:02.870
147.0, -104069.14103855385, -104136.5762515755, -104232.30877307759, -104258.01327920119, -104240.24364235922, -104199.65287442839, -104329.60591669154, -104248.22321512976, -0.004, 0.8320000000000001, 0.578, 192.0, 0.0, 0.0, 0.0, 0.0, 0.0, 0.0, 0.0, 0.0, 0.0, 1.7307450628764167E9, 0.0, 2024-11-04 15:31:02.876
148.0, -104072.65026243332, -104140.15253068836, -104235.63918300143, -104261.2095786583, -104243.68581100534, -104203.02798784114, -104333.13749231548, -104251.57597679806, -0.004, 0.8200000000000001, 0.578, 192.0, 255.0, 224.0, 25.0, 160.0, 18.0, 16.0, 0.0, 0.0, 0.0, 1.7307450628794572E9, 0.0, 2024-11-04 15:31:02.879
149.0, -104074.48310547866, -104141.96302198924, -104237.36026732449, -104262.81890425908, -104245.33984009502, -104204.7490721642, -104334.83622489408, -104253.16295065438, -0.004, 0.8200000000000001, 0.578, 192.0, 0.0, 0.0, 0.0, 0.0, 0.0, 0.0, 0.0, 0.0, 0.0, 1.730745062883431E9, 0.0, 2024-11-04 15:31:02.883
150.0, -104076.56181771301, -104143.79586503457, -104239.57309002556, -104265.2105409158, -104247.48560756275, -104206.93954312081, -104336.8702336395, -104255.42047684437, -0.004, 0.8200000000000001, 0.578, 192.0, 0.0, 0.0, 0.0, 0.0, 0.0, 0.0, 0.0, 0.0, 0.0, 1.7307450628874E9, 0.0, 2024-11-04 15:31:02.887
151.0, -104081.85918114892, -104149.24969068167, -104245.04926741711, -104270.82082877409, -104252.98413669875, -104212.41572051236, -104342.39111451998, -104260.87430249147, -0.004, 0.8200000000000001, 0.578, 192.0, 0.0, 0.0, 0.0, 0.0, 0.0, 0.0, 0.0, 0.0, 0.0, 1.7307450628905187E9, 0.0, 2024-11-04 15:31:02.890
152.0, -104085.70368119523, -104153.11654247243, -104248.8043604856, -104274.4641631203, -104256.80628500061, -104216.1484618364, -104346.23561456629, -104264.6070438155, -0.004, 0.8200000000000001, 0.578, 192.0, 0.0, 0.0, 0.0, 0.0, 0.0, 0.0, 0.0, 0.0, 0.0, 1.7307450628943212E9, 0.0, 2024-11-04 15:31:02.894
153.0, -104089.43642251927, -104156.87163554093, -104252.26888087617, -104277.72751781077, -104260.27080539118, -104219.63533397143, -104349.78954193468, -104268.22802641726, -0.004, 0.8200000000000001, 0.578, 192.0, 0.0, 0.0, 0.0, 0.0, 0.0, 0.0, 0.0, 0.0, 0.0, 1.7307450628985143E9, 0.0, 2024-11-04 15:31:02.898
154.0, -104091.55983824252, -104158.77153381963, -104254.50405532171, -104279.9626922563, -104262.41657285889, -104221.84815667251, -104351.86825416902, -104270.2620351627, -0.004, 0.8200000000000001, 0.578, 192.0, 0.0, 0.0, 0.0, 0.0, 0.0, 0.0, 0.0, 0.0, 0.0, 1.7307450629024744E9, 0.0, 2024-11-04 15:31:02.902
155.0, -104094.75613769963, -104162.07959199902, -104258.01327920119, -104283.60602660252, -104265.94814848283, -104225.33502880753, -104355.31042281514, -104273.63714857545, -0.004, 0.8200000000000001, 0.578, 192.0, 0.0, 0.0, 0.0, 0.0, 0.0, 0.0, 0.0, 0.0, 0.0, 1.730745062906351E9, 0.0, 2024-11-04 15:31:02.906
156.0, -104099.49470752415, -104167.04167926809, -104262.72949728127, -104288.23283770477, -104270.82082877409, -104230.14065386543, -104360.18310310639, -104278.5098288667, -0.004, 0.8200000000000001, 0.578, 192.0, 0.0, 0.0, 0.0, 0.0, 0.0, 0.0, 0.0, 0.0, 0.0, 1.730745062911332E9, 0.0, 2024-11-04 15:31:02.911
157.0, -104103.78624245957, -104171.35556594796, -104266.77516302768, -104292.23379996227, -104274.84414277604, -104234.2533748452, -104364.36287931954, -104282.60019810202, -0.004, 0.8200000000000001, 0.578, 192.0, 0.0, 0.0, 0.0, 0.0, 0.0, 0.0, 0.0, 0.0, 0.0, 1.7307450629153218E9, 0.0, 2024-11-04 15:31:02.915
158.0, -104106.8260797055, -104174.08247877151, -104269.83735201805, -104295.34069244155, -104277.90633176641, -104237.27086034666, -104367.35801307655, -104285.66238709241, -0.002, 0.8240000000000001, 0.5720000000000001, 192.0, 255.0, 240.0, 25.0, 192.0, 17.0, 224.0, 0.0, 0.0, 0.0, 1.7307450629185193E9, 0.0, 2024-11-04 15:31:02.918
159.0, -104109.3741785734, -104176.60822589496, -104272.69837530833, -104298.2687709652, -104280.7673550567, -104240.02012491466, -104370.04022241119, -104288.41165166041, -0.002, 0.8240000000000001, 0.5720000000000001, 192.0, 0.0, 0.0, 0.0, 0.0, 0.0, 0.0, 0.0, 0.0, 0.0, 1.7307450629224727E9, 0.0, 2024-11-04 15:31:02.922
160.0, -104112.88340245288, -104180.40802245236, -104276.18524744335, -104301.82269833359, -104284.32128242508, -104243.5517005386, -104373.6388532685, -104291.94322728434, -0.002, 0.8240000000000001, 0.5720000000000001, 192.0, 0.0, 0.0, 0.0, 0.0, 0.0, 0.0, 0.0, 0.0, 0.0, 1.730745062926336E9, 0.0, 2024-11-04 15:31:02.926
161.0, -104117.82313797751, -104185.32540623253, -104280.85676203451, -104306.29304722465, -104288.99279701624, -104248.26791861867, -104378.4891818153, -104296.72650059778, -0.002, 0.8240000000000001, 0.5720000000000001, 192.0, 0.0, 0.0, 0.0, 0.0, 0.0, 0.0, 0.0, 0.0, 0.0, 1.7307450629304216E9, 0.0, 2024-11-04 15:31:02.930
162.0, -104119.20894613373, -104186.64415915539, -104282.30962542411, -104307.63415189197, -104290.42330866138, -104249.65372677491, -104379.85263822706, -104298.08995700955, -0.002, 0.8240000000000001, 0.5720000000000001, 192.0, 0.0, 0.0, 0.0, 0.0, 0.0, 0.0, 0.0, 0.0, 0.0, 1.730745062936623E9, 0.0, 2024-11-04 15:31:02.936
163.0, -104121.75704500164, -104189.16990627884, -104285.17064871438, -104310.65163739344, -104293.2172767183, -104252.47004657627, -104382.4901440728, -104300.8168698331, -0.002, 0.8240000000000001, 0.5720000000000001, 192.0, 0.0, 0.0, 0.0, 0.0, 0.0, 0.0, 0.0, 0.0, 0.0, 1.7307450629395308E9, 0.0, 2024-11-04 15:31:02.939
164.0, -104127.18851890428, -104194.6907871593, -104290.60212261703, -104316.08311129607, -104298.62639887648, -104257.94622396783, -104387.94396971988, -104306.22599199129, -0.002, 0.8240000000000001, 0.5720000000000001, 192.0, 0.0, 0.0, 0.0, 0.0, 0.0, 0.0, 0.0, 0.0, 0.0, 1.7307450629435136E9, 0.0, 2024-11-04 15:31:02.943
165.0, -104130.54128057258, -104198.0435488276, -104293.66431160741, -104319.01118981972, -104301.75564310023, -104261.07546819157, -104391.20732441037, -104309.4222914484, -0.002, 0.8240000000000001, 0.5720000000000001, 192.0, 0.0, 0.0, 0.0, 0.0, 0.0, 0.0, 0.0, 0.0, 0.0, 1.7307450629464304E9, 0.0, 2024-11-04 15:31:02.946
166.0, -104134.34107712998, -104201.73158666273, -104297.35234944253, -104322.72157939931, -104305.4660326798, -104264.78585777114, -104394.91771398994, -104313.15503277244, -0.002, 0.8240000000000001, 0.5720000000000001, 192.0, 0.0, 0.0, 0.0, 0.0, 0.0, 0.0, 0.0, 0.0, 0.0, 1.730745062950436E9, 0.0, 2024-11-04 15:31:02.950
167.0, -104137.827949265, -104205.15140356439, -104301.2192012333, -104326.67783816789, -104309.15407051494, -104268.47389560628, -104398.49399310279, -104316.84307060756, -0.002, 0.8240000000000001, 0.5720000000000001, 192.0, 0.0, 0.0, 0.0, 0.0, 0.0, 0.0, 0.0, 0.0, 0.0, 1.730745062954413E9, 0.0, 2024-11-04 15:31:02.954
168.0, -104140.55486208855, -104207.87831638794, -104303.99081754575, -104329.47180622481, -104311.99274206076, -104271.22316017428, -104401.26560941525, -104319.61468692002, 0.002, 0.8260000000000001, 0.5720000000000001, 192.0, 0.0, 16.0, 25.0, 208.0, 17.0, 224.0, 0.0, 0.0, 0.0, 1.7307450629586651E9, 0.0, 2024-11-04 15:31:02.958
169.0, -104145.02521097961, -104212.348665279, -104308.1705937589, -104333.60687894904, -104316.30662874063, -104275.60410208751, -104405.62419958404, -104323.90622185543, 0.002, 0.8260000000000001, 0.5720000000000001, 192.0, 0.0, 0.0, 0.0, 0.0, 0.0, 0.0, 0.0, 0.0, 0.0, 1.7307450629625127E9, 0.0, 2024-11-04 15:31:02.962
170.0, -104148.64619358137, -104216.01435136967, -104311.74687287175, -104337.0713993396, -104319.86055610902, -104279.13567771146, -104409.22283044134, -104327.54955620164, 0.002, 0.8260000000000001, 0.5720000000000001, 192.0, 0.0, 0.0, 0.0, 0.0, 0.0, 0.0, 0.0, 0.0, 0.0, 1.7307450629675045E9, 0.0, 2024-11-04 15:31:02.967
171.0, -104152.02130699412, -104219.36711303797, -104315.39020721796, -104340.96060287484, -104323.45918696633, -104282.7119568243, -104412.77675780974, -104331.14818705895, 0.002, 0.8260000000000001, 0.5720000000000001, 192.0, 0.0, 0.0, 0.0, 0.0, 0.0, 0.0, 0.0, 0.0, 0.0, 1.7307450629705117E9, 0.0, 2024-11-04 15:31:02.970
172.0, -104153.67533608382, -104221.08819736102, -104317.1783467744, -104342.81579766463, -104325.22497477829, -104284.54479986963, -104414.43078689944, -104332.84691963755, 0.002, 0.8260000000000001, 0.5720000000000001, 192.0, 0.0, 0.0, 0.0, 0.0, 0.0, 0.0, 0.0, 0.0, 0.0, 1.7307450629738343E9, 0.0, 2024-11-04 15:31:02.973
173.0, -104158.59271986398, -104226.09498811902, -104321.84986136555, -104347.42025702242, -104330.03059983619, -104289.23866620526, -104419.28111544623, -104337.630192951, 0.002, 0.8260000000000001, 0.5720000000000001, 192.0, 0.0, 0.0, 0.0, 0.0, 0.0, 0.0, 0.0, 0.0, 0.0, 1.7307450629785516E9, 0.0, 2024-11-04 15:31:02.978
174.0, -104161.31963268753, -104228.73249396474, -104324.33090500008, -104349.72248670131, -104332.55634695964, -104291.74206158424, -104421.94097303641, -104340.13358832999, 0.002, 0.8260000000000001, 0.5720000000000001, 192.0, 0.0, 0.0, 0.0, 0.0, 0.0, 0.0, 0.0, 0.0, 0.0, 1.7307450629824243E9, 0.0, 2024-11-04 15:31:02.982
175.0, -104163.95713853325, -104231.3029445771, -104327.34839050156, -104352.8293791806, -104335.43972199438, -104294.67014010789, -104424.71258934887, -104342.94990813136, 0.002, 0.8260000000000001, 0.5720000000000001, 192.0, 0.0, 0.0, 0.0, 0.0, 0.0, 0.0, 0.0, 0.0, 0.0, 1.7307450629865956E9, 0.0, 2024-11-04 15:31:02.986
176.0, -104166.840513568, -104234.16396786738, -104330.34352425857, -104356.02567863771, -104338.41250400693, -104297.62057037599, -104427.59596438361, -104345.8332831661, 0.002, 0.8260000000000001, 0.5720000000000001, 192.0, 0.0, 0.0, 0.0, 0.0, 0.0, 0.0, 0.0, 0.0, 0.0, 1.7307450629905033E9, 0.0, 2024-11-04 15:31:02.990
177.0, -104169.2321502247, -104236.62265975746, -104332.53399521518, -104358.10439087206, -104340.69238194136, -104299.90044831044, -104430.00995278478, -104348.24727156726, 0.002, 0.8260000000000001, 0.5720000000000001, 192.0, 0.0, 0.0, 0.0, 0.0, 0.0, 0.0, 0.0, 0.0, 0.0, 1.730745062994346E9, 0.0, 2024-11-04 15:31:02.994
178.0, -104173.32251946004, -104240.71302899279, -104336.46790223932, -104361.83713219609, -104344.60393722105, -104303.90141056794, -104433.98856329783, -104352.22588208031, -0.004, 0.8280000000000001, 0.5740000000000001, 192.0, 255.0, 224.0, 25.0, 224.0, 17.0, 240.0, 0.0, 0.0, 0.0, 1.7307450630040016E9, 0.0, 2024-11-04 15:31:03.004
179.0, -104177.81522009555, -104245.18337788385, -104341.16176857494, -104366.68746074289, -104349.32015530112, -104308.5729251591, -104438.5483191667, -104356.89739667147, -0.004, 0.8280000000000001, 0.5740000000000001, 192.0, 0.0, 0.0, 0.0, 0.0, 0.0, 0.0, 0.0, 0.0, 0.0, 1.7307450630042384E9, 0.0, 2024-11-04 15:31:03.004
180.0, -104180.340967219, -104247.66442151838, -104344.00044012076, -104369.54848403318, -104351.9800128913, -104311.16572751591, -104441.23052850134, -104359.60195775056, -0.004, 0.8280000000000001, 0.5740000000000001, 192.0, 0.0, 0.0, 0.0, 0.0, 0.0, 0.0, 0.0, 0.0, 0.0, 1.7307450630055902E9, 0.0, 2024-11-04 15:31:03.005
181.0, -104183.51491493166, -104250.9054244644, -104347.0849808556, -104372.52126604573, -104355.01985013722, -104314.2726199952, -104444.42682795845, -104362.64179499648, -0.004, 0.8280000000000001, 0.5740000000000001, 192.0, 0.0, 0.0, 0.0, 0.0, 0.0, 0.0, 0.0, 0.0, 0.0, 1.730745063010527E9, 0.0, 2024-11-04 15:31:03.010
182.0, -104188.00761556717, -104255.46518033328, -104351.3318123021, -104376.70104225886, -104359.49019902828, -104318.74296888626, -104448.89717684951, -104367.02273690973, -0.004, 0.8280000000000001, 0.5740000000000001, 192.0, 0.0, 0.0, 0.0, 0.0, 0.0, 0.0, 0.0, 0.0, 0.0, 1.7307450630154335E9, 0.0, 2024-11-04 15:31:03.015
183.0, -104190.82393536853, -104258.16974141238, -104354.21518733683, -104379.56206554915, -104362.28416708519, -104321.64869566546, -104451.69114490642, -104369.90611194445, -0.004, 0.8280000000000001, 0.5740000000000001, 192.0, 0.0, 0.0, 0.0, 0.0, 0.0, 0.0, 0.0, 0.0, 0.0, 1.7307450630193996E9, 0.0, 2024-11-04 15:31:03.019
184.0, -104195.04841507059, -104262.46127634779, -104358.90905367244, -104384.36769060705, -104366.77686772072, -104326.11904455652, -104456.09443856412, -104374.37646083551, -0.004, 0.8280000000000001, 0.5740000000000001, 192.0, 0.0, 0.0, 0.0, 0.0, 0.0, 0.0, 0.0, 0.0, 0.0, 1.730745063022444E9, 0.0, 2024-11-04 15:31:03.022
185.0, -104195.89778135989, -104263.355346126, -104359.64666123947, -104384.9935394518, -104367.53682703219, -104326.87900386799, -104456.96615659787, -104375.11406840254, -0.004, 0.8280000000000001, 0.5740000000000001, 192.0, 0.0, 0.0, 0.0, 0.0, 0.0, 0.0, 0.0, 0.0, 0.0, 1.7307450630266106E9, 0.0, 2024-11-04 15:31:03.026
186.0, -104200.23401978423, -104267.60217757252, -104363.62527175252, -104388.8380394981, -104371.62719626751, -104330.9246696144, -104461.19063629993, -104379.20443763786, -0.004, 0.8280000000000001, 0.5740000000000001, 192.0, 0.0, 0.0, 0.0, 0.0, 0.0, 0.0, 0.0, 0.0, 0.0, 1.7307450630296302E9, 0.0, 2024-11-04 15:31:03.029
187.0, -104206.11252857596, -104273.36892764199, -104369.39202182199, -104394.64949305648, -104377.52805680371, -104336.8255301506, -104466.80092415822, -104385.01589119625, -0.004, 0.8280000000000001, 0.5740000000000001, 192.0, 0.0, 0.0, 0.0, 0.0, 0.0, 0.0, 0.0, 0.0, 0.0, 1.7307450630336304E9, 0.0, 2024-11-04 15:31:03.033
188.0, -104209.8452699, -104277.07931722156, -104373.46003931285, -104398.9410279919, -104381.57372255012, -104340.75943717474, -104470.71247943789, -104389.0392051982, -0.002, 0.8220000000000001, 0.5760000000000001, 192.0, 255.0, 240.0, 25.0, 176.0, 18.0, 0.0, 0.0, 0.0, 0.0, 1.7307450630397117E9, 0.0, 2024-11-04 15:31:03.039
189.0, -104213.93563913532, -104281.370852157, -104377.59511203709, -104403.07610071613, -104385.59703655208, -104344.91686164342, -104474.93695913994, -104393.15192617798, -0.002, 0.8220000000000001, 0.5760000000000001, 192.0, 0.0, 0.0, 0.0, 0.0, 0.0, 0.0, 0.0, 0.0, 0.0, 1.7307450630425916E9, 0.0, 2024-11-04 15:31:03.042
190.0, -104217.26604905917, -104284.7683173142, -104380.67965277191, -104406.07123447314, -104388.7933360092, -104348.02375412271, -104478.17796208596, -104396.30352214618, -0.002, 0.8220000000000001, 0.5760000000000001, 192.0, 0.0, 0.0, 0.0, 0.0, 0.0, 0.0, 0.0, 0.0, 0.0, 1.7307450630465393E9, 0.0, 2024-11-04 15:31:03.046
191.0, -104219.85885141598, -104287.29406443764, -104383.22775163982, -104408.55227810769, -104391.3414348771, -104350.61655647952, -104480.79311618724, -104398.91867624744, -0.002, 0.8220000000000001, 0.5760000000000001, 192.0, 0.0, 0.0, 0.0, 0.0, 0.0, 0.0, 0.0, 0.0, 0.0, 1.7307450630505807E9, 0.0, 2024-11-04 15:31:03.050
192.0, -104221.17760433884, -104288.52341038268, -104385.01589119625, -104410.2957141752, -104392.88370524452, -104352.20353033586, -104482.13422085455, -104400.4385948704, -0.002, 0.8220000000000001, 0.5760000000000001, 192.0, 0.0, 0.0, 0.0, 0.0, 0.0, 0.0, 0.0, 0.0, 0.0, 1.7307450630545135E9, 0.0, 2024-11-04 15:31:03.054
193.0, -104226.45261603029, -104293.93253254087, -104390.33560637661, -104415.63778110001, -104398.22577216933, -104357.41148679394, -104487.45393603492, -104405.71360656185, -0.002, 0.8220000000000001, 0.5760000000000001, 192.0, 0.0, 0.0, 0.0, 0.0, 0.0, 0.0, 0.0, 0.0, 0.0, 1.730745063057636E9, 0.0, 2024-11-04 15:31:03.057
194.0, -104229.02306664265, -104296.52533489768, -104392.63783605551, -104417.89530729, -104400.57270533714, -104359.80312345066, -104489.95733141391, -104408.12759496304, -0.002, 0.8220000000000001, 0.5760000000000001, 192.0, 0.0, 0.0, 0.0, 0.0, 0.0, 0.0, 0.0, 0.0, 0.0, 1.7307450630614972E9, 0.0, 2024-11-04 15:31:03.061
195.0, -104231.59351725502, -104299.00637853223, -104395.02947271222, -104420.26459220226, -104403.1431559495, -104362.35122231857, -104492.43837504846, -104410.78745255321, -0.002, 0.8220000000000001, 0.5760000000000001, 192.0, 0.0, 0.0, 0.0, 0.0, 0.0, 0.0, 0.0, 0.0, 0.0, 1.7307450630667365E9, 0.0, 2024-11-04 15:31:03.066
196.0, -104235.1027411345, -104302.49325066725, -104398.89632450299, -104424.31025794867, -104406.87589727354, -104366.12866713152, -104496.05935765021, -104414.43078689944, -0.002, 0.8220000000000001, 0.5760000000000001, 192.0, 0.0, 0.0, 0.0, 0.0, 0.0, 0.0, 0.0, 0.0, 0.0, 1.730745063070582E9, 0.0, 2024-11-04 15:31:03.070
197.0, -104241.0036016707, -104308.43881469236, -104405.02070248374, -104430.32287720716, -104412.7991095542, -104372.05187941216, -104502.09432865314, -104420.33164743563, -0.002, 0.8220000000000001, 0.5760000000000001, 192.0, 0.0, 0.0, 0.0, 0.0, 0.0, 0.0, 0.0, 0.0, 0.0, 1.7307450630746057E9, 0.0, 2024-11-04 15:31:03.074
198.0, -104245.27278486166, -104312.68564613887, -104409.02166474125, -104434.25678423129, -104416.8447753006, -104376.14224864749, -104506.27410486629, -104424.42201667096, -0.002, 0.8240000000000001, 0.5740000000000001, 192.0, 255.0, 240.0, 25.0, 192.0, 17.0, 240.0, 0.0, 0.0, 0.0, 1.7307450630787022E9, 0.0, 2024-11-04 15:31:03.078
199.0, -104249.34080235253, -104316.64190490746, -104412.82146129865, -104438.03422904423, -104420.89044104701, -104380.143210905, -104510.3197706127, -104428.40062718399, -0.002, 0.8240000000000001, 0.5740000000000001, 192.0, 0.0, 0.0, 0.0, 0.0, 0.0, 0.0, 0.0, 0.0, 0.0, 1.7307450630825257E9, 0.0, 2024-11-04 15:31:03.082
200.0, -104251.59832854252, -104318.83237586408, -104415.36956016655, -104440.67173488995, -104423.46089165937, -104382.57955105061, -104512.6667037805, -104430.76991209626, -0.002, 0.8240000000000001, 0.5740000000000001, 192.0, 0.0, 0.0, 0.0, 0.0, 0.0, 0.0, 0.0, 0.0, 0.0, 1.73074506308571E9, 0.0, 2024-11-04 15:31:03.085
201.0, -104254.32524136607, -104321.71575089882, -104418.31999043465, -104443.8009791137, -104426.23250797183, -104385.46292608535, -104515.6171340486, -104433.67563887544, -0.002, 0.8240000000000001, 0.5740000000000001, 192.0, 0.0, 0.0, 0.0, 0.0, 0.0, 0.0, 0.0, 0.0, 0.0, 1.7307450630896468E9, 0.0, 2024-11-04 15:31:03.089
202.0, -104256.06867743358, -104323.52624219969, -104419.7952055687, -104445.20913901439, -104427.77477833924, -104387.09460343058, -104517.36057011611, -104435.32966796514, -0.002, 0.8240000000000001, 0.5740000000000001, 192.0, 0.0, 0.0, 0.0, 0.0, 0.0, 0.0, 0.0, 0.0, 0.0, 1.7307450630945437E9, 0.0, 2024-11-04 15:31:03.094
203.0, -104258.86264549049, -104326.27550676769, -104422.38800792552, -104447.57842392665, -104430.45698767388, -104389.70975753186, -104520.04277945076, -104437.9448220664, -0.002, 0.8240000000000001, 0.5740000000000001, 192.0, 0.0, 0.0, 0.0, 0.0, 0.0, 0.0, 0.0, 0.0, 0.0, 1.7307450630988517E9, 0.0, 2024-11-04 15:31:03.098
204.0, -104263.82473275957, -104331.05878008113, -104427.55126089469, -104452.76402864027, -104435.55318540969, -104394.73890003431, -104524.93781148647, -104442.97396456885, -0.002, 0.8240000000000001, 0.5740000000000001, 192.0, 0.0, 0.0, 0.0, 0.0, 0.0, 0.0, 0.0, 0.0, 0.0, 1.7307450631026807E9, 0.0, 2024-11-04 15:31:03.102
205.0, -104268.4068403729, -104335.64088769448, -104432.37923769704, -104457.79317114272, -104440.22470000085, -104399.41041462547, -104529.56462258872, -104447.6007756711, -0.002, 0.8240000000000001, 0.5740000000000001, 192.0, 0.0, 0.0, 0.0, 0.0, 0.0, 0.0, 0.0, 0.0, 0.0, 1.73074506310554E9, 0.0, 2024-11-04 15:31:03.105
206.0, -104272.98894798625, -104340.33475403009, -104436.87193833255, -104462.21881654488, -104444.71740063636, -104404.0372257277, -104534.16908194651, -104452.24993851781, -0.002, 0.8240000000000001, 0.5740000000000001, 192.0, 0.0, 0.0, 0.0, 0.0, 0.0, 0.0, 0.0, 0.0, 0.0, 1.730745063109732E9, 0.0, 2024-11-04 15:31:03.109
207.0, -104275.13471545395, -104342.5252249867, -104438.81654010018, -104464.07401133467, -104446.81846461516, -104406.02653098424, -104536.2254424364, -104454.32865075216, -0.002, 0.8240000000000001, 0.5740000000000001, 192.0, 0.0, 0.0, 0.0, 0.0, 0.0, 0.0, 0.0, 0.0, 0.0, 1.7307450631135204E9, 0.0, 2024-11-04 15:31:03.113
208.0, -104278.53218061116, -104345.69917269936, -104442.28106049074, -104467.42677300297, -104450.17122628346, -104409.37929265253, -104539.53350061578, -104457.63670893153, -0.002, 0.8240000000000001, 0.5740000000000001, 192.0, 0.0, 0.0, 25.0, 240.0, 17.0, 224.0, 0.0, 0.0, 0.0, 1.7307450631175325E9, 0.0, 2024-11-04 15:31:03.117
209.0, -104280.87911377897, -104348.135512845, -104445.03032505875, -104470.3101480377, -104452.71932515137, -104411.86033628706, -104542.05924773923, -104460.22951128836, -0.002, 0.8240000000000001, 0.5740000000000001, 192.0, 0.0, 0.0, 0.0, 0.0, 0.0, 0.0, 0.0, 0.0, 0.0, 1.7307450631225972E9, 0.0, 2024-11-04 15:31:03.122
210.0, -104282.04140449065, -104349.4319140234, -104446.08085704815, -104471.31597653819, -104453.79220888522, -104413.08968223211, -104543.2215384509, -104461.45885723339, -0.002, 0.8240000000000001, 0.5740000000000001, 192.0, 0.0, 0.0, 0.0, 0.0, 0.0, 0.0, 0.0, 0.0, 0.0, 1.7307450631266503E9, 0.0, 2024-11-04 15:31:03.126
211.0, -104285.30475918112, -104352.7846756917, -104449.0089355718, -104474.154648084, -104456.83204613115, -104416.1965747114, -104546.3731344191, -104464.47634273487, -0.002, 0.8240000000000001, 0.5740000000000001, 192.0, 0.0, 0.0, 0.0, 0.0, 0.0, 0.0, 0.0, 0.0, 0.0, 1.7307450631307416E9, 0.0, 2024-11-04 15:31:03.130
212.0, -104291.36208192851, -104358.55142576116, -104455.06625831917, -104480.2566743203, -104462.91172062299, -104422.14213873651, -104552.34105018867, -104470.39955501552, -0.002, 0.8240000000000001, 0.5740000000000001, 192.0, 0.0, 0.0, 0.0, 0.0, 0.0, 0.0, 0.0, 0.0, 0.0, 1.7307450631336563E9, 0.0, 2024-11-04 15:31:03.133
213.0, -104295.60891337502, -104362.88766418549, -104459.78247639925, -104485.08465112266, -104467.53853172524, -104426.65719111648, -104556.85610256865, -104475.0040143733, -0.002, 0.8240000000000001, 0.5740000000000001, 192.0, 0.0, 0.0, 0.0, 0.0, 0.0, 0.0, 0.0, 0.0, 0.0, 1.7307450631376352E9, 0.0, 2024-11-04 15:31:03.137
214.0, -104299.14048899895, -104366.55335027617, -104463.35875551209, -104488.50446802432, -104470.86894164908, -104430.12171150706, -104560.27591947031, -104478.5132382528, -0.002, 0.8240000000000001, 0.5740000000000001, 192.0, 0.0, 0.0, 0.0, 0.0, 0.0, 0.0, 0.0, 0.0, 0.0, 1.7307450631416836E9, 0.0, 2024-11-04 15:31:03.141
215.0, -104303.05204427864, -104370.39785032248, -104466.89033113603, -104491.96898841488, -104474.5569794842, -104433.67563887544, -104564.00866079434, -104482.04481387674, -0.002, 0.8240000000000001, 0.5740000000000001, 192.0, 0.0, 0.0, 0.0, 0.0, 0.0, 0.0, 0.0, 0.0, 0.0, 1.730745063145655E9, 0.0, 2024-11-04 15:31:03.145
216.0, -104306.29304722465, -104373.57179803513, -104470.04192710423, -104495.09823263863, -104477.86503766359, -104437.0507522882, -104567.24966374037, -104485.24111333385, -0.002, 0.8240000000000001, 0.5740000000000001, 192.0, 0.0, 0.0, 0.0, 0.0, 0.0, 0.0, 0.0, 0.0, 0.0, 1.7307450631507137E9, 0.0, 2024-11-04 15:31:03.150
217.0, -104308.90820132592, -104376.14224864749, -104472.99235737234, -104498.20512511792, -104480.6590057205, -104439.91177557848, -104569.931873075, -104488.05743313521, -0.002, 0.8240000000000001, 0.5740000000000001, 192.0, 0.0, 0.0, 0.0, 0.0, 0.0, 0.0, 0.0, 0.0, 0.0, 1.7307450631545942E9, 0.0, 2024-11-04 15:31:03.154
218.0, -104311.00926530472, -104378.4891818153, -104475.2051800734, -104500.48500305237, -104482.87182842159, -104442.07989479064, -104572.16704752053, -104490.35966281411, -0.004, 0.8300000000000001, 0.5700000000000001, 192.0, 255.0, 224.0, 25.0, 240.0, 17.0, 208.0, 0.0, 0.0, 0.0, 1.7307450631588852E9, 0.0, 2024-11-04 15:31:03.158
219.0, -104314.04910255065, -104381.4396120834, -104477.95444464141, -104502.98839843135, -104485.59874124512, -104444.87386284755, -104575.11747778863, -104493.19833435993, -0.004, 0.8300000000000001, 0.5700000000000001, 192.0, 0.0, 0.0, 0.0, 0.0, 0.0, 0.0, 0.0, 0.0, 0.0, 1.7307450631618717E9, 0.0, 2024-11-04 15:31:03.161
220.0, -104318.09476829706, -104385.41822259645, -104481.82129643219, -104506.78819498875, -104489.62205524708, -104448.78541812724, -104579.07373655723, -104497.13224138407, -0.004, 0.8300000000000001, 0.5700000000000001, 192.0, 0.0, 0.0, 0.0, 0.0, 0.0, 0.0, 0.0, 0.0, 0.0, 1.7307450631656325E9, 0.0, 2024-11-04 15:31:03.165
221.0, -104322.29689625466, -104389.57564706512, -104486.3139970677, -104511.48206132438, -104494.1147558826, -104453.2557670183, -104583.45467847046, -104501.60259027513, -0.004, 0.8300000000000001, 0.5700000000000001, 192.0, 0.0, 0.0, 0.0, 0.0, 0.0, 0.0, 0.0, 0.0, 0.0, 1.730745063169735E9, 0.0, 2024-11-04 15:31:03.169
222.0, -104325.96258234532, -104393.39779536698, -104490.18084885846, -104515.43832009296, -104497.84749720663, -104457.03321183125, -104587.25447502786, -104505.40238683253, -0.004, 0.8300000000000001, 0.5700000000000001, 192.0, 0.0, 0.0, 0.0, 0.0, 0.0, 0.0, 0.0, 0.0, 0.0, 1.7307450631736405E9, 0.0, 2024-11-04 15:31:03.173
223.0, -104330.00824809173, -104397.51051634677, -104494.09240413814, -104519.19341316145, -104501.78140423077, -104460.96711885538, -104591.30014077427, -104509.3139421122, -0.004, 0.8300000000000001, 0.5700000000000001, 192.0, 0.0, 0.0, 0.0, 0.0, 0.0, 0.0, 0.0, 0.0, 0.0, 1.730745063177701E9, 0.0, 2024-11-04 15:31:03.177
224.0, -104335.41737024992, -104402.87493501604, -104499.23330536287, -104524.17785217498, -104507.05641592223, -104466.30918578019, -104596.57515246572, -104514.5666020592, -0.004, 0.8300000000000001, 0.5700000000000001, 192.0, 0.0, 0.0, 0.0, 0.0, 0.0, 0.0, 0.0, 0.0, 0.0, 1.7307450631826272E9, 0.0, 2024-11-04 15:31:03.182
225.0, -104338.9265941294, -104406.27240017324, -104503.03310192027, -104528.17881443248, -104510.72210201289, -104469.97487187087, -104600.10672808967, -104518.14288117205, -0.004, 0.8300000000000001, 0.5700000000000001, 192.0, 0.0, 0.0, 0.0, 0.0, 0.0, 0.0, 0.0, 0.0, 0.0, 1.7307450631865976E9, 0.0, 2024-11-04 15:31:03.186
226.0, -104341.78761741969, -104409.11107171906, -104506.1176426551, -104531.33041040068, -104513.65018053654, -104472.83589516114, -104603.10186184668, -104521.09331144016, -0.004, 0.8300000000000001, 0.5700000000000001, 192.0, 0.0, 0.0, 0.0, 0.0, 0.0, 0.0, 0.0, 0.0, 0.0, 1.7307450631896791E9, 0.0, 2024-11-04 15:31:03.189
227.0, -104344.93921338789, -104412.37442640954, -104509.0680729232, -104534.23613717988, -104516.667666038, -104475.89808415153, -104606.25345781488, -104524.2225556639, -0.004, 0.8300000000000001, 0.5700000000000001, 192.0, 0.0, 0.0, 0.0, 0.0, 0.0, 0.0, 0.0, 0.0, 0.0, 1.7307450631939251E9, 0.0, 2024-11-04 15:31:03.193
228.0, -104351.01888787972, -104418.61056311257, -104514.99128520385, -104540.04759073825, -104522.7249887854, -104482.02246213228, -104612.2884288178, -104530.27987841128, -0.008, 0.8280000000000001, 0.5720000000000001, 192.0, 255.0, 192.0, 25.0, 224.0, 17.0, 224.0, 0.0, 0.0, 0.0, 1.7307450631975749E9, 0.0, 2024-11-04 15:31:03.197
229.0, -104353.79050419218, -104421.29277244721, -104518.0758259387, -104543.10977972863, -104525.7201225424, -104484.95054065592, -104615.194155597, -104533.18560519048, -0.008, 0.8280000000000001, 0.5720000000000001, 192.0, 0.0, 0.0, 0.0, 0.0, 0.0, 0.0, 0.0, 0.0, 0.0, 1.730745063201857E9, 0.0, 2024-11-04 15:31:03.201
230.0, -104354.43870478138, -104421.87391780305, -104518.94754397245, -104544.04855299575, -104526.45773010943, -104485.6657964785, -104615.86470793065, -104533.99026799087, -0.008, 0.8280000000000001, 0.5720000000000001, 192.0, 0.0, 0.0, 0.0, 0.0, 0.0, 0.0, 0.0, 0.0, 0.0, 1.7307450632057948E9, 0.0, 2024-11-04 15:31:03.205
231.0, -104359.22197809482, -104426.72424634986, -104523.59670681915, -104548.65301235355, -104531.12924470058, -104490.35966281411, -104620.73738822191, -104538.70648607094, -0.008, 0.8280000000000001, 0.5720000000000001, 192.0, 0.0, 0.0, 0.0, 0.0, 0.0, 0.0, 0.0, 0.0, 0.0, 1.730745063210731E9, 0.0, 2024-11-04 15:31:03.210
232.0, -104363.06647814113, -104430.50169116279, -104527.01652372081, -104551.96107053294, -104534.75022730234, -104493.93594192696, -104624.40307431258, -104542.30511692824, -0.008, 0.8280000000000001, 0.5720000000000001, 192.0, 0.0, 0.0, 0.0, 0.0, 0.0, 0.0, 0.0, 0.0, 0.0, 1.7307450632139776E9, 0.0, 2024-11-04 15:31:03.213
233.0, -104365.97220492033, -104433.36271445308, -104530.14576794456, -104555.02325952331, -104537.87947152609, -104496.95342742842, -104627.37585632515, -104545.3226024297, -0.008, 0.8280000000000001, 0.5720000000000001, 192.0, 0.0, 0.0, 0.0, 0.0, 0.0, 0.0, 0.0, 0.0, 0.0, 1.7307450632176158E9, 0.0, 2024-11-04 15:31:03.217
234.0, -104368.25208285477, -104435.5978888986, -104532.73857030137, -104557.83957932467, -104540.31581167172, -104499.50152629633, -104629.72278949295, -104547.80364606425, -0.008, 0.8280000000000001, 0.5720000000000001, 192.0, 0.0, 0.0, 0.0, 0.0, 0.0, 0.0, 0.0, 0.0, 0.0, 1.7307450632217872E9, 0.0, 2024-11-04 15:31:03.221
235.0, -104372.96830093484, -104440.4482174454, -104537.47714012589, -104562.46639042693, -104544.98732626288, -104504.19539263194, -104634.48371106193, -104552.54221588877, -0.008, 0.8280000000000001, 0.5720000000000001, 192.0, 0.0, 0.0, 0.0, 0.0, 0.0, 0.0, 0.0, 0.0, 0.0, 1.730745063225803E9, 0.0, 2024-11-04 15:31:03.225
236.0, -104378.13155390401, -104445.61147041459, -104542.48393088389, -104567.24966374037, -104549.97176527641, -104509.20218338993, -104639.55755705328, -104557.4819514134, -0.008, 0.8280000000000001, 0.5720000000000001, 192.0, 0.0, 0.0, 0.0, 0.0, 0.0, 0.0, 0.0, 0.0, 0.0, 1.7307450632297733E9, 0.0, 2024-11-04 15:31:03.229
237.0, -104382.06546092815, -104449.41126697199, -104546.39548616356, -104571.07181204222, -104553.99507927836, -104513.18079390298, -104643.46911233295, -104561.43821018198, -0.008, 0.8280000000000001, 0.5720000000000001, 192.0, 0.0, 0.0, 0.0, 0.0, 0.0, 0.0, 0.0, 0.0, 0.0, 1.730745063233778E9, 0.0, 2024-11-04 15:31:03.233
238.0, -104384.3900423515, -104451.69114490642, -104549.05534375375, -104573.88813184359, -104556.49847465736, -104515.5724305597, -104645.88310073414, -104564.00866079434, -0.006, 0.8280000000000001, 0.5760000000000001, 192.0, 255.0, 208.0, 25.0, 224.0, 18.0, 0.0, 0.0, 0.0, 0.0, 1.7307450632388077E9, 0.0, 2024-11-04 15:31:03.238
239.0, -104387.58634180861, -104455.04390657472, -104552.2739949553, -104577.17383827853, -104559.69477411447, -104518.74637827235, -104649.16880716906, -104567.18260850699, -0.006, 0.8280000000000001, 0.5760000000000001, 192.0, 0.0, 0.0, 0.0, 0.0, 0.0, 0.0, 0.0, 0.0, 0.0, 1.7307450632418373E9, 0.0, 2024-11-04 15:31:03.241
240.0, -104390.20149590987, -104457.70376416491, -104554.5762246342, -104579.4313644685, -104562.15346600456, -104521.24977365135, -104651.69455429251, -104569.64130039708, -0.006, 0.8280000000000001, 0.5760000000000001, 192.0, 0.0, 0.0, 0.0, 0.0, 0.0, 0.0, 0.0, 0.0, 0.0, 1.730745063245746E9, 0.0, 2024-11-04 15:31:03.245
241.0, -104394.71654828984, -104462.15176131151, -104558.9795182919, -104583.76760289284, -104566.62381489562, -104525.74247428686, -104656.14255143912, -104574.1787045215, -0.006, 0.8280000000000001, 0.5760000000000001, 192.0, 0.0, 0.0, 0.0, 0.0, 0.0, 0.0, 0.0, 0.0, 0.0, 1.730745063249672E9, 0.0, 2024-11-04 15:31:03.249
242.0, -104399.63393207002, -104466.9573863694, -104564.29923347227, -104589.15437330656, -104571.72001263143, -104530.77161678931, -104661.1046387082, -104579.25255051286, -0.006, 0.8280000000000001, 0.5760000000000001, 192.0, 0.0, 0.0, 0.0, 0.0, 0.0, 0.0, 0.0, 0.0, 0.0, 1.7307450632536876E9, 0.0, 2024-11-04 15:31:03.253
243.0, -104401.06444371515, -104468.56671197018, -104565.95326256196, -104590.80840239626, -104573.30698648775, -104532.33623890117, -104662.71396430898, -104580.72776564691, -0.006, 0.8280000000000001, 0.5760000000000001, 192.0, 0.0, 0.0, 0.0, 0.0, 0.0, 0.0, 0.0, 0.0, 0.0, 1.7307450632579205E9, 0.0, 2024-11-04 15:31:03.257
244.0, -104404.05957747217, -104471.56184572719, -104568.65782364104, -104593.44590824198, -104575.96684407794, -104535.21961393591, -104665.64204283262, -104583.56643719274, -0.006, 0.8280000000000001, 0.5760000000000001, 192.0, 0.0, 0.0, 0.0, 0.0, 0.0, 0.0, 0.0, 0.0, 0.0, 1.730745063261974E9, 0.0, 2024-11-04 15:31:03.261
245.0, -104407.65820832948, -104475.1604765845, -104571.98823356489, -104596.70926293246, -104579.4313644685, -104538.63943083757, -104669.10656322319, -104587.09801281667, -0.006, 0.8280000000000001, 0.5760000000000001, 192.0, 0.0, 0.0, 0.0, 0.0, 0.0, 0.0, 0.0, 0.0, 0.0, 1.7307450632668595E9, 0.0, 2024-11-04 15:31:03.266
246.0, -104412.70970257637, -104480.14491559804, -104577.35265223416, -104602.27484730183, -104584.75107964886, -104543.95914601794, -104674.29216793683, -104592.26126578586, -0.006, 0.8280000000000001, 0.5760000000000001, 192.0, 0.0, 0.0, 0.0, 0.0, 0.0, 0.0, 0.0, 0.0, 0.0, 1.7307450632698956E9, 0.0, 2024-11-04 15:31:03.269
247.0, -104416.04011250021, -104483.69884296642, -104581.04069006929, -104605.98523688142, -104588.32735876172, -104547.6248321086, -104677.89079879413, -104595.81519315425, -0.006, 0.8280000000000001, 0.5760000000000001, 192.0, 0.0, 0.0, 0.0, 0.0, 0.0, 0.0, 0.0, 0.0, 0.0, 1.7307450632740614E9, 0.0, 2024-11-04 15:31:03.274
248.0, -104419.83990905761, -104487.52099126828, -104584.6393209266, -104609.38270203862, -104591.92598961902, -104551.20111122145, -104681.60118837371, -104599.48087924492, -0.004, 0.8300000000000001, 0.578, 192.0, 255.0, 224.0, 25.0, 240.0, 18.0, 16.0, 0.0, 0.0, 0.0, 1.730745063277856E9, 0.0, 2024-11-04 15:31:03.277
249.0, -104423.81851957066, -104491.41019480351, -104588.30500701726, -104613.04838812929, -104595.8375448987, -104555.02325952331, -104685.42333667557, -104603.34773103568, -0.004, 0.8300000000000001, 0.578, 192.0, 0.0, 0.0, 0.0, 0.0, 0.0, 0.0, 0.0, 0.0, 0.0, 1.7307450632820096E9, 0.0, 2024-11-04 15:31:03.282
250.0, -104425.65136261599, -104493.04187214875, -104590.38371925161, -104615.26121083036, -104597.82685015522, -104557.01256477983, -104687.211476232, -104605.33703629221, -0.004, 0.8300000000000001, 0.578, 192.0, 0.0, 0.0, 0.0, 0.0, 0.0, 0.0, 0.0, 0.0, 0.0, 1.7307450632858255E9, 0.0, 2024-11-04 15:31:03.285
251.0, -104428.62414462854, -104496.10406113912, -104593.62472219762, -104618.5469172653, -104600.93374263452, -104560.00769853685, -104690.3630722002, -104608.42157702704, -0.004, 0.8300000000000001, 0.578, 192.0, 0.0, 0.0, 0.0, 0.0, 0.0, 0.0, 0.0, 0.0, 0.0, 1.730745063289847E9, 0.0, 2024-11-04 15:31:03.289
252.0, -104430.63580162953, -104498.18277337347, -104595.43521349851, -104620.31270507726, -104602.76658567984, -104561.88524507108, -104692.37472920117, -104610.27677181683, -0.004, 0.8300000000000001, 0.578, 192.0, 0.0, 0.0, 0.0, 0.0, 0.0, 0.0, 0.0, 0.0, 0.0, 1.7307450632948053E9, 0.0, 2024-11-04 15:31:03.294
253.0, -104433.58623189763, -104501.11085189712, -104598.16212632206, -104622.83845220071, -104605.51585024784, -104564.74626836137, -104695.14634551363, -104613.02603638484, -0.004, 0.8300000000000001, 0.578, 192.0, 0.0, 0.0, 0.0, 0.0, 0.0, 0.0, 0.0, 0.0, 0.0, 1.7307450632977576E9, 0.0, 2024-11-04 15:31:03.297
254.0, -104438.63772614453, -104505.9611804439, -104603.37008278014, -104628.09111214771, -104610.67910321703, -104569.88716958609, -104700.19783976053, -104618.30104807629, -0.004, 0.8300000000000001, 0.578, 192.0, 0.0, 0.0, 0.0, 0.0, 0.0, 0.0, 0.0, 0.0, 0.0, 1.7307450633007553E9, 0.0, 2024-11-04 15:31:03.300
255.0, -104443.26453724678, -104510.61034329061, -104608.42157702704, -104633.20966162797, -104615.48472827491, -104574.7822016218, -104705.11522354069, -104623.10667313417, -0.004, 0.8300000000000001, 0.578, 192.0, 0.0, 0.0, 0.0, 0.0, 0.0, 0.0, 0.0, 0.0, 0.0, 1.7307450633059852E9, 0.0, 2024-11-04 15:31:03.305
0.0, -104444.53858668073, -104511.97379970239, -104609.49446076089, -104634.30489710628, -104616.71407421996, -104575.89978884457, -104706.34456948574, -104624.29131559031, -0.004, 0.8300000000000001, 0.578, 192.0, 0.0, 0.0, 0.0, 0.0, 0.0, 0.0, 0.0, 0.0, 0.0, 1.7307450633098924E9, 0.0, 2024-11-04 15:31:03.309
1.0, -104446.88551984854, -104514.29838112574, -104611.52846950633, -104636.24949887389, -104618.88219343212, -104578.20201852346, -104708.55739218682, -104626.41473131356, -0.004, 0.8300000000000001, 0.578, 192.0, 0.0, 0.0, 0.0, 0.0, 0.0, 0.0, 0.0, 0.0, 0.0, 1.73074506331383E9, 0.0, 2024-11-04 15:31:03.313
2.0, -104449.5006739498, -104516.8688317381, -104614.1883270965, -104638.84230123072, -104621.5420510223, -104580.83952436919, -104711.0607875658, -104629.00753367037, -0.006, 0.8280000000000001, 0.5760000000000001, 192.0, 255.0, 208.0, 25.0, 224.0, 18.0, 0.0, 0.0, 0.0, 0.0, 1.7307450633178284E9, 0.0, 2024-11-04 15:31:03.317
3.0, -104454.0604298187, -104521.36153237362, -104619.10571087667, -104643.87144373315, -104626.30297259128, -104585.4886872159, -104715.75465390143, -104633.72375175044, -0.006, 0.8280000000000001, 0.5760000000000001, 192.0, 0.0, 0.0, 0.0, 0.0, 0.0, 0.0, 0.0, 0.0, 0.0, 1.7307450633227615E9, 0.0, 2024-11-04 15:31:03.322
4.0, -104456.89910136451, -104524.35666613062, -104621.8996789336, -104646.66541179008, -104629.0969406482, -104588.30500701726, -104718.70508416953, -104636.65183027409, -0.006, 0.8280000000000001, 0.5760000000000001, 192.0, 0.0, 0.0, 0.0, 0.0, 0.0, 0.0, 0.0, 0.0, 0.0, 1.7307450633258572E9, 0.0, 2024-11-04 15:31:03.325
5.0, -104461.48120897786, -104528.96112548842, -104626.16886212456, -104650.8004845143, -104633.54493779481, -104592.82005939723, -104723.19778480504, -104641.05512393179, -0.006, 0.8280000000000001, 0.5760000000000001, 192.0, 0.0, 0.0, 0.0, 0.0, 0.0, 0.0, 0.0, 0.0, 0.0, 1.7307450633298476E9, 0.0, 2024-11-04 15:31:03.329
6.0, -104464.27517703477, -104531.71039005643, -104628.91812669256, -104653.57210082676, -104636.36125759617, -104595.68108268752, -104726.05880809532, -104643.80438849979, -0.006, 0.8280000000000001, 0.5760000000000001, 192.0, 0.0, 0.0, 0.0, 0.0, 0.0, 0.0, 0.0, 0.0, 0.0, 1.7307450633342009E9, 0.0, 2024-11-04 15:31:03.334
7.0, -104466.01861310228, -104533.40912263503, -104631.06389416027, -104655.89668225011, -104638.30585936378, -104597.58098096622, -104727.8692993962, -104645.86074898968, -0.006, 0.8280000000000001, 0.5760000000000001, 192.0, 0.0, 0.0, 0.0, 0.0, 0.0, 0.0, 0.0, 0.0, 0.0, 1.730745063337832E9, 0.0, 2024-11-04 15:31:03.337
8.0, -104470.62307246008, -104538.14769245955, -104635.82481572924, -104660.56819684127, -104643.06678093277, -104602.16308857956, -104732.60786922072, -104650.50991183639, -0.006, 0.8280000000000001, 0.5760000000000001, 192.0, 0.0, 0.0, 0.0, 0.0, 0.0, 0.0, 0.0, 0.0, 0.0, 1.7307450633419323E9, 0.0, 2024-11-04 15:31:03.341
9.0, -104474.19935157293, -104541.7239715724, -104639.13287390863, -104663.71979280947, -104646.3971908566, -104605.64996071458, -104736.11709310021, -104653.92972873805, -0.006, 0.8280000000000001, 0.5760000000000001, 192.0, 0.0, 0.0, 0.0, 0.0, 0.0, 0.0, 0.0, 0.0, 0.0, 1.7307450633460753E9, 0.0, 2024-11-04 15:31:03.346
10.0, -104478.84851441963, -104546.23902395238, -104643.49146407742, -104668.12308646717, -104650.88989149212, -104610.09795786119, -104740.67684896909, -104658.51183635138, -0.006, 0.8280000000000001, 0.5760000000000001, 192.0, 0.0, 0.0, 0.0, 0.0, 0.0, 0.0, 0.0, 0.0, 0.0, 1.7307450633498857E9, 0.0, 2024-11-04 15:31:03.349
11.0, -104481.19544758744, -104548.40714316454, -104646.17367341205, -104670.93940626853, -104653.41563861557, -104612.62370498464, -104742.97907864799, -104660.9034730081, -0.006, 0.8280000000000001, 0.5760000000000001, 192.0, 0.0, 0.0, 0.0, 0.0, 0.0, 0.0, 0.0, 0.0, 0.0, 1.7307450633540757E9, 0.0, 2024-11-04 15:31:03.354
12.0, -104483.98941564435, -104551.3799251771, -104649.1464554246, -104673.84513304773, -104656.20960667249, -104615.52943176383, -104745.90715717163, -104663.80919978728, -0.004, 0.8200000000000001, 0.5640000000000001, 192.0, 255.0, 224.0, 25.0, 160.0, 17.0, 160.0, 0.0, 0.0, 0.0, 1.7307450633578453E9, 0.0, 2024-11-04 15:31:03.357
13.0, -104487.67745347947, -104555.22442522341, -104652.67803104855, -104677.22024646048, -104659.76353404087, -104619.15041436559, -104749.61754675121, -104667.36312715568, -0.004, 0.8200000000000001, 0.5640000000000001, 192.0, 0.0, 0.0, 0.0, 0.0, 0.0, 0.0, 0.0, 0.0, 0.0, 1.7307450633618567E9, 0.0, 2024-11-04 15:31:03.361
14.0, -104491.90193318152, -104559.42655318101, -104656.6566415616, -104681.1541534846, -104663.92095850957, -104623.28548708982, -104753.7749712199, -104671.54290336883, -0.004, 0.8200000000000001, 0.5640000000000001, 192.0, 0.0, 0.0, 0.0, 0.0, 0.0, 0.0, 0.0, 0.0, 0.0, 1.73074506336596E9, 0.0, 2024-11-04 15:31:03.365
15.0, -104496.32757858367, -104563.69573637197, -104661.32815615275, -104686.0044820314, -104668.65952833409, -104627.88994644761, -104758.26767185541, -104676.16971447108, -0.004, 0.8200000000000001, 0.5640000000000001, 192.0, 0.0, 0.0, 0.0, 0.0, 0.0, 0.0, 0.0, 0.0, 0.0, 1.7307450633689394E9, 0.0, 2024-11-04 15:31:03.368
16.0, -104499.56858152969, -104566.9814428069, -104664.81502828778, -104689.5137059109, -104672.01229000239, -104631.17565288254, -104761.66513701262, -104679.50012439492, -0.004, 0.8200000000000001, 0.5640000000000001, 192.0, 0.0, 0.0, 0.0, 0.0, 0.0, 0.0, 0.0, 0.0, 0.0, 1.7307450633740904E9, 0.0, 2024-11-04 15:31:03.374
17.0, -104503.21191587592, -104570.82594285322, -104668.43601088953, -104693.04528153483, -104675.58856911524, -104634.79663548431, -104765.3308231033, -104683.14345874113, -0.004, 0.8200000000000001, 0.5640000000000001, 192.0, 0.0, 0.0, 0.0, 0.0, 0.0, 0.0, 0.0, 0.0, 0.0, 1.7307450633779185E9, 0.0, 2024-11-04 15:31:03.377
18.0, -104505.82706997718, -104573.37404172112, -104670.78294405734, -104695.28045598036, -104678.04726100533, -104637.27767911884, -104767.74481150447, -104685.5574471423, -0.004, 0.8200000000000001, 0.5640000000000001, 192.0, 0.0, 0.0, 0.0, 0.0, 0.0, 0.0, 0.0, 0.0, 0.0, 1.7307450633818798E9, 0.0, 2024-11-04 15:31:03.381
19.0, -104508.17400314499, -104575.6315679111, -104673.42044990307, -104697.98501705946, -104680.57300812878, -104639.82577798674, -104770.15879990564, -104688.12789775466, -0.004, 0.8200000000000001, 0.5640000000000001, 192.0, 0.0, 0.0, 0.0, 0.0, 0.0, 0.0, 0.0, 0.0, 0.0, 1.7307450633858433E9, 0.0, 2024-11-04 15:31:03.385
20.0, -104512.44318633595, -104579.94545459098, -104677.98020577195, -104702.63417990616, -104684.93159829755, -104644.18436815553, -104774.56209356333, -104692.53119141236, -0.004, 0.8200000000000001, 0.5640000000000001, 192.0, 0.0, 0.0, 0.0, 0.0, 0.0, 0.0, 0.0, 0.0, 0.0, 1.730745063390067E9, 0.0, 2024-11-04 15:31:03.390
21.0, -104517.42762534949, -104584.99694883788, -104682.8081825743, -104707.32804624178, -104689.84898207772, -104649.1017519357, -104779.63593955469, -104697.40387170362, -0.004, 0.8200000000000001, 0.5640000000000001, 192.0, 0.0, 0.0, 0.0, 0.0, 0.0, 0.0, 0.0, 0.0, 0.0, 1.730745063392975E9, 0.0, 2024-11-04 15:31:03.392
22.0, -104520.75803527332, -104588.41676573954, -104685.84801982022, -104710.27847650988, -104693.08998502375, -104652.2980513928, -104782.92164598963, -104700.68957813855, -0.002, 0.8220000000000001, 0.5700000000000001, 192.0, 255.0, 240.0, 25.0, 176.0, 17.0, 208.0, 0.0, 0.0, 0.0, 1.7307450633970177E9, 0.0, 2024-11-04 15:31:03.397
23.0, -104520.91449748451, -104588.37206225062, -104686.0044820314, -104710.56904918779, -104693.24644723492, -104652.47686534845, -104782.8769425007, -104700.77898511637, -0.002, 0.8220000000000001, 0.5700000000000001, 192.0, 0.0, 0.0, 0.0, 0.0, 0.0, 0.0, 0.0, 0.0, 0.0, 1.7307450634020357E9, 0.0, 2024-11-04 15:31:03.402
24.0, -104523.7755207748, -104591.32249251872, -104689.33489195525, -104714.03356957837, -104696.4650984365, -104655.62846131665, -104785.96148323554, -104703.90822934012, -0.002, 0.8220000000000001, 0.5700000000000001, 192.0, 0.0, 0.0, 0.0, 0.0, 0.0, 0.0, 0.0, 0.0, 0.0, 1.730745063405875E9, 0.0, 2024-11-04 15:31:03.405
25.0, -104528.91642199951, -104596.53044897682, -104694.31933096878, -104718.86154638071, -104701.51659268339, -104660.67995556355, -104791.05768097135, -104708.98207533147, -0.002, 0.8220000000000001, 0.5700000000000001, 192.0, 0.0, 0.0, 0.0, 0.0, 0.0, 0.0, 0.0, 0.0, 0.0, 1.730745063409934E9, 0.0, 2024-11-04 15:31:03.409
26.0, -104532.26918366781, -104599.81615541174, -104697.38151995916, -104721.7672731599, -104704.64583690713, -104663.89860676511, -104794.36573915074, -104712.22307827749, -0.002, 0.8220000000000001, 0.5700000000000001, 192.0, 0.0, 0.0, 0.0, 0.0, 0.0, 0.0, 0.0, 0.0, 0.0, 1.7307450634141598E9, 0.0, 2024-11-04 15:31:03.414
27.0, -104534.79493079126, -104602.29719904628, -104699.90726708261, -104724.44948249454, -104707.28334275287, -104666.46905737747, -104796.8914862742, -104714.77117714539, -0.002, 0.8220000000000001, 0.5700000000000001, 192.0, 0.0, 0.0, 0.0, 0.0, 0.0, 0.0, 0.0, 0.0, 0.0, 1.7307450634172125E9, 0.0, 2024-11-04 15:31:03.417
28.0, -104538.41591339302, -104605.96288513695, -104703.88587759566, -104728.62925870768, -104711.03843582135, -104670.26885393487, -104800.57952410931, -104718.52627021389, -0.002, 0.8220000000000001, 0.5700000000000001, 192.0, 0.0, 0.0, 0.0, 0.0, 0.0, 0.0, 0.0, 0.0, 0.0, 1.7307450634230635E9, 0.0, 2024-11-04 15:31:03.423
29.0, -104544.78616056278, -104612.42253928454, -104710.36788348769, -104734.95480238853, -104717.27457252439, -104676.61674936018, -104806.97212302353, -104724.89651738365, -0.002, 0.8220000000000001, 0.5700000000000001, 192.0, 0.0, 0.0, 0.0, 0.0, 0.0, 0.0, 0.0, 0.0, 0.0, 1.730745063426237E9, 0.0, 2024-11-04 15:31:03.426
30.0, -104546.61900360811, -104614.30008581879, -104711.97720908848, -104736.38531403367, -104718.99565684744, -104678.24842670542, -104808.82731781332, -104726.66230519561, -0.002, 0.8220000000000001, 0.5700000000000001, 192.0, 0.0, 0.0, 0.0, 0.0, 0.0, 0.0, 0.0, 0.0, 0.0, 1.7307450634291568E9, 0.0, 2024-11-04 15:31:03.429
31.0, -104549.74824783186, -104617.36227480916, -104714.99469458994, -104739.42515127959, -104722.14725281564, -104681.42237441808, -104811.91185854815, -104729.7691976749, -0.002, 0.8220000000000001, 0.5700000000000001, 192.0, 0.0, 0.0, 0.0, 0.0, 0.0, 0.0, 0.0, 0.0, 0.0, 1.73074506343427E9, 0.0, 2024-11-04 15:31:03.434
32.0, -104553.30217520025, -104620.87149868865, -104718.88389812516, -104743.470817026, -104725.90234588414, -104685.1551157421, -104815.51048940545, -104733.43488376557, 0.004, 0.8260000000000001, 0.5720000000000001, 192.0, 0.0, 32.0, 25.0, 208.0, 17.0, 224.0, 0.0, 0.0, 0.0, 1.7307450634380372E9, 0.0, 2024-11-04 15:31:03.438
33.0, -104557.70546885795, -104625.36419932416, -104723.37659876069, -104747.98586940598, -104730.30563954182, -104689.64781637762, -104820.04789352989, -104737.88288091218, 0.004, 0.8260000000000001, 0.5720000000000001, 192.0, 0.0, 0.0, 0.0, 0.0, 0.0, 0.0, 0.0, 0.0, 0.0, 1.7307450634420712E9, 0.0, 2024-11-04 15:31:03.442
34.0, -104562.82401833821, -104630.54980403779, -104728.24927905195, -104752.76914271941, -104735.33478204427, -104694.72166236897, -104825.16644301015, -104742.91202341462, 0.004, 0.8260000000000001, 0.5720000000000001, 192.0, 0.0, 0.0, 0.0, 0.0, 0.0, 0.0, 0.0, 0.0, 0.0, 1.7307450634449985E9, 0.0, 2024-11-04 15:31:03.444
35.0, -104567.60729165164, -104635.26602211787, -104732.83138666528, -104757.28419509939, -104740.07335186879, -104699.4155287046, -104829.88266109022, -104747.6729449836, 0.004, 0.8260000000000001, 0.5720000000000001, 192.0, 0.0, 0.0, 0.0, 0.0, 0.0, 0.0, 0.0, 0.0, 0.0, 1.7307450634490693E9, 0.0, 2024-11-04 15:31:03.449
36.0, -104571.27297774232, -104638.88700471963, -104736.9217559006, -104761.5310265459, -104744.00725889293, -104703.26002875091, -104833.61540241426, -104751.53979677438, 0.004, 0.8260000000000001, 0.5720000000000001, 192.0, 0.0, 0.0, 0.0, 0.0, 0.0, 0.0, 0.0, 0.0, 0.0, 1.73074506345306E9, 0.0, 2024-11-04 15:31:03.453
37.0, -104574.06694579923, -104641.7480280099, -104739.76042744642, -104764.34734634726, -104746.71181997203, -104706.00929331892, -104836.49877744899, -104754.26670959791, 0.004, 0.8260000000000001, 0.5720000000000001, 192.0, 0.0, 0.0, 0.0, 0.0, 0.0, 0.0, 0.0, 0.0, 0.0, 1.7307450634570072E9, 0.0, 2024-11-04 15:31:03.457
38.0, -104576.01154756684, -104643.62557454414, -104741.43680828057, -104765.86726497022, -104748.49995952845, -104707.75272938643, -104838.33162049433, -104756.05484915434, 0.004, 0.8260000000000001, 0.5720000000000001, 192.0, 0.0, 0.0, 0.0, 0.0, 0.0, 0.0, 0.0, 0.0, 0.0, 1.73074506346217E9, 0.0, 2024-11-04 15:31:03.462
39.0, -104579.40901272405, -104646.97833621244, -104744.76721820442, -104769.15297140516, -104751.8750729412, -104711.23960152145, -104841.68438216262, -104759.45231431155, 0.004, 0.8260000000000001, 0.5720000000000001, 192.0, 0.0, 0.0, 0.0, 0.0, 0.0, 0.0, 0.0, 0.0, 0.0, 1.7307450634659564E9, 0.0, 2024-11-04 15:31:03.465
40.0, -104583.00764358135, -104650.44285660301, -104748.58936650628, -104773.13158191819, -104755.6748694986, -104714.94999110104, -104845.32771650884, -104763.20740738005, 0.004, 0.8260000000000001, 0.5720000000000001, 192.0, 0.0, 0.0, 0.0, 0.0, 0.0, 0.0, 0.0, 0.0, 0.0, 1.7307450634699533E9, 0.0, 2024-11-04 15:31:03.469
41.0, -104585.98042559391, -104653.57210082676, -104751.80801770784, -104776.37258486422, -104758.69235500006, -104718.03453183586, -104848.47931247704, -104766.24724462596, 0.004, 0.8260000000000001, 0.5720000000000001, 192.0, 0.0, 0.0, 0.0, 0.0, 0.0, 0.0, 0.0, 0.0, 0.0, 1.7307450634730227E9, 0.0, 2024-11-04 15:31:03.473
42.0, -104588.2379517839, -104655.8519787612, -104753.84202645326, -104778.31718663183, -104760.77106723441, -104720.13559581466, -104850.71448692257, -104768.37066034922, -0.004, 0.8320000000000001, 0.5740000000000001, 192.0, 255.0, 224.0, 26.0, 0.0, 17.0, 240.0, 0.0, 0.0, 0.0, 1.7307450634771152E9, 0.0, 2024-11-04 15:31:03.477
43.0, -104592.4400797415, -104660.0541067188, -104757.82063696631, -104782.16168667814, -104764.97319519201, -104724.22596504999, -104854.76015266898, -104772.46102958453, -0.004, 0.8320000000000001, 0.5740000000000001, 192.0, 0.0, 0.0, 0.0, 0.0, 0.0, 0.0, 0.0, 0.0, 0.0, 1.730745063481126E9, 0.0, 2024-11-04 15:31:03.481
44.0, -104595.68108268752, -104663.18335094255, -104761.21810212352, -104785.69326230208, -104768.30360511586, -104727.57872671827, -104857.97880387054, -104775.76908776393, -0.004, 0.8320000000000001, 0.5740000000000001, 192.0, 0.0, 0.0, 0.0, 0.0, 0.0, 0.0, 0.0, 0.0, 0.0, 1.7307450634849453E9, 0.0, 2024-11-04 15:31:03.484
45.0, -104599.88321064512, -104667.49723762242, -104765.75550624795, -104790.27536991541, -104772.59514005127, -104731.84790990925, -104862.31504229487, -104780.03827095489, -0.004, 0.8320000000000001, 0.5740000000000001, 192.0, 0.0, 0.0, 0.0, 0.0, 0.0, 0.0, 0.0, 0.0, 0.0, 1.730745063490031E9, 0.0, 2024-11-04 15:31:03.490
46.0, -104603.75006243588, -104671.38644115764, -104769.42119233862, -104793.9410560061, -104776.30552963084, -104735.51359599992, -104866.15954234118, -104783.77101227893, -0.004, 0.8320000000000001, 0.5740000000000001, 192.0, 0.0, 0.0, 0.0, 0.0, 0.0, 0.0, 0.0, 0.0, 0.0, 1.7307450634940977E9, 0.0, 2024-11-04 15:31:03.494
47.0, -104607.48280375992, -104675.2532929484, -104772.95276796256, -104797.29381767438, -104780.03827095489, -104739.17928209058, -104869.8028766874, -104787.4814018585, -0.004, 0.8320000000000001, 0.5740000000000001, 192.0, 0.0, 0.0, 0.0, 0.0, 0.0, 0.0, 0.0, 0.0, 0.0, 1.730745063498057E9, 0.0, 2024-11-04 15:31:03.498
48.0, -104610.23206832792, -104677.7566883274, -104775.72438427502, -104800.15484096466, -104782.76518377844, -104741.99560189195, -104872.52978951095, -104790.29772165987, -0.004, 0.8320000000000001, 0.5740000000000001, 192.0, 0.0, 0.0, 0.0, 0.0, 0.0, 0.0, 0.0, 0.0, 0.0, 1.7307450635011659E9, 0.0, 2024-11-04 15:31:03.501
49.0, -104613.3389608072, -104680.84122906224, -104779.16655292113, -104803.73112007751, -104785.98383498, -104745.28130832688, -104875.81549594588, -104793.60577983926, -0.004, 0.8320000000000001, 0.5740000000000001, 192.0, 0.0, 0.0, 0.0, 0.0, 0.0, 0.0, 0.0, 0.0, 0.0, 1.730745063505122E9, 0.0, 2024-11-04 15:31:03.505
50.0, -104617.4963852759, -104685.13276399765, -104783.21221866754, -104807.68737884611, -104790.07420421531, -104749.3716775622, -104879.88351343674, -104797.62909384121, -0.004, 0.8320000000000001, 0.5740000000000001, 192.0, 0.0, 0.0, 0.0, 0.0, 0.0, 0.0, 0.0, 0.0, 0.0, 1.7307450635090806E9, 0.0, 2024-11-04 15:31:03.509
51.0, -104620.67033298855, -104688.28435996585, -104786.00618672445, -104810.4366434141, -104793.11404146125, -104752.25505259694, -104882.92335068267, -104800.57952410931, -0.004, 0.8320000000000001, 0.5740000000000001, 192.0, 0.0, 0.0, 0.0, 0.0, 0.0, 0.0, 0.0, 0.0, 0.0, 1.7307450635131936E9, 0.0, 2024-11-04 15:31:03.513
52.0, -104624.29131559031, -104691.79358384534, -104789.64952107066, -104814.12468124923, -104796.71267231855, -104755.92073868761, -104886.43257456215, -104804.22285845553, -0.012, 0.8240000000000001, 0.5740000000000001, 192.0, 255.0, 160.0, 25.0, 192.0, 17.0, 240.0, 0.0, 0.0, 0.0, 1.7307450635182495E9, 0.0, 2024-11-04 15:31:03.518
53.0, -104626.9958766694, -104694.54284841334, -104792.8905240167, -104817.41038768415, -104799.6407508422, -104758.84881721126, -104889.38300483025, -104807.24034395699, -0.012, 0.8240000000000001, 0.5740000000000001, 192.0, 0.0, 0.0, 0.0, 0.0, 0.0, 0.0, 0.0, 0.0, 0.0, 1.730745063522228E9, 0.0, 2024-11-04 15:31:03.522
54.0, -104629.70043774848, -104697.40387170362, -104795.6844920736, -104820.20435574108, -104802.3900154102, -104761.55337829035, -104892.24402812053, -104809.92255329163, -0.012, 0.8240000000000001, 0.5740000000000001, 192.0, 0.0, 0.0, 0.0, 0.0, 0.0, 0.0, 0.0, 0.0, 0.0, 1.7307450635252323E9, 0.0, 2024-11-04 15:31:03.525
55.0, -104634.72958025093, -104702.34360722823, -104800.44541364258, -104824.7417598655, -104807.19564046808, -104766.35900334823, -104897.1614119007, -104814.81758532734, -0.012, 0.8240000000000001, 0.5740000000000001, 192.0, 0.0, 0.0, 0.0, 0.0, 0.0, 0.0, 0.0, 0.0, 0.0, 1.730745063529044E9, 0.0, 2024-11-04 15:31:03.529
56.0, -104637.76941749686, -104705.22698226298, -104803.35114042177, -104827.60278315577, -104810.19077422509, -104769.44354408307, -104900.04478693542, -104817.76801559544, -0.012, 0.8240000000000001, 0.5740000000000001, 192.0, 0.0, 0.0, 0.0, 0.0, 0.0, 0.0, 0.0, 0.0, 0.0, 1.7307450635334616E9, 0.0, 2024-11-04 15:31:03.533
57.0, -104638.97641169744, -104706.50103169693, -104804.98281776701, -104829.48032969002, -104811.71069284805, -104770.98581445048, -104901.49765032502, -104819.26558247395, -0.012, 0.8240000000000001, 0.5740000000000001, 192.0, 0.0, 0.0, 0.0, 0.0, 0.0, 0.0, 0.0, 0.0, 0.0, 1.73074506353715E9, 0.0, 2024-11-04 15:31:03.537
58.0, -104642.55269081029, -104710.30082825433, -104808.71555909104, -104833.19071926961, -104815.35402719428, -104774.67385228562, -104905.25274339352, -104822.90891682016, -0.012, 0.8240000000000001, 0.5740000000000001, 192.0, 0.0, 0.0, 0.0, 0.0, 0.0, 0.0, 0.0, 0.0, 0.0, 1.730745063541193E9, 0.0, 2024-11-04 15:31:03.541
59.0, -104645.48076933394, -104713.25125852243, -104811.2860097034, -104835.6941146486, -104818.10329176228, -104777.42311685362, -104908.04671145043, -104825.68053313262, -0.012, 0.8240000000000001, 0.5740000000000001, 192.0, 0.0, 0.0, 0.0, 0.0, 0.0, 0.0, 0.0, 0.0, 0.0, 1.730745063546192E9, 0.0, 2024-11-04 15:31:03.546
60.0, -104649.5487868248, -104717.22986903548, -104815.17521323863, -104839.49391120601, -104822.12660576424, -104781.35702387775, -104911.98061847457, -104829.61444015676, -0.012, 0.8240000000000001, 0.5740000000000001, 192.0, 0.0, 0.0, 0.0, 0.0, 0.0, 0.0, 0.0, 0.0, 0.0, 1.7307450635501928E9, 0.0, 2024-11-04 15:31:03.550
61.0, -104653.01330721538, -104720.53792721486, -104818.97500979604, -104843.40546648568, -104825.7922918549, -104784.9780064795, -104915.5121940985, -104833.28012624742, -0.012, 0.8240000000000001, 0.5740000000000001, 192.0, 0.0, 0.0, 0.0, 0.0, 0.0, 0.0, 0.0, 0.0, 0.0, 1.7307450635532143E9, 0.0, 2024-11-04 15:31:03.553
62.0, -104655.29318514981, -104722.92956387157, -104821.50075691949, -104845.93121360913, -104828.16157676716, -104787.39199488069, -104918.03794122195, -104835.62705941523, -0.01, 0.8160000000000001, 0.578, 192.0, 255.0, 176.0, 25.0, 128.0, 18.0, 16.0, 0.0, 0.0, 0.0, 1.7307450635571592E9, 0.0, 2024-11-04 15:31:03.557
63.0, -104660.43408637455, -104728.11516858521, -104826.48519593301, -104850.82624564484, -104833.1460157807, -104792.39878563867, -104923.13413895776, -104840.65620191768, -0.01, 0.8160000000000001, 0.578, 192.0, 0.0, 0.0, 0.0, 0.0, 0.0, 0.0, 0.0, 0.0, 0.0, 1.730745063561138E9, 0.0, 2024-11-04 15:31:03.561
64.0, -104664.88208352115, -104732.49611049845, -104830.62026865725, -104854.93896662463, -104837.52695769393, -104796.735024063, -104927.44802563764, -104844.97008859755, -0.01, 0.8160000000000001, 0.578, 192.0, 0.0, 0.0, 0.0, 0.0, 0.0, 0.0, 0.0, 0.0, 0.0, 1.730745063565056E9, 0.0, 2024-11-04 15:31:03.565
65.0, -104665.99967074391, -104733.47958725448, -104831.96137332456, -104856.43653350313, -104838.8457106168, -104798.03142524141, -104928.5656128604, -104846.35589675378, -0.01, 0.8160000000000001, 0.578, 192.0, 0.0, 0.0, 0.0, 0.0, 0.0, 0.0, 0.0, 0.0, 0.0, 1.7307450635692391E9, 0.0, 2024-11-04 15:31:03.569
66.0, -104669.82181904577, -104737.39114253416, -104835.98468732652, -104860.57160622736, -104842.80196938539, -104801.94298052108, -104932.521871629, -104850.26745203345, -0.01, 0.8160000000000001, 0.578, 192.0, 0.0, 0.0, 0.0, 0.0, 0.0, 0.0, 0.0, 0.0, 0.0, 1.730745063574283E9, 0.0, 2024-11-04 15:31:03.574
67.0, -104675.18623771504, -104742.95672690353, -104841.41616122916, -104865.73485919653, -104848.07698107684, -104807.28504744591, -104938.020400765, -104855.52011198046, -0.01, 0.8160000000000001, 0.578, 192.0, 0.0, 0.0, 0.0, 0.0, 0.0, 0.0, 0.0, 0.0, 0.0, 1.7307450635781066E9, 0.0, 2024-11-04 15:31:03.578
68.0, -104677.60022611622, -104745.32601181579, -104843.47252171904, -104867.74651619751, -104850.37921075574, -104809.5872771248, -104940.32263044389, -104857.84469340381, -0.01, 0.8160000000000001, 0.578, 192.0, 0.0, 0.0, 0.0, 0.0, 0.0, 0.0, 0.0, 0.0, 0.0, 1.7307450635809717E9, 0.0, 2024-11-04 15:31:03.580
69.0, -104678.8519238057, -104746.39889554965, -104844.83597813082, -104869.06526912037, -104851.67561193414, -104810.90603004767, -104941.46256941112, -104859.14109458221, -0.01, 0.8160000000000001, 0.578, 192.0, 0.0, 0.0, 0.0, 0.0, 0.0, 0.0, 0.0, 0.0, 0.0, 1.7307450635850656E9, 0.0, 2024-11-04 15:31:03.585
70.0, -104681.69059535154, -104749.23756709548, -104848.03227758793, -104872.41803078867, -104854.69309743561, -104813.90116380468, -104944.48005491258, -104862.13622833922, -0.01, 0.8160000000000001, 0.578, 192.0, 0.0, 0.0, 0.0, 0.0, 0.0, 0.0, 0.0, 0.0, 0.0, 1.730745063589012E9, 0.0, 2024-11-04 15:31:03.589
71.0, -104686.27270296487, -104753.99848866445, -104852.52497822345, -104876.86602793528, -104859.16344632667, -104818.41621618465, -104949.12921775928, -104866.6512807192, -0.01, 0.8160000000000001, 0.578, 192.0, 0.0, 0.0, 0.0, 0.0, 0.0, 0.0, 0.0, 0.0, 0.0, 1.7307450635931067E9, 0.0, 2024-11-04 15:31:03.593
72.0, -104689.17842974406, -104756.85951195474, -104855.22953930254, -104879.23531284754, -104861.95741438359, -104821.16548075265, -104951.90083407174, -104869.42289703166, -0.004, 0.8220000000000001, 0.582, 192.0, 255.0, 224.0, 25.0, 176.0, 18.0, 48.0, 0.0, 0.0, 0.0, 1.730745063597113E9, 0.0, 2024-11-04 15:31:03.597
73.0, -104692.15121175662, -104759.69818350056, -104858.13526608174, -104882.29750183792, -104864.97489988506, -104824.1382627652, -104954.82891259539, -104872.39567904422, -0.004, 0.8220000000000001, 0.582, 192.0, 0.0, 0.0, 0.0, 0.0, 0.0, 0.0, 0.0, 0.0, 0.0, 1.730745063602192E9, 0.0, 2024-11-04 15:31:03.602
74.0, -104696.2639327364, -104763.8332562248, -104862.56091148387, -104886.92431294016, -104869.17702784266, -104828.38509421171, -104959.0757440419, -104876.66486223518, -0.004, 0.8220000000000001, 0.582, 192.0, 0.0, 0.0, 0.0, 0.0, 0.0, 0.0, 0.0, 0.0, 0.0, 1.730745063606434E9, 0.0, 2024-11-04 15:31:03.606
75.0, -104700.39900546063, -104768.03538418238, -104866.6512807192, -104890.96997868658, -104873.17799010016, -104832.43075995812, -104963.21081676614, -104880.79993495942, -0.004, 0.8220000000000001, 0.582, 192.0, 0.0, 0.0, 0.0, 0.0, 0.0, 0.0, 0.0, 0.0, 0.0, 1.7307450636091523E9, 0.0, 2024-11-04 15:31:03.609
76.0, -104705.62931366317, -104773.35509936274, -104871.68042322165, -104895.79795548892, -104878.31889132487, -104837.59401292731, -104968.3740697353, -104885.87378095077, -0.004, 0.8220000000000001, 0.582, 192.0, 0.0, 0.0, 0.0, 0.0, 0.0, 0.0, 0.0, 0.0, 0.0, 1.7307450636131372E9, 0.0, 2024-11-04 15:31:03.613
77.0, -104708.33387474227, -104776.01495695293, -104874.36263255628, -104898.54722005692, -104881.17991461515, -104840.36562923976, -104971.05627906995, -104888.62304551876, -0.004, 0.8220000000000001, 0.582, 192.0, 0.0, 0.0, 0.0, 0.0, 0.0, 0.0, 0.0, 0.0, 0.0, 1.7307450636172016E9, 0.0, 2024-11-04 15:31:03.617
78.0, -104709.67497940958, -104777.28900638688, -104876.08371687934, -104900.40241484671, -104882.72218498257, -104841.93025135163, -104972.55384594845, -104890.16531588619, -0.004, 0.8220000000000001, 0.582, 192.0, 0.0, 0.0, 0.0, 0.0, 0.0, 0.0, 0.0, 0.0, 0.0, 1.7307450636212049E9, 0.0, 2024-11-04 15:31:03.621
79.0, -104714.3688457452, -104781.9828727225, -104880.77758321495, -104904.98452246006, -104887.39369957373, -104846.53471070943, -104977.44887798416, -104894.8591822218, -0.004, 0.8220000000000001, 0.582, 192.0, 0.0, 0.0, 0.0, 0.0, 0.0, 0.0, 0.0, 0.0, 0.0, 1.7307450636252282E9, 0.0, 2024-11-04 15:31:03.625
80.0, -104721.70021792654, -104789.47070711503, -104887.88543795174, -104912.00297021902, -104894.63566477725, -104853.75432416849, -104984.73554667659, -104902.14585091422, -0.004, 0.8220000000000001, 0.582, 192.0, 0.0, 0.0, 0.0, 0.0, 0.0, 0.0, 0.0, 0.0, 0.0, 1.7307450636303456E9, 0.0, 2024-11-04 15:31:03.630
81.0, -104724.94122087256, -104792.62230308322, -104891.08173740885, -104915.13221444277, -104897.78726074545, -104856.92827188114, -104987.75303217805, -104905.3645021158, -0.004, 0.8220000000000001, 0.582, 192.0, 0.0, 0.0, 0.0, 0.0, 0.0, 0.0, 0.0, 0.0, 0.0, 1.7307450636333084E9, 0.0, 2024-11-04 15:31:03.633
82.0, -104726.8187674068, -104794.36573915074, -104893.24985662101, -104917.43444412165, -104899.8659729798, -104859.00698411549, -104989.6752822012, -104907.35380737232, -0.004, 0.8240000000000001, 0.5740000000000001, 192.0, 255.0, 224.0, 25.0, 192.0, 17.0, 240.0, 0.0, 0.0, 0.0, 1.7307450636362894E9, 0.0, 2024-11-04 15:31:03.636
83.0, -104729.29981104135, -104797.07030022983, -104895.8650107223, -104920.07194996739, -104902.36936835878, -104861.5997864723, -104992.3798432803, -104909.90190624022, -0.004, 0.8240000000000001, 0.5740000000000001, 192.0, 0.0, 0.0, 0.0, 0.0, 0.0, 0.0, 0.0, 0.0, 0.0, 1.7307450636412573E9, 0.0, 2024-11-04 15:31:03.641
84.0, -104733.05490410983, -104800.87009678723, -104899.35188285731, -104923.5141186135, -104905.94564747163, -104865.24312081852, -104996.1349363488, -104913.54524058643, -0.004, 0.8240000000000001, 0.5740000000000001, 192.0, 0.0, 0.0, 0.0, 0.0, 0.0, 0.0, 0.0, 0.0, 0.0, 1.7307450636452749E9, 0.0, 2024-11-04 15:31:03.645
85.0, -104734.84304366626, -104802.45707064356, -104900.9612084581, -104925.05638898091, -104907.73378702806, -104866.94185339712, -104997.78896543849, -104915.13221444277, -0.004, 0.8240000000000001, 0.5740000000000001, 192.0, 0.0, 0.0, 0.0, 0.0, 0.0, 0.0, 0.0, 0.0, 0.0, 1.7307450636491773E9, 0.0, 2024-11-04 15:31:03.649
86.0, -104737.16762508961, -104804.73694857801, -104903.57636255937, -104927.80565354892, -104910.23718240704, -104869.37819354275, -105000.09119511739, -104917.54620284394, -0.004, 0.8240000000000001, 0.5740000000000001, 192.0, 0.0, 0.0, 0.0, 0.0, 0.0, 0.0, 0.0, 0.0, 0.0, 1.7307450636533904E9, 0.0, 2024-11-04 15:31:03.653
87.0, -104742.6214507367, -104810.25782945847, -104909.18665041766, -104933.50534838502, -104915.66865630969, -104874.92142616767, -105005.70148297567, -104923.13413895776, -0.004, 0.8240000000000001, 0.5740000000000001, 192.0, 0.0, 0.0, 0.0, 0.0, 0.0, 0.0, 0.0, 0.0, 0.0, 1.7307450636581845E9, 0.0, 2024-11-04 15:31:03.658
88.0, -104746.80122694984, -104814.41525392715, -104913.18761267514, -104937.34984843133, -104919.64726682274, -104879.01179540298, -105009.76950046653, -104927.22450819309, -0.004, 0.8240000000000001, 0.5740000000000001, 192.0, 0.0, 0.0, 0.0, 0.0, 0.0, 0.0, 0.0, 0.0, 0.0, 1.730745063661455E9, 0.0, 2024-11-04 15:31:03.661
89.0, -104749.48343628448, -104817.1421667507, -104915.64630456523, -104939.7191333436, -104922.24006917955, -104881.51519078198, -105012.33995107889, -104929.72790357207, -0.004, 0.8240000000000001, 0.5740000000000001, 192.0, 0.0, 0.0, 0.0, 0.0, 0.0, 0.0, 0.0, 0.0, 0.0, 1.730745063664448E9, 0.0, 2024-11-04 15:31:03.664
90.0, -104752.05388689684, -104819.66791387415, -104918.48497611105, -104942.75897058952, -104925.05638898091, -104884.30915883889, -105014.93275343571, -104932.521871629, -0.004, 0.8240000000000001, 0.5740000000000001, 192.0, 0.0, 0.0, 0.0, 0.0, 0.0, 0.0, 0.0, 0.0, 0.0, 1.7307450636694057E9, 0.0, 2024-11-04 15:31:03.669
91.0, -104755.00431716494, -104822.73010286453, -104921.74833080154, -104945.97762179108, -104928.14092971575, -104887.32664434036, -105018.01729417054, -104935.6734675972, -0.004, 0.8240000000000001, 0.5740000000000001, 192.0, 0.0, 0.0, 0.0, 0.0, 0.0, 0.0, 0.0, 0.0, 0.0, 1.7307450636733537E9, 0.0, 2024-11-04 15:31:03.673
92.0, -104758.80411372235, -104826.52989942192, -104925.34696165884, -104949.46449392612, -104931.82896755087, -104891.0593856644, -105021.79473898349, -104939.42856066568, -0.008, 0.8300000000000001, 0.578, 192.0, 255.0, 192.0, 25.0, 240.0, 18.0, 16.0, 0.0, 0.0, 0.0, 1.7307450636774309E9, 0.0, 2024-11-04 15:31:03.677
93.0, -104764.10147715826, -104831.82726285783, -104930.39845590574, -104954.38187770628, -104937.03692400896, -104896.1555834002, -105027.11445416385, -104944.50240665703, -0.008, 0.8300000000000001, 0.578, 192.0, 0.0, 0.0, 0.0, 0.0, 0.0, 0.0, 0.0, 0.0, 0.0, 1.730745063681366E9, 0.0, 2024-11-04 15:31:03.681
94.0, -104768.95180570506, -104836.52112919345, -104935.33819143036, -104959.36631671981, -104941.8201973224, -104901.18472590265, -105031.89772747729, -104949.39743869274, -0.008, 0.8300000000000001, 0.578, 192.0, 0.0, 0.0, 0.0, 0.0, 0.0, 0.0, 0.0, 0.0, 0.0, 1.730745063686224E9, 0.0, 2024-11-04 15:31:03.686
95.0, -104772.46102958453, -104840.11976005076, -104939.20504322113, -104963.2778719995, -104945.57529039089, -104904.87276373777, -105035.51871007905, -104953.08547652788, -0.008, 0.8300000000000001, 0.578, 192.0, 0.0, 0.0, 0.0, 0.0, 0.0, 0.0, 0.0, 0.0, 0.0, 1.7307450636891892E9, 0.0, 2024-11-04 15:31:03.689
96.0, -104775.83614299729, -104843.51722520796, -104942.44604616716, -104966.49652320106, -104948.74923810354, -104908.06906319488, -105038.87147174735, -104956.30412772944, -0.008, 0.8300000000000001, 0.578, 192.0, 0.0, 0.0, 0.0, 0.0, 0.0, 0.0, 0.0, 0.0, 0.0, 1.7307450636922362E9, 0.0, 2024-11-04 15:31:03.692
97.0, -104778.92068373213, -104846.6464694317, -104945.28471771297, -104969.31284300242, -104951.76672360502, -104911.08654869636, -105041.95601248217, -104959.3216132309, -0.008, 0.8300000000000001, 0.578, 192.0, 0.0, 0.0, 0.0, 0.0, 0.0, 0.0, 0.0, 0.0, 0.0, 1.7307450636973548E9, 0.0, 2024-11-04 15:31:03.697
98.0, -104782.09463144478, -104849.8427688888, -104948.54807240344, -104972.64325292627, -104955.16418876222, -104914.41695862019, -105045.15231193928, -104962.65202315475, -0.008, 0.8300000000000001, 0.578, 192.0, 0.0, 0.0, 0.0, 0.0, 0.0, 0.0, 0.0, 0.0, 0.0, 1.730745063701331E9, 0.0, 2024-11-04 15:31:03.701
99.0, -104783.234570412, -104851.07211483385, -104950.15739800423, -104974.29728201596, -104956.52764517399, -104915.80276677643, -105046.42636137323, -104964.03783131097, -0.008, 0.8300000000000001, 0.578, 192.0, 0.0, 0.0, 0.0, 0.0, 0.0, 0.0, 0.0, 0.0, 0.0, 1.7307450637053564E9, 0.0, 2024-11-04 15:31:03.705
100.0, -104787.45905011405, -104855.251891047, -104954.15836026173, -104978.38765125128, -104960.5733109204, -104919.84843252283, -105050.53908235302, -104968.1282005463, -0.008, 0.8300000000000001, 0.578, 192.0, 0.0, 0.0, 0.0, 0.0, 0.0, 0.0, 0.0, 0.0, 0.0, 1.7307450637092154E9, 0.0, 2024-11-04 15:31:03.709
101.0, -104792.97993099451, -104860.750420183, -104959.36631671981, -104983.41679375373, -104965.89302610076, -104925.14579595874, -105055.97055625565, -104973.51497096002, -0.008, 0.8300000000000001, 0.578, 192.0, 0.0, 0.0, 0.0, 0.0, 0.0, 0.0, 0.0, 0.0, 0.0, 1.7307450637132938E9, 0.0, 2024-11-04 15:31:03.713
102.0, -104797.11500371875, -104864.7513824405, -104963.56844467741, -104987.46245950014, -104970.028098825, -104929.28086868297, -105060.03857374651, -104977.62769193981, -0.008, 0.8220000000000001, 0.58, 192.0, 255.0, 192.0, 25.0, 176.0, 18.0, 32.0, 0.0, 0.0, 0.0, 1.7307450637173395E9, 0.0, 2024-11-04 15:31:03.717
103.0, -104799.0372537419, -104866.67363246366, -104965.89302610076, -104989.98820662359, -104972.19621803716, -104931.4713396396, -105062.11728598086, -104979.79581115197, -0.008, 0.8220000000000001, 0.58, 192.0, 0.0, 0.0, 0.0, 0.0, 0.0, 0.0, 0.0, 0.0, 0.0, 1.730745063720331E9, 0.0, 2024-11-04 15:31:03.720
104.0, -104800.33365492031, -104868.14884759771, -104967.3235377459, -104991.35166303536, -104973.53732270448, -104932.85714779582, -105063.61485285936, -104981.20397105264, -0.008, 0.8220000000000001, 0.58, 192.0, 0.0, 0.0, 0.0, 0.0, 0.0, 0.0, 0.0, 0.0, 0.0, 1.7307450637253969E9, 0.0, 2024-11-04 15:31:03.725
105.0, -104804.64754160018, -104872.39567904422, -104971.25744477003, -104995.15145959276, -104977.60534019534, -104936.92516528668, -105067.81698081696, -104985.2272850546, -0.008, 0.8220000000000001, 0.58, 192.0, 0.0, 0.0, 0.0, 0.0, 0.0, 0.0, 0.0, 0.0, 0.0, 1.730745063729322E9, 0.0, 2024-11-04 15:31:03.729
106.0, -104810.48134690302, -104878.09537388032, -104976.95713960614, -105000.91820966222, -104983.41679375373, -104942.66956361171, -105073.58373088643, -104991.03873861299, -0.008, 0.8220000000000001, 0.58, 192.0, 0.0, 0.0, 0.0, 0.0, 0.0, 0.0, 0.0, 0.0, 0.0, 1.7307450637334237E9, 0.0, 2024-11-04 15:31:03.733
107.0, -104814.77288183843, -104882.4539640491, -104981.76276466403, -105005.74618646457, -104988.04360485598, -104947.22931948058, -105078.03172803303, -104995.59849448186, -0.008, 0.8220000000000001, 0.58, 192.0, 0.0, 0.0, 0.0, 0.0, 0.0, 0.0, 0.0, 0.0, 0.0, 1.7307450637372773E9, 0.0, 2024-11-04 15:31:03.737
108.0, -104818.1926987401, -104886.03024316195, -104985.29434028798, -105009.21070685516, -104991.44107001318, -104950.6714881267, -105081.47389667916, -104999.01831138354, -0.008, 0.8220000000000001, 0.58, 192.0, 0.0, 0.0, 0.0, 0.0, 0.0, 0.0, 0.0, 0.0, 0.0, 1.7307450637414515E9, 0.0, 2024-11-04 15:31:03.741
109.0, -104820.494928419, -104888.33247284085, -104987.28364554449, -105011.15530862277, -104993.51978224753, -104952.86195908333, -105083.82082984697, -105001.16407885124, -0.008, 0.8220000000000001, 0.58, 192.0, 0.0, 0.0, 0.0, 0.0, 0.0, 0.0, 0.0, 0.0, 0.0, 1.7307450637454615E9, 0.0, 2024-11-04 15:31:03.745
110.0, -104823.0877307758, -104890.88057170875, -104989.49646824558, -105013.41283481274, -104996.00082588206, -104955.25359574004, -105086.21246650368, -105003.62277074132, -0.008, 0.8220000000000001, 0.58, 192.0, 0.0, 0.0, 0.0, 0.0, 0.0, 0.0, 0.0, 0.0, 0.0, 1.730745063748413E9, 0.0, 2024-11-04 15:31:03.748
111.0, -104827.35691396677, -104895.01564443299, -104994.19033458119, -105018.15140463728, -105000.56058175095, -104959.74629637555, -105090.548704928, -105008.07076788793, -0.008, 0.8220000000000001, 0.58, 192.0, 0.0, 0.0, 0.0, 0.0, 0.0, 0.0, 0.0, 0.0, 0.0, 1.730745063752338E9, 0.0, 2024-11-04 15:31:03.752
112.0, -104829.88266109022, -104897.69785376762, -104997.07370961591, -105020.9900761831, -105003.15338410776, -104962.36145047683, -105093.23091426265, -105010.70827373366, -0.008, 0.8220000000000001, 0.58, 192.0, 0.0, 0.0, 0.0, 0.0, 0.0, 0.0, 0.0, 0.0, 0.0, 1.7307450637574408E9, 0.0, 2024-11-04 15:31:03.757
113.0, -104832.96720182506, -104900.78239450246, -104999.91238116175, -105023.71698900664, -105006.10381437586, -104965.26717725601, -105096.24839976411, -105013.72575923512, -0.008, 0.8220000000000001, 0.58, 192.0, 0.0, 0.0, 25.0, 224.0, 18.0, 64.0, 0.0, 0.0, 0.0, 1.730745063761441E9, 0.0, 2024-11-04 15:31:03.761
