%OpenBCI Raw EXG Data
%Number of channels = 8
%Sample Rate = 250 Hz
%Board = OpenBCI_GUI$BoardCytonSerial
Sample Index, EXG Channel 0, EXG Channel 1, EXG Channel 2, EXG Channel 3, EXG Channel 4, EXG Channel 5, EXG Channel 6, EXG Channel 7, Accel Channel 0, Accel Channel 1, Accel Channel 2, Not Used, Digital Channel 0 (D11), Digital Channel 1 (D12), Digital Channel 2 (D13), Digital Channel 3 (D17), Not Used, Digital Channel 4 (D18), Analog Channel 0, Analog Channel 1, Analog Channel 2, Timestamp, Marker Channel, Timestamp (Formatted)
0.0, 0.0, 0.0, 0.0, 0.0, 0.0, 0.0, 0.0, 0.0, 0.0, 0.0, 0.0, 192.0, 0.0, 0.0, 0.0, 0.0, 0.0, 0.0, 0.0, 0.0, 0.0, 1.730745030686076E9, 0.0, 2024-11-04 15:30:30.686
1.0, -75581.12747444243, -75649.36735026448, -75715.55086559664, -75748.98907530178, -75731.68882509337, -75698.85411248852, -75804.37669806203, -75740.83068857559, -0.068, 0.842, 0.55, 192.0, 253.0, 224.0, 26.0, 80.0, 17.0, 48.0, 0.0, 0.0, 0.0, 1.7307450306950293E9, 0.0, 2024-11-04 15:30:30.695
2.0, -75585.8436925225, -75654.17297532236, -75720.35649065454, -75753.77234861521, -75736.38269142898, -75703.63738580197, -75809.11526788656, -75745.56925840012, -0.068, 0.842, 0.55, 192.0, 0.0, 0.0, 0.0, 0.0, 0.0, 0.0, 0.0, 0.0, 0.0, 1.7307450306993494E9, 0.0, 2024-11-04 15:30:30.699
3.0, -75588.12357045694, -75656.51990849017, -75722.65872033343, -75756.11928178303, -75738.66256936343, -75706.00667071423, -75811.48455279882, -75747.8267845901, -0.068, 0.842, 0.55, 192.0, 0.0, 0.0, 0.0, 0.0, 0.0, 0.0, 0.0, 0.0, 0.0, 1.7307450307030773E9, 0.0, 2024-11-04 15:30:30.703
4.0, -75592.01277399216, -75660.4091120254, -75726.61497910201, -75760.07554055161, -75742.64117987647, -75709.9182259939, -75815.4408115674, -75751.8277468476, -0.068, 0.842, 0.55, 192.0, 0.0, 0.0, 0.0, 0.0, 0.0, 0.0, 0.0, 0.0, 0.0, 1.7307450307071612E9, 0.0, 2024-11-04 15:30:30.707
5.0, -75595.25377693817, -75663.62776322696, -75729.69951983685, -75763.20478477536, -75745.81512758913, -75713.09217370655, -75818.65946276898, -75755.00169456025, -0.068, 0.842, 0.55, 192.0, 0.0, 0.0, 0.0, 0.0, 0.0, 0.0, 0.0, 0.0, 0.0, 1.7307450307102783E9, 0.0, 2024-11-04 15:30:30.710
6.0, -75600.66289909637, -75669.08158887406, -75735.13099373948, -75768.72566565582, -75751.20189800285, -75718.54599935365, -75824.09093667161, -75760.4331684629, -0.068, 0.842, 0.55, 192.0, 0.0, 0.0, 0.0, 0.0, 0.0, 0.0, 0.0, 0.0, 0.0, 1.7307450307141776E9, 0.0, 2024-11-04 15:30:30.714
7.0, -75604.26152995367, -75672.50140577572, -75738.72962459679, -75772.21253779084, -75754.75582537125, -75722.0775749776, -75827.6001605511, -75764.05415106466, -0.068, 0.842, 0.55, 192.0, 0.0, 0.0, 0.0, 0.0, 0.0, 0.0, 0.0, 0.0, 0.0, 1.730745030718532E9, 0.0, 2024-11-04 15:30:30.718
8.0, -75606.54140788811, -75674.87069068798, -75741.09890950906, -75774.47006398083, -75757.0804067946, -75724.4245081454, -75829.83533499662, -75766.31167725465, -0.074, 0.84, 0.546, 192.0, 253.0, 176.0, 26.0, 64.0, 17.0, 16.0, 0.0, 0.0, 0.0, 1.7307450307229762E9, 0.0, 2024-11-04 15:30:30.722
9.0, -75608.48600965572, -75676.77058896668, -75742.9764560433, -75776.45936923736, -75759.02500856221, -75726.41381340192, -75831.69052978641, -75768.27863076671, -0.074, 0.84, 0.546, 192.0, 0.0, 0.0, 0.0, 0.0, 0.0, 0.0, 0.0, 0.0, 0.0, 1.7307450307270193E9, 0.0, 2024-11-04 15:30:30.727
10.0, -75612.30815795758, -75680.52568203518, -75746.75390085625, -75780.37092451703, -75762.84715686407, -75730.25831344823, -75835.51267808827, -75772.05607557966, -0.074, 0.84, 0.546, 192.0, 0.0, 0.0, 0.0, 0.0, 0.0, 0.0, 0.0, 0.0, 0.0, 1.7307450307312317E9, 0.0, 2024-11-04 15:30:30.731
11.0, -75614.6997946143, -75682.87261520298, -75749.01142704624, -75782.62845070702, -75765.26114526525, -75732.56054312713, -75837.85961125608, -75774.35830525856, -0.074, 0.84, 0.546, 192.0, 0.0, 0.0, 0.0, 0.0, 0.0, 0.0, 0.0, 0.0, 0.0, 1.73074503073503E9, 0.0, 2024-11-04 15:30:30.735
12.0, -75619.9971580502, -75688.32644085008, -75754.44290094888, -75787.94816588738, -75770.60321219006, -75737.85790656303, -75843.24638166981, -75779.72272392783, -0.074, 0.84, 0.546, 192.0, 0.0, 0.0, 0.0, 0.0, 0.0, 0.0, 0.0, 0.0, 0.0, 1.7307450307379808E9, 0.0, 2024-11-04 15:30:30.737
13.0, -75625.33922497502, -75693.6685077749, -75759.80731961815, -75793.24552932329, -75775.90057562597, -75743.13291825449, -75848.65550382799, -75785.02008736374, -0.074, 0.84, 0.546, 192.0, 0.0, 0.0, 0.0, 0.0, 0.0, 0.0, 0.0, 0.0, 0.0, 1.7307450307420976E9, 0.0, 2024-11-04 15:30:30.742
14.0, -75627.68615814282, -75696.0154409427, -75762.24365976377, -75795.68186946891, -75778.26986053823, -75745.52455491122, -75851.04714048472, -75787.41172402045, -0.074, 0.84, 0.546, 192.0, 0.0, 0.0, 0.0, 0.0, 0.0, 0.0, 0.0, 0.0, 0.0, 1.730745030746199E9, 0.0, 2024-11-04 15:30:30.746
15.0, -75631.46360295577, -75699.72583052228, -75766.06580806563, -75799.50401777077, -75782.06965709564, -75749.41375844643, -75854.8022335532, -75791.23387232231, -0.074, 0.84, 0.546, 192.0, 0.0, 0.0, 0.0, 0.0, 0.0, 0.0, 0.0, 0.0, 0.0, 1.73074503075008E9, 0.0, 2024-11-04 15:30:30.750
16.0, -75635.66573091337, -75703.92795847988, -75770.24558427877, -75803.75084921728, -75786.24943330878, -75753.59353465958, -75859.02671325525, -75795.41364853545, -0.074, 0.84, 0.546, 192.0, 0.0, 0.0, 0.0, 0.0, 0.0, 0.0, 0.0, 0.0, 0.0, 1.73074503075499E9, 0.0, 2024-11-04 15:30:30.754
17.0, -75638.75027164821, -75707.14660968144, -75773.24071803578, -75806.81303820766, -75789.37867753251, -75756.65572364995, -75862.02184701226, -75798.49818927029, -0.074, 0.84, 0.546, 192.0, 0.0, 0.0, 0.0, 0.0, 0.0, 0.0, 0.0, 0.0, 0.0, 1.730745030759108E9, 0.0, 2024-11-04 15:30:30.759
18.0, -75643.01945483917, -75711.52755159469, -75777.57695646012, -75811.21633186536, -75793.78197119021, -75761.05901730765, -75866.44749241442, -75802.9461864169, -0.068, 0.8320000000000001, 0.55, 192.0, 253.0, 224.0, 26.0, 0.0, 17.0, 48.0, 0.0, 0.0, 0.0, 1.7307450307632177E9, 0.0, 2024-11-04 15:30:30.763
19.0, -75647.89213513043, -75716.33317665258, -75782.40493326247, -75816.08901215662, -75798.58759624811, -75765.79758713217, -75871.32017270567, -75807.75181147478, -0.068, 0.8320000000000001, 0.55, 192.0, 0.0, 0.0, 0.0, 0.0, 0.0, 0.0, 0.0, 0.0, 0.0, 1.7307450307660017E9, 0.0, 2024-11-04 15:30:30.766
20.0, -75650.32847527605, -75718.7248133093, -75784.81892166364, -75818.43594532443, -75800.95688116037, -75768.16687204443, -75873.66710587348, -75810.16579987596, -0.068, 0.8320000000000001, 0.55, 192.0, 0.0, 0.0, 0.0, 0.0, 0.0, 0.0, 0.0, 0.0, 0.0, 1.730745030770183E9, 0.0, 2024-11-04 15:30:30.770
21.0, -75653.18949856634, -75721.5187813662, -75787.72464844283, -75821.27461687024, -75803.75084921728, -75771.00554359026, -75876.46107393039, -75812.98211967733, -0.068, 0.8320000000000001, 0.55, 192.0, 0.0, 0.0, 0.0, 0.0, 0.0, 0.0, 0.0, 0.0, 0.0, 1.7307450307742567E9, 0.0, 2024-11-04 15:30:30.774
22.0, -75657.6598474574, -75725.96677851281, -75792.2397008228, -75825.76731750576, -75808.2435498528, -75775.49824422578, -75880.95377456592, -75817.40776507948, -0.068, 0.8320000000000001, 0.55, 192.0, 0.0, 0.0, 0.0, 0.0, 0.0, 0.0, 0.0, 0.0, 0.0, 1.730745030778318E9, 0.0, 2024-11-04 15:30:30.778
23.0, -75662.89015565994, -75731.3311971821, -75797.47000902535, -75831.08703268612, -75813.51856154425, -75780.81795940614, -75886.34054497964, -75822.7945354932, -0.068, 0.8320000000000001, 0.55, 192.0, 0.0, 0.0, 0.0, 0.0, 0.0, 0.0, 0.0, 0.0, 0.0, 1.7307450307830968E9, 0.0, 2024-11-04 15:30:30.783
24.0, -75664.58888823855, -75733.00757801623, -75799.05698288167, -75832.74106177581, -75815.23964586732, -75782.49434024029, -75887.99457406934, -75824.42621283844, -0.068, 0.8320000000000001, 0.55, 192.0, 0.0, 0.0, 0.0, 0.0, 0.0, 0.0, 0.0, 0.0, 0.0, 1.7307450307870767E9, 0.0, 2024-11-04 15:30:30.787
25.0, -75667.62872548446, -75735.95800828433, -75802.05211663868, -75835.69149204392, -75818.16772439095, -75785.42241876393, -75891.0120595708, -75827.42134659545, -0.068, 0.8320000000000001, 0.55, 192.0, 0.0, 0.0, 0.0, 0.0, 0.0, 0.0, 0.0, 0.0, 0.0, 1.730745030790207E9, 0.0, 2024-11-04 15:30:30.790
26.0, -75671.42852204187, -75739.78015658619, -75805.87426494053, -75839.51364034577, -75822.01222443728, -75789.22221532134, -75894.8118561282, -75831.22114315286, -0.068, 0.8320000000000001, 0.55, 192.0, 0.0, 0.0, 0.0, 0.0, 0.0, 0.0, 0.0, 0.0, 0.0, 1.7307450307943351E9, 0.0, 2024-11-04 15:30:30.794
27.0, -75674.73658022124, -75743.28938046568, -75809.38348882002, -75842.93345724743, -75825.52144831675, -75792.6867357119, -75898.29872826324, -75834.61860831006, -0.068, 0.8320000000000001, 0.55, 192.0, 0.0, 0.0, 0.0, 0.0, 0.0, 0.0, 0.0, 0.0, 0.0, 1.7307450307981095E9, 0.0, 2024-11-04 15:30:30.798
28.0, -75678.02228665618, -75746.5750869006, -75812.73625048832, -75846.28621891573, -75828.76245126277, -75796.06184912466, -75901.58443469816, -75837.9490182339, -0.064, 0.838, 0.546, 192.0, 254.0, 0.0, 26.0, 48.0, 17.0, 16.0, 0.0, 0.0, 0.0, 1.7307450308022523E9, 0.0, 2024-11-04 15:30:30.802
29.0, -75680.99506866874, -75749.50316542425, -75815.66432901197, -75849.28135267274, -75831.75758501978, -75799.03463113721, -75904.55721671072, -75841.05591071318, -0.064, 0.838, 0.546, 192.0, 0.0, 0.0, 0.0, 0.0, 0.0, 0.0, 0.0, 0.0, 0.0, 1.73074503080628E9, 0.0, 2024-11-04 15:30:30.806
30.0, -75685.7112867488, -75754.1746800154, -75820.22408488084, -75853.90816377499, -75836.42909961095, -75803.68379398392, -75909.22873130188, -75845.59331483762, -0.064, 0.838, 0.546, 192.0, 0.0, 0.0, 0.0, 0.0, 0.0, 0.0, 0.0, 0.0, 0.0, 1.7307450308112535E9, 0.0, 2024-11-04 15:30:30.811
31.0, -75688.79582748364, -75757.23686900579, -75823.37568084904, -75857.01505625428, -75839.55834383468, -75806.85774169657, -75912.29092029226, -75848.61080033908, -0.064, 0.838, 0.546, 192.0, 0.0, 0.0, 0.0, 0.0, 0.0, 0.0, 0.0, 0.0, 0.0, 1.7307450308151808E9, 0.0, 2024-11-04 15:30:30.815
32.0, -75692.8191414856, -75761.14842428546, -75827.33193961764, -75860.9042597895, -75843.53695434773, -75810.79164872071, -75916.22482731639, -75852.67881782995, -0.064, 0.838, 0.546, 192.0, 0.0, 0.0, 0.0, 0.0, 0.0, 0.0, 0.0, 0.0, 0.0, 1.7307450308185213E9, 0.0, 2024-11-04 15:30:30.818
33.0, -75697.53535956566, -75765.84229062108, -75832.07050944216, -75865.62047786957, -75848.23082068334, -75815.41845982295, -75920.96339714092, -75857.32798067665, -0.064, 0.838, 0.546, 192.0, 0.0, 0.0, 0.0, 0.0, 0.0, 0.0, 0.0, 0.0, 0.0, 1.7307450308220632E9, 0.0, 2024-11-04 15:30:30.822
34.0, -75699.92699622238, -75768.18922378888, -75834.43979435442, -75868.0121145263, -75850.5554021067, -75817.78774473522, -75923.37738554209, -75859.71961733337, -0.064, 0.838, 0.546, 192.0, 0.0, 0.0, 0.0, 0.0, 0.0, 0.0, 0.0, 0.0, 0.0, 1.7307450308260229E9, 0.0, 2024-11-04 15:30:30.826
35.0, -75703.77149626869, -75771.98902034629, -75838.26194265627, -75871.8119110837, -75854.31049517519, -75821.60989303708, -75927.08777512166, -75863.63117261305, -0.064, 0.838, 0.546, 192.0, 0.0, 0.0, 0.0, 0.0, 0.0, 0.0, 0.0, 0.0, 0.0, 1.7307450308302023E9, 0.0, 2024-11-04 15:30:30.830
36.0, -75709.13591493797, -75777.42049424893, -75843.67106481447, -75877.22103324188, -75859.67491384446, -75827.01901519526, -75932.5192490243, -75868.95088779341, -0.064, 0.838, 0.546, 192.0, 0.0, 0.0, 0.0, 0.0, 0.0, 0.0, 0.0, 0.0, 0.0, 1.730745030834313E9, 0.0, 2024-11-04 15:30:30.834
37.0, -75711.41579287242, -75779.76742741674, -75845.99564623782, -75879.52326292077, -75862.02184701226, -75829.38830010752, -75934.7767752143, -75871.29782096122, -0.064, 0.838, 0.546, 192.0, 0.0, 0.0, 0.0, 0.0, 0.0, 0.0, 0.0, 0.0, 0.0, 1.730745030839304E9, 0.0, 2024-11-04 15:30:30.839
38.0, -75715.12618245199, -75783.41076176295, -75849.61662883958, -75883.12189377808, -75865.66518135849, -75832.96457922037, -75938.42010956051, -75874.91880356298, -0.06, 0.844, 0.542, 192.0, 254.0, 32.0, 26.0, 96.0, 16.0, 240.0, 0.0, 0.0, 0.0, 1.7307450308432968E9, 0.0, 2024-11-04 15:30:30.843
39.0, -75717.85309527554, -75786.09297109759, -75852.38824515203, -75885.89351009054, -75868.39209418203, -75835.69149204392, -75941.21407761742, -75877.69041987543, -0.06, 0.844, 0.542, 192.0, 0.0, 0.0, 0.0, 0.0, 0.0, 0.0, 0.0, 0.0, 0.0, 1.7307450308462284E9, 0.0, 2024-11-04 15:30:30.846
40.0, -75722.05522323314, -75790.27274731074, -75856.657428343, -75890.14034153704, -75872.661277373, -75839.89362000152, -75945.34915034166, -75881.93725132194, -0.06, 0.844, 0.542, 192.0, 0.0, 0.0, 0.0, 0.0, 0.0, 0.0, 0.0, 0.0, 0.0, 1.7307450308502097E9, 0.0, 2024-11-04 15:30:30.850
41.0, -75725.81031630162, -75794.07254386814, -75860.5019283893, -75893.85073111663, -75876.46107393039, -75843.73812004783, -75949.19365038797, -75885.71469613489, -0.06, 0.844, 0.542, 192.0, 0.0, 0.0, 0.0, 0.0, 0.0, 0.0, 0.0, 0.0, 0.0, 1.73074503085429E9, 0.0, 2024-11-04 15:30:30.854
42.0, -75727.6208076025, -75795.92773865792, -75862.31241969019, -75895.79533288424, -75878.24921348682, -75845.52625960424, -75951.07119692222, -75887.6145944136, -0.06, 0.844, 0.542, 192.0, 0.0, 0.0, 0.0, 0.0, 0.0, 0.0, 0.0, 0.0, 0.0, 1.7307450308582911E9, 0.0, 2024-11-04 15:30:30.858
43.0, -75730.68299659288, -75798.92287241494, -75865.32990519165, -75898.83517013016, -75881.3114024772, -75848.49904161681, -75954.15573765704, -75890.67678340398, -0.06, 0.844, 0.542, 192.0, 0.0, 0.0, 0.0, 0.0, 0.0, 0.0, 0.0, 0.0, 0.0, 1.730745030862302E9, 0.0, 2024-11-04 15:30:30.862
44.0, -75735.10864199503, -75803.393221306, -75869.7555505938, -75903.28316727676, -75885.7593996238, -75852.92468701895, -75958.5813830592, -75895.03537357275, -0.06, 0.844, 0.542, 192.0, 0.0, 0.0, 0.0, 0.0, 0.0, 0.0, 0.0, 0.0, 0.0, 1.7307450308673131E9, 0.0, 2024-11-04 15:30:30.867
45.0, -75739.13195599699, -75807.41653530796, -75873.73416110686, -75907.2170743009, -75889.80506537021, -75856.88094578755, -75962.44823484996, -75899.0139840858, -0.06, 0.844, 0.542, 192.0, 0.0, 0.0, 0.0, 0.0, 0.0, 0.0, 0.0, 0.0, 0.0, 1.7307450308712728E9, 0.0, 2024-11-04 15:30:30.871
46.0, -75742.26120022073, -75810.65753825397, -75876.88575707504, -75910.3686702691, -75892.93430959395, -75860.07724524465, -75965.71158954044, -75902.21028354291, -0.06, 0.844, 0.542, 192.0, 0.0, 0.0, 0.0, 0.0, 0.0, 0.0, 0.0, 0.0, 0.0, 1.730745030874566E9, 0.0, 2024-11-04 15:30:30.874
47.0, -75745.83747933358, -75814.23381736682, -75880.48438793235, -75913.94494938194, -75896.44353347344, -75863.67587610196, -75969.31022039775, -75905.83126614467, -0.06, 0.844, 0.542, 192.0, 0.0, 0.0, 0.0, 0.0, 0.0, 0.0, 0.0, 0.0, 0.0, 1.7307450308782594E9, 0.0, 2024-11-04 15:30:30.878
48.0, -75751.3807119585, -75819.86645696955, -75885.98291706835, -75919.4658302624, -75902.03146958727, -75869.2638122158, -75974.8311012782, -75911.30744353622, -0.066, 0.844, 0.544, 192.0, 253.0, 240.0, 26.0, 96.0, 17.0, 0.0, 0.0, 0.0, 0.0, 1.730745030882081E9, 0.0, 2024-11-04 15:30:30.882
49.0, -75756.40985446094, -75824.82854423864, -75890.96735608189, -75924.40556578703, -75907.0159086008, -75874.24825122932, -75979.81554029173, -75916.2695308053, -0.066, 0.844, 0.544, 192.0, 0.0, 0.0, 0.0, 0.0, 0.0, 0.0, 0.0, 0.0, 0.0, 1.7307450308862233E9, 0.0, 2024-11-04 15:30:30.886
50.0, -75760.8354998631, -75829.16478266296, -75895.4153532285, -75928.80885944473, -75911.46390574741, -75878.65154488702, -75984.24118569389, -75920.73987969635, -0.066, 0.844, 0.544, 192.0, 0.0, 0.0, 0.0, 0.0, 0.0, 0.0, 0.0, 0.0, 0.0, 1.7307450308904088E9, 0.0, 2024-11-04 15:30:30.890
51.0, -75763.27184000872, -75831.62347455305, -75897.89639686304, -75931.28990307926, -75913.87789414858, -75881.13258852156, -75986.74458107288, -75923.17621984199, -0.066, 0.844, 0.544, 192.0, 0.0, 0.0, 0.0, 0.0, 0.0, 0.0, 0.0, 0.0, 0.0, 1.7307450308953595E9, 0.0, 2024-11-04 15:30:30.895
52.0, -75765.73053189881, -75833.99275946531, -75900.39979224202, -75933.65918799152, -75916.2695308053, -75883.47952168937, -75989.09151424069, -75925.54550475425, -0.066, 0.844, 0.544, 192.0, 0.0, 0.0, 0.0, 0.0, 0.0, 0.0, 0.0, 0.0, 0.0, 1.730745030898081E9, 0.0, 2024-11-04 15:30:30.898
53.0, -75769.61973543403, -75837.88196300053, -75904.19958879943, -75937.66015024902, -75920.20343782943, -75887.39107696904, -75992.95836603145, -75929.45706003394, -0.066, 0.844, 0.544, 192.0, 0.0, 0.0, 0.0, 0.0, 0.0, 0.0, 0.0, 0.0, 0.0, 1.730745030902094E9, 0.0, 2024-11-04 15:30:30.902
54.0, -75774.55947095866, -75842.84405026962, -75909.07226909068, -75942.62223751811, -75925.1655250985, -75892.37551598258, -75998.03221202281, -75934.39679555855, -0.066, 0.844, 0.544, 192.0, 0.0, 0.0, 0.0, 0.0, 0.0, 0.0, 0.0, 0.0, 0.0, 1.7307450309062731E9, 0.0, 2024-11-04 15:30:30.906
55.0, -75777.88988088249, -75846.152108449, -75912.49208599236, -75945.97499918641, -75928.54063851126, -75895.8176846287, -76001.42967718001, -75937.79426071576, -0.066, 0.844, 0.544, 192.0, 0.0, 0.0, 0.0, 0.0, 0.0, 0.0, 0.0, 0.0, 0.0, 1.7307450309103608E9, 0.0, 2024-11-04 15:30:30.910
56.0, -75780.8850146395, -75849.28135267274, -75915.55427498273, -75949.08189166569, -75931.64753099055, -75898.90222536352, -76004.51421791485, -75940.90115319505, -0.066, 0.844, 0.544, 192.0, 0.0, 0.0, 0.0, 0.0, 0.0, 0.0, 0.0, 0.0, 0.0, 1.730745030914517E9, 0.0, 2024-11-04 15:30:30.914
57.0, -75783.8354449076, -75852.34354166313, -75918.52705699528, -75952.03232193379, -75934.50855428082, -75901.89735912054, -76007.41994469405, -75943.78452822978, -0.066, 0.844, 0.544, 192.0, 0.0, 0.0, 0.0, 0.0, 0.0, 0.0, 0.0, 0.0, 0.0, 1.7307450309183724E9, 0.0, 2024-11-04 15:30:30.918
58.0, -75787.29996529818, -75855.67395158696, -75921.9692256414, -75955.4744905799, -75937.9730746714, -75905.33952776666, -76010.88446508461, -75947.18199338698, -0.064, 0.834, 0.544, 192.0, 254.0, 0.0, 26.0, 16.0, 17.0, 0.0, 0.0, 0.0, 0.0, 1.7307450309234352E9, 0.0, 2024-11-04 15:30:30.923
59.0, -75791.56914848914, -75859.98783826684, -75926.171353599, -75959.74367377088, -75942.35401658464, -75909.63106270207, -76015.17600002003, -75951.42882483349, -0.064, 0.834, 0.544, 192.0, 0.0, 0.0, 0.0, 0.0, 0.0, 0.0, 0.0, 0.0, 0.0, 1.7307450309263477E9, 0.0, 2024-11-04 15:30:30.926
60.0, -75794.7877996907, -75863.22884121285, -75929.54646701175, -75962.9846767169, -75945.63972301957, -75912.82736215918, -76018.41700296605, -75954.71453126843, -0.064, 0.834, 0.544, 192.0, 0.0, 0.0, 0.0, 0.0, 0.0, 0.0, 0.0, 0.0, 0.0, 1.7307450309294024E9, 0.0, 2024-11-04 15:30:30.929
61.0, -75798.9899276483, -75867.34156219263, -75933.68153973599, -75967.1868046745, -75949.81949923272, -75916.96243488342, -76022.66383441255, -75958.87195573711, -0.064, 0.834, 0.544, 192.0, 0.0, 0.0, 0.0, 0.0, 0.0, 0.0, 0.0, 0.0, 0.0, 1.7307450309343948E9, 0.0, 2024-11-04 15:30:30.934
62.0, -75803.34851781708, -75871.8119110837, -75938.08483339367, -75971.61245007665, -75954.26749637933, -75921.3657285411, -76027.0894798147, -75963.31995288371, -0.064, 0.834, 0.544, 192.0, 0.0, 0.0, 0.0, 0.0, 0.0, 0.0, 0.0, 0.0, 0.0, 1.730745030944159E9, 0.0, 2024-11-04 15:30:30.944
63.0, -75805.96367191836, -75874.3600099516, -75940.6776357505, -75974.182900689, -75956.77089175832, -75923.93617915348, -76029.5928751937, -75965.89040349609, -0.064, 0.834, 0.544, 192.0, 0.0, 0.0, 0.0, 0.0, 0.0, 0.0, 0.0, 0.0, 0.0, 1.7307450309444215E9, 0.0, 2024-11-04 15:30:30.944
64.0, -75808.42236380844, -75876.79635009723, -75943.09162415167, -75976.57453734572, -75959.09547318166, -75926.32781581019, -76032.00686359488, -75968.37144713062, -0.064, 0.834, 0.544, 192.0, 0.0, 0.0, 0.0, 0.0, 0.0, 0.0, 0.0, 0.0, 0.0, 1.730745030946432E9, 0.0, 2024-11-04 15:30:30.946
65.0, -75812.33391908812, -75880.57379491017, -75946.91377245352, -75980.35198215867, -75962.91762148353, -75930.23937108986, -76035.82901189674, -75972.12654019911, -0.064, 0.834, 0.544, 192.0, 0.0, 0.0, 0.0, 0.0, 0.0, 0.0, 0.0, 0.0, 0.0, 1.7307450309513667E9, 0.0, 2024-11-04 15:30:30.951
66.0, -75816.6925092569, -75884.95473682342, -75951.31706611122, -75984.75527581637, -75967.34326688567, -75934.55325776974, -76040.16525032106, -75976.46277862343, -0.064, 0.834, 0.544, 192.0, 0.0, 0.0, 0.0, 0.0, 0.0, 0.0, 0.0, 0.0, 0.0, 1.730745030954456E9, 0.0, 2024-11-04 15:30:30.954
67.0, -75819.48647731383, -75887.9051670915, -75954.13338591259, -75987.70570608447, -75970.1819384315, -75937.34722582666, -76043.00392186688, -75979.39085714708, -0.064, 0.834, 0.544, 192.0, 0.0, 0.0, 0.0, 0.0, 0.0, 0.0, 0.0, 0.0, 0.0, 1.7307450309583368E9, 0.0, 2024-11-04 15:30:30.958
68.0, -75821.85576222609, -75890.18504502595, -75956.50267082485, -75990.09734274118, -75972.57357508822, -75939.69415899446, -76045.37320677916, -75981.76014205934, -0.066, 0.836, 0.546, 192.0, 253.0, 240.0, 26.0, 32.0, 17.0, 16.0, 0.0, 0.0, 0.0, 1.7307450309624853E9, 0.0, 2024-11-04 15:30:30.962
69.0, -75825.67791052794, -75893.98484158335, -75960.3248191267, -75993.80773232075, -75976.35101990117, -75943.51630729632, -76049.21770682547, -75985.62699385012, -0.066, 0.836, 0.546, 192.0, 0.0, 0.0, 0.0, 0.0, 0.0, 0.0, 0.0, 0.0, 0.0, 1.7307450309663928E9, 0.0, 2024-11-04 15:30:30.966
70.0, -75830.90821873047, -75899.25985327481, -75965.62218256261, -75999.08274401221, -75981.58132810371, -75948.90307771004, -76054.51507026138, -75990.92435728603, -0.066, 0.836, 0.546, 192.0, 0.0, 0.0, 0.0, 0.0, 0.0, 0.0, 0.0, 0.0, 0.0, 1.7307450309703388E9, 0.0, 2024-11-04 15:30:30.970
71.0, -75833.61277980957, -75902.00911784281, -75968.34909538616, -76001.87671206912, -75984.30824092725, -75951.54058355578, -76057.17492785155, -75993.56186313175, -0.066, 0.836, 0.546, 192.0, 0.0, 0.0, 0.0, 0.0, 0.0, 0.0, 0.0, 0.0, 0.0, 1.730745030974498E9, 0.0, 2024-11-04 15:30:30.974
72.0, -75837.79255602272, -75906.07713533367, -75972.50651985485, -76005.96708130445, -75988.4880171404, -75955.76506325783, -76061.33235232024, -75997.80869457826, -0.066, 0.836, 0.546, 192.0, 0.0, 0.0, 0.0, 0.0, 0.0, 0.0, 0.0, 0.0, 0.0, 1.7307450309794872E9, 0.0, 2024-11-04 15:30:30.979
73.0, -75840.13948919052, -75908.40171675703, -75974.87580476711, -76008.31401447226, -75990.94670903048, -75958.13434817009, -76063.7016372325, -76000.17797949052, -0.066, 0.836, 0.546, 192.0, 0.0, 0.0, 0.0, 0.0, 0.0, 0.0, 0.0, 0.0, 0.0, 1.7307450309823527E9, 0.0, 2024-11-04 15:30:30.982
74.0, -75844.05104447021, -75912.24621680334, -75978.69795306897, -76012.20321800747, -75994.72415384343, -75961.91179298304, -76067.56848902327, -76004.00012779237, -0.066, 0.836, 0.546, 192.0, 0.0, 0.0, 0.0, 0.0, 0.0, 0.0, 0.0, 0.0, 0.0, 1.73074503098526E9, 0.0, 2024-11-04 15:30:30.985
75.0, -75848.0520067277, -75916.2695308053, -75982.69891532647, -76016.13712503162, -75998.5910056342, -75965.89040349609, -76071.4576925585, -76007.93403481651, -0.066, 0.836, 0.546, 192.0, 0.0, 0.0, 0.0, 0.0, 0.0, 0.0, 0.0, 0.0, 0.0, 1.730745030990374E9, 0.0, 2024-11-04 15:30:30.990
76.0, -75852.2988381742, -75920.44930701844, -75986.81163630624, -76020.38395647812, -76002.8378370807, -75970.04782796477, -76075.68217226055, -76012.15851451857, -0.066, 0.836, 0.546, 192.0, 0.0, 0.0, 0.0, 0.0, 0.0, 0.0, 0.0, 0.0, 0.0, 1.7307450309944983E9, 0.0, 2024-11-04 15:30:30.994
77.0, -75856.74683532081, -75924.94200765395, -75991.32668868623, -76024.80960188028, -76007.26348248286, -75974.49582511137, -76080.15252115161, -76016.53945643181, -0.066, 0.836, 0.546, 192.0, 0.0, 0.0, 0.0, 0.0, 0.0, 0.0, 0.0, 0.0, 0.0, 1.7307450309982646E9, 0.0, 2024-11-04 15:30:30.998
78.0, -75860.0548935002, -75928.25006583334, -75994.6347468656, -76028.1400118041, -76010.5938924067, -75977.84858677967, -76083.57233805327, -76019.98162507793, -0.06, 0.838, 0.55, 192.0, 254.0, 32.0, 26.0, 48.0, 17.0, 48.0, 0.0, 0.0, 0.0, 1.7307450310023737E9, 0.0, 2024-11-04 15:30:31.002
79.0, -75862.20066096791, -75930.50759202334, -75996.84756956669, -76030.28577927181, -76012.82906685222, -75980.10611296966, -76085.80751249881, -76022.2391512679, -0.06, 0.838, 0.55, 192.0, 0.0, 0.0, 0.0, 0.0, 0.0, 0.0, 0.0, 0.0, 0.0, 1.730745031006482E9, 0.0, 2024-11-04 15:30:31.006
80.0, -75864.81581506919, -75933.1227461246, -75999.41802017904, -76032.9009333731, -76015.46657269796, -75982.72126707093, -76088.35561136671, -76024.78725013582, -0.06, 0.838, 0.55, 192.0, 0.0, 0.0, 0.0, 0.0, 0.0, 0.0, 0.0, 0.0, 0.0, 1.7307450310102394E9, 0.0, 2024-11-04 15:30:31.010
81.0, -75870.73902734983, -75938.95655142743, -76005.22947373742, -76038.8017939093, -76021.36743323415, -75988.59977586268, -76094.18941666954, -76030.62105543865, -0.06, 0.838, 0.55, 192.0, 0.0, 0.0, 0.0, 0.0, 0.0, 0.0, 0.0, 0.0, 0.0, 1.7307450310132933E9, 0.0, 2024-11-04 15:30:31.013
82.0, -75874.27060297377, -75942.46577530692, -76008.80575285027, -76042.33336953323, -76024.89900885809, -75992.0866479977, -76097.7656957824, -76034.10792757368, -0.06, 0.838, 0.55, 192.0, 0.0, 0.0, 0.0, 0.0, 0.0, 0.0, 0.0, 0.0, 0.0, 1.7307450310173943E9, 0.0, 2024-11-04 15:30:31.017
83.0, -75877.22103324188, -75945.50561255284, -76011.82323835173, -76045.39555852361, -76027.8941426151, -75995.0817817547, -76100.85023651723, -76037.19246830851, -0.06, 0.838, 0.55, 192.0, 0.0, 0.0, 0.0, 0.0, 0.0, 0.0, 0.0, 0.0, 0.0, 1.7307450310223274E9, 0.0, 2024-11-04 15:30:31.022
84.0, -75878.96446930939, -75947.29375210927, -76013.65608139707, -76047.16134633558, -76029.61522693816, -75996.80286607776, -76102.57132084029, -76038.98060786494, -0.06, 0.838, 0.55, 192.0, 0.0, 0.0, 0.0, 0.0, 0.0, 0.0, 0.0, 0.0, 0.0, 1.7307450310263093E9, 0.0, 2024-11-04 15:30:31.026
85.0, -75882.22782399987, -75950.51240331083, -76016.87473259863, -76050.31294230378, -76032.7444711619, -76000.11092425715, -76105.7676202974, -76042.17690732205, -0.06, 0.838, 0.55, 192.0, 0.0, 0.0, 0.0, 0.0, 0.0, 0.0, 0.0, 0.0, 0.0, 1.730745031030426E9, 0.0, 2024-11-04 15:30:31.030
86.0, -75887.88281534705, -75956.25680163584, -76022.55207569028, -76056.01263713988, -76038.48886948692, -76005.7435638599, -76111.4673151335, -76047.87660215814, -0.06, 0.838, 0.55, 192.0, 0.0, 0.0, 0.0, 0.0, 0.0, 0.0, 0.0, 0.0, 0.0, 1.7307450310346544E9, 0.0, 2024-11-04 15:30:31.034
87.0, -75891.97318458238, -75960.3248191267, -76026.68714841451, -76060.1477098641, -76042.69099744452, -76009.87863658412, -76115.58003611327, -76051.92226790456, -0.06, 0.838, 0.55, 192.0, 0.0, 0.0, 0.0, 0.0, 0.0, 0.0, 0.0, 0.0, 0.0, 1.730745031037326E9, 0.0, 2024-11-04 15:30:31.037
88.0, -75895.70592590641, -75963.99050521739, -76030.28577927181, -76063.81339595478, -76046.28962830182, -76013.49961918588, -76119.26807394839, -76055.58795399523, -0.056, 0.838, 0.548, 192.0, 254.0, 64.0, 26.0, 48.0, 17.0, 32.0, 0.0, 0.0, 0.0, 1.7307450310415304E9, 0.0, 2024-11-04 15:30:31.041
89.0, -75899.97510909737, -75968.2820401528, -76034.55496246279, -76068.17198612356, -76050.53645974833, -76017.70174714348, -76123.44785016154, -76059.85713718619, -0.056, 0.838, 0.548, 192.0, 0.0, 0.0, 0.0, 0.0, 0.0, 0.0, 0.0, 0.0, 0.0, 1.730745031046481E9, 0.0, 2024-11-04 15:30:31.046
90.0, -75902.07617307617, -75970.40545587605, -76036.7454334194, -76070.31775359127, -76052.68222721604, -76019.82516286673, -76125.59361762925, -76062.0029046539, -0.056, 0.838, 0.548, 192.0, 0.0, 0.0, 0.0, 0.0, 0.0, 0.0, 0.0, 0.0, 0.0, 1.7307450310505505E9, 0.0, 2024-11-04 15:30:31.050
91.0, -75904.60192019962, -75972.90885125505, -76039.22647705395, -76072.82114897027, -76055.20797433949, -76022.35090999019, -76128.1640682416, -76064.46159654399, -0.056, 0.838, 0.548, 192.0, 0.0, 0.0, 0.0, 0.0, 0.0, 0.0, 0.0, 0.0, 0.0, 1.730745031054534E9, 0.0, 2024-11-04 15:30:31.054
92.0, -75909.58635921316, -75977.84858677967, -76044.25561955638, -76077.82793972826, -76060.23711684193, -76027.40240423709, -76133.2155624885, -76069.49073904642, -0.056, 0.838, 0.548, 192.0, 0.0, 0.0, 0.0, 0.0, 0.0, 0.0, 0.0, 0.0, 0.0, 1.730745031058431E9, 0.0, 2024-11-04 15:30:31.058
93.0, -75914.41433601551, -75982.76597055983, -76049.12829984764, -76082.63356478616, -76065.13214887764, -76032.25273278389, -76138.11059452422, -76074.45282631551, -0.056, 0.838, 0.548, 192.0, 0.0, 0.0, 0.0, 0.0, 0.0, 0.0, 0.0, 0.0, 0.0, 1.7307450310615897E9, 0.0, 2024-11-04 15:30:31.061
94.0, -75918.34824303964, -75986.72222932843, -76053.01750338287, -76086.50041657692, -76068.99900066841, -76036.20899155247, -76141.977446315, -76078.36438159518, -0.056, 0.838, 0.548, 192.0, 0.0, 0.0, 0.0, 0.0, 0.0, 0.0, 0.0, 0.0, 0.0, 1.7307450310653288E9, 0.0, 2024-11-04 15:30:31.065
95.0, -75920.76223144082, -75989.04681075178, -76055.43149178404, -76088.93675672254, -76071.43534081405, -76038.6453316981, -76144.36908297171, -76080.68896301853, -0.056, 0.838, 0.548, 192.0, 0.0, 0.0, 0.0, 0.0, 0.0, 0.0, 0.0, 0.0, 0.0, 1.730745031069376E9, 0.0, 2024-11-04 15:30:31.069
96.0, -75923.8691239201, -75992.22075846443, -76058.6501429856, -76092.08835269074, -76074.58693678225, -76041.72987243293, -76147.49832719546, -76083.84055898673, -0.056, 0.838, 0.548, 192.0, 0.0, 0.0, 0.0, 0.0, 0.0, 0.0, 0.0, 0.0, 0.0, 1.730745031073425E9, 0.0, 2024-11-04 15:30:31.073
97.0, -75926.28311232128, -75994.72415384343, -76061.06413138678, -76094.59174806974, -76077.00092518341, -76044.18856432302, -76149.86761210772, -76086.25454738791, -0.056, 0.838, 0.548, 192.0, 0.0, 0.0, 0.0, 0.0, 0.0, 0.0, 0.0, 0.0, 0.0, 1.7307450310784569E9, 0.0, 2024-11-04 15:30:31.078
98.0, -75929.9711501564, -75998.41219167855, -76064.707465733, -76098.2127306715, -76080.66661127408, -76047.94365739152, -76153.53329819838, -76089.94258522303, -0.058, 0.842, 0.548, 192.0, 254.0, 48.0, 26.0, 80.0, 17.0, 32.0, 0.0, 0.0, 0.0, 1.7307450310823364E9, 0.0, 2024-11-04 15:30:31.082
99.0, -75934.173278114, -76002.52491265832, -76068.86489020169, -76102.39250688464, -76084.77933225386, -76052.07873011574, -76157.78012964489, -76094.14471318063, -0.058, 0.842, 0.548, 192.0, 0.0, 0.0, 0.0, 0.0, 0.0, 0.0, 0.0, 0.0, 0.0, 1.7307450310864987E9, 0.0, 2024-11-04 15:30:31.086
100.0, -75937.63779850457, -76005.92237781553, -76072.28470710335, -76105.83467553076, -76088.19914915552, -76055.43149178404, -76161.24465003547, -76097.58688182675, -0.058, 0.842, 0.548, 192.0, 0.0, 0.0, 0.0, 0.0, 0.0, 0.0, 0.0, 0.0, 0.0, 1.7307450310894852E9, 0.0, 2024-11-04 15:30:31.089
101.0, -75942.75634798483, -76011.10798252917, -76077.42560832806, -76110.99792849993, -76093.3624021247, -76060.5053377754, -76166.31849602681, -76102.68307956256, -0.058, 0.842, 0.548, 192.0, 0.0, 0.0, 0.0, 0.0, 0.0, 0.0, 0.0, 0.0, 0.0, 1.730745031093436E9, 0.0, 2024-11-04 15:30:31.093
102.0, -75948.47839456539, -76016.80767736527, -76083.14765490862, -76116.71997508049, -76099.08444870525, -76066.27208784486, -76172.04054260737, -76108.42747788757, -0.058, 0.842, 0.548, 192.0, 0.0, 0.0, 0.0, 0.0, 0.0, 0.0, 0.0, 0.0, 0.0, 1.7307450310972955E9, 0.0, 2024-11-04 15:30:31.097
103.0, -75952.83698473418, -76021.12156404514, -76087.52859682187, -76121.01151001592, -76103.4653906185, -76070.72008499147, -76176.44383626507, -76112.85312328972, -0.058, 0.842, 0.548, 192.0, 0.0, 0.0, 0.0, 0.0, 0.0, 0.0, 0.0, 0.0, 0.0, 1.7307450311014233E9, 0.0, 2024-11-04 15:30:31.101
104.0, -75955.74271151338, -76023.96023559097, -76090.34491662323, -76123.87253330619, -76106.37111739769, -76073.62581177066, -76179.26015606645, -76115.71414658001, -0.058, 0.842, 0.548, 192.0, 0.0, 0.0, 0.0, 0.0, 0.0, 0.0, 0.0, 0.0, 0.0, 1.730745031106474E9, 0.0, 2024-11-04 15:30:31.106
105.0, -75956.77089175832, -76025.05547106928, -76091.52955907937, -76125.05717576233, -76107.44400113155, -76074.74339899342, -76180.46715026702, -76116.76467856941, -0.058, 0.842, 0.548, 192.0, 0.0, 0.0, 0.0, 0.0, 0.0, 0.0, 0.0, 0.0, 0.0, 1.7307450311104956E9, 0.0, 2024-11-04 15:30:31.110
106.0, -75962.80586276125, -76031.06809032775, -76097.6092335712, -76131.13685025416, -76113.45662039002, -76080.68896301853, -76186.45741778106, -76122.79964957233, -0.058, 0.842, 0.548, 192.0, 0.0, 0.0, 0.0, 0.0, 0.0, 0.0, 0.0, 0.0, 0.0, 1.730745031114633E9, 0.0, 2024-11-04 15:30:31.114
107.0, -75966.96328722994, -76035.27021828535, -76101.65489931761, -76135.29427472285, -76117.72580358098, -76084.86873923168, -76190.65954573864, -76127.00177752993, -0.058, 0.842, 0.548, 192.0, 0.0, 0.0, 0.0, 0.0, 0.0, 0.0, 0.0, 0.0, 0.0, 1.730745031117633E9, 0.0, 2024-11-04 15:30:31.117
108.0, -75970.1819384315, -76038.48886948692, -76104.94060575255, -76138.4682224355, -76120.92210303809, -76088.15444566662, -76193.90054868467, -76130.30983570933, -0.06, 0.84, 0.548, 192.0, 254.0, 32.0, 26.0, 64.0, 17.0, 32.0, 0.0, 0.0, 0.0, 1.7307450311216075E9, 0.0, 2024-11-04 15:30:31.121
109.0, -75971.70185705446, -76040.0981950877, -76106.43817263105, -76140.09989978075, -76122.41966991659, -76089.65201254512, -76195.3310603298, -76131.87445782119, -0.06, 0.84, 0.548, 192.0, 0.0, 0.0, 0.0, 0.0, 0.0, 0.0, 0.0, 0.0, 0.0, 1.7307450311254673E9, 0.0, 2024-11-04 15:30:31.125
110.0, -75976.75335130136, -76045.12733759015, -76111.40025990013, -76145.15139402765, -76127.4711641635, -76094.6588033031, -76200.42725806561, -76136.88124857919, -0.06, 0.84, 0.548, 192.0, 0.0, 0.0, 0.0, 0.0, 0.0, 0.0, 0.0, 0.0, 0.0, 1.7307450311296372E9, 0.0, 2024-11-04 15:30:31.129
111.0, -75979.36850540263, -76047.69778820251, -76114.08246923477, -76147.72184464001, -76130.13102175368, -76097.25160565993, -76202.99770867798, -76139.474050936, -0.06, 0.84, 0.548, 192.0, 0.0, 0.0, 0.0, 0.0, 0.0, 0.0, 0.0, 0.0, 0.0, 1.7307450311345456E9, 0.0, 2024-11-04 15:30:31.134
112.0, -75983.48122638241, -76051.78815743783, -76118.17283847008, -76151.74515864196, -76134.2660944779, -76101.3643266397, -76207.06572616885, -76143.58677191577, -0.06, 0.84, 0.548, 192.0, 0.0, 0.0, 0.0, 0.0, 0.0, 0.0, 0.0, 0.0, 0.0, 1.7307450311387331E9, 0.0, 2024-11-04 15:30:31.138
113.0, -75986.52106362833, -76054.8503464282, -76121.1679722271, -76154.82969937679, -76137.23887649046, -76104.53827435235, -76210.21732213705, -76146.64896090615, -0.06, 0.84, 0.548, 192.0, 0.0, 0.0, 0.0, 0.0, 0.0, 0.0, 0.0, 0.0, 0.0, 1.7307450311415772E9, 0.0, 2024-11-04 15:30:31.141
114.0, -75990.0302875078, -76058.33721856323, -76124.72189959549, -76158.29421976737, -76140.7257486255, -76108.04749823183, -76213.77124950543, -76150.11348129672, -0.06, 0.84, 0.548, 192.0, 0.0, 0.0, 0.0, 0.0, 0.0, 0.0, 0.0, 0.0, 0.0, 1.7307450311455083E9, 0.0, 2024-11-04 15:30:31.145
115.0, -75995.35000268818, -76063.6569337436, -76130.08631826476, -76163.59158320328, -76146.04546380586, -76113.25545468992, -76219.06861294134, -76155.45554822154, -0.06, 0.84, 0.548, 192.0, 0.0, 0.0, 0.0, 0.0, 0.0, 0.0, 0.0, 0.0, 0.0, 1.7307450311495435E9, 0.0, 2024-11-04 15:30:31.149
116.0, -75998.85922656766, -76067.16615762308, -76133.64024563316, -76167.21256580504, -76149.64409466316, -76116.83173380277, -76222.53313333192, -76159.03182733439, -0.06, 0.84, 0.548, 192.0, 0.0, 0.0, 0.0, 0.0, 0.0, 0.0, 0.0, 0.0, 0.0, 1.7307450311536708E9, 0.0, 2024-11-04 15:30:31.153
117.0, -76000.11092425715, -76068.44020705704, -76134.8248880893, -76168.39720826116, -76150.94049584157, -76118.0163762589, -76223.71777578804, -76160.30587676834, -0.06, 0.84, 0.548, 192.0, 0.0, 0.0, 0.0, 0.0, 0.0, 0.0, 0.0, 0.0, 0.0, 1.7307450311574256E9, 0.0, 2024-11-04 15:30:31.157
118.0, -76004.0895347702, -76072.46352105899, -76138.84820209125, -76172.3311152853, -76154.8744028657, -76121.95028328303, -76227.74108979, -76164.21743204803, -0.062, 0.834, 0.542, 192.0, 254.0, 16.0, 26.0, 16.0, 16.0, 240.0, 0.0, 0.0, 0.0, 1.7307450311624804E9, 0.0, 2024-11-04 15:30:31.162
119.0, -76008.82810459472, -76077.1573873946, -76143.60912366022, -76177.09203685427, -76159.63532443468, -76126.6665013631, -76232.52436310344, -76168.86659489473, -0.062, 0.834, 0.542, 192.0, 0.0, 0.0, 0.0, 0.0, 0.0, 0.0, 0.0, 0.0, 0.0, 1.730745031166506E9, 0.0, 2024-11-04 15:30:31.166
120.0, -76011.62207265163, -76079.88430021815, -76146.31368473932, -76179.84130142228, -76162.29518202486, -76129.43811767556, -76235.22892418253, -76171.70526644055, -0.062, 0.834, 0.542, 192.0, 0.0, 0.0, 0.0, 0.0, 0.0, 0.0, 0.0, 0.0, 0.0, 1.7307450311697247E9, 0.0, 2024-11-04 15:30:31.169
121.0, -76016.36064247617, -76084.57816655377, -76151.0746063083, -76184.60222299126, -76167.01140010494, -76134.17668750009, -76239.92279051815, -76176.35442928725, -0.062, 0.834, 0.542, 192.0, 0.0, 0.0, 0.0, 0.0, 0.0, 0.0, 0.0, 0.0, 0.0, 1.7307450311737213E9, 0.0, 2024-11-04 15:30:31.173
122.0, -76021.09921230069, -76089.36143986719, -76155.83552787728, -76189.38549630469, -76171.727618185, -76138.91525732461, -76244.84017429831, -76181.13770260068, -0.062, 0.834, 0.542, 192.0, 0.0, 0.0, 0.0, 0.0, 0.0, 0.0, 0.0, 0.0, 0.0, 1.7307450311777909E9, 0.0, 2024-11-04 15:30:31.177
123.0, -76022.46266871247, -76090.68019279007, -76157.19898428905, -76190.74895271647, -76173.15812983015, -76140.41282420311, -76246.18127896563, -76182.47880726801, -0.062, 0.834, 0.542, 192.0, 0.0, 0.0, 0.0, 0.0, 0.0, 0.0, 0.0, 0.0, 0.0, 1.7307450311815157E9, 0.0, 2024-11-04 15:30:31.181
124.0, -76025.23428502493, -76093.51886433589, -76159.90354536814, -76193.49821728448, -76175.9297461426, -76143.20679226003, -76248.88584004472, -76185.22807183601, -0.062, 0.834, 0.542, 192.0, 0.0, 0.0, 0.0, 0.0, 0.0, 0.0, 0.0, 0.0, 0.0, 1.7307450311854067E9, 0.0, 2024-11-04 15:30:31.185
125.0, -76030.442241483, -76098.77152428289, -76165.1785570596, -76198.79558072038, -76181.1824060896, -76148.39239697366, -76254.13849999172, -76190.54778701637, -0.062, 0.834, 0.542, 192.0, 0.0, 0.0, 0.0, 0.0, 0.0, 0.0, 0.0, 0.0, 0.0, 1.7307450311905608E9, 0.0, 2024-11-04 15:30:31.190
126.0, -76034.21968629595, -76102.4148586291, -76168.86659489473, -76202.4836185555, -76184.91514741363, -76152.03573131988, -76257.82653782684, -76194.2805283404, -0.062, 0.834, 0.542, 192.0, 0.0, 0.0, 0.0, 0.0, 0.0, 0.0, 0.0, 0.0, 0.0, 1.7307450311944053E9, 0.0, 2024-11-04 15:30:31.194
127.0, -76037.52774447534, -76105.72291680847, -76172.21935656302, -76205.72462150152, -76188.22320559302, -76155.38849298818, -76261.11224426178, -76197.58858651979, -0.062, 0.834, 0.542, 192.0, 0.0, 0.0, 0.0, 0.0, 0.0, 0.0, 0.0, 0.0, 0.0, 1.7307450311975121E9, 0.0, 2024-11-04 15:30:31.197
128.0, -76040.58993346572, -76108.80745754331, -76175.32624904231, -76208.80916223636, -76191.35244981677, -76158.45068197855, -76264.28619197443, -76200.65077551018, -0.062, 0.846, 0.546, 192.0, 254.0, 16.0, 26.0, 112.0, 17.0, 16.0, 0.0, 0.0, 0.0, 1.7307450312014568E9, 0.0, 2024-11-04 15:30:31.201
129.0, -76044.74735793441, -76112.98723375646, -76179.483673511, -76212.9442349606, -76195.42046730763, -76162.54105121388, -76268.48831993203, -76204.80819997886, -0.062, 0.846, 0.546, 192.0, 0.0, 0.0, 0.0, 0.0, 0.0, 0.0, 0.0, 0.0, 0.0, 1.7307450312055607E9, 0.0, 2024-11-04 15:30:31.205
130.0, -76049.17300333656, -76117.43523090307, -76183.88696716868, -76217.45928734056, -76199.82376096533, -76166.96669661603, -76272.91396533418, -76209.23384538101, -0.062, 0.846, 0.546, 192.0, 0.0, 0.0, 0.0, 0.0, 0.0, 0.0, 0.0, 0.0, 0.0, 1.7307450312096384E9, 0.0, 2024-11-04 15:30:31.209
131.0, -76054.29155281682, -76122.64318736114, -76189.07257188232, -76222.64489205419, -76205.07642091232, -76172.15230132965, -76278.09957004781, -76214.41945009463, -0.062, 0.846, 0.546, 192.0, 0.0, 0.0, 0.0, 0.0, 0.0, 0.0, 0.0, 0.0, 0.0, 1.7307450312136655E9, 0.0, 2024-11-04 15:30:31.213
132.0, -76056.57143075127, -76124.87836180668, -76191.33009807231, -76224.90241824418, -76207.31159535785, -76174.4321792641, -76280.37944798225, -76216.65462454017, -0.062, 0.846, 0.546, 192.0, 0.0, 0.0, 0.0, 0.0, 0.0, 0.0, 0.0, 0.0, 0.0, 1.7307450312185524E9, 0.0, 2024-11-04 15:30:31.218
133.0, -76059.07482613025, -76127.40410893013, -76193.87819694022, -76227.42816536763, -76209.90439771466, -76177.02498162091, -76282.99460208352, -76219.15801991917, -0.062, 0.846, 0.546, 192.0, 0.0, 0.0, 0.0, 0.0, 0.0, 0.0, 0.0, 0.0, 0.0, 1.730745031222679E9, 0.0, 2024-11-04 15:30:31.222
134.0, -76062.27112558736, -76130.57805664279, -76197.07449639733, -76230.66916831365, -76213.07834542732, -76180.26598456693, -76286.16854979617, -76222.37667112073, -0.062, 0.846, 0.546, 192.0, 0.0, 0.0, 0.0, 0.0, 0.0, 0.0, 0.0, 0.0, 0.0, 1.7307450312254865E9, 0.0, 2024-11-04 15:30:31.225
135.0, -76066.87558494516, -76135.1154607672, -76201.72365924403, -76235.25127592699, -76217.68280478512, -76184.84809218027, -76290.66125043169, -76227.04818571189, -0.062, 0.846, 0.546, 192.0, 0.0, 0.0, 0.0, 0.0, 0.0, 0.0, 0.0, 0.0, 0.0, 1.7307450312295709E9, 0.0, 2024-11-04 15:30:31.229
136.0, -76071.12241639166, -76139.2728852359, -76205.90343545716, -76239.38634865121, -76221.81787750934, -76188.89375792668, -76294.81867490038, -76231.0938514583, -0.062, 0.846, 0.546, 192.0, 0.0, 0.0, 0.0, 0.0, 0.0, 0.0, 0.0, 0.0, 0.0, 1.7307450312336617E9, 0.0, 2024-11-04 15:30:31.233
137.0, -76074.49752980442, -76142.73740562647, -76209.27854886992, -76242.82851729734, -76225.21534266655, -76192.29122308388, -76298.23849180204, -76234.46896487105, -0.062, 0.846, 0.546, 192.0, 0.0, 0.0, 0.0, 0.0, 0.0, 0.0, 0.0, 0.0, 0.0, 1.730745031237524E9, 0.0, 2024-11-04 15:30:31.237
138.0, -76077.38090483916, -76145.66548415011, -76212.16192390466, -76245.73424407652, -76228.09871770129, -76195.17459811862, -76301.18892207014, -76237.4417468836, -0.064, 0.838, 0.546, 192.0, 254.0, 0.0, 26.0, 48.0, 17.0, 16.0, 0.0, 0.0, 0.0, 1.730745031241828E9, 0.0, 2024-11-04 15:30:31.241
139.0, -76081.58303279676, -76149.80055687435, -76216.3417001178, -76249.91402028967, -76232.32319740334, -76199.35437433176, -76305.34634653883, -76241.62152309675, -0.064, 0.838, 0.546, 192.0, 0.0, 0.0, 0.0, 0.0, 0.0, 0.0, 0.0, 0.0, 0.0, 1.7307450312466073E9, 0.0, 2024-11-04 15:30:31.246
140.0, -76086.18749215454, -76154.44971972104, -76221.03556645341, -76254.56318313637, -76236.9947119945, -76204.04824066738, -76309.97315764107, -76246.22598245455, -0.064, 0.838, 0.546, 192.0, 0.0, 0.0, 0.0, 0.0, 0.0, 0.0, 0.0, 0.0, 0.0, 1.730745031249734E9, 0.0, 2024-11-04 15:30:31.249
141.0, -76090.76959976788, -76159.03182733439, -76225.66237755567, -76259.21234598308, -76241.62152309675, -76208.67505176962, -76314.53291350996, -76250.85279355678, -0.064, 0.838, 0.546, 192.0, 0.0, 0.0, 0.0, 0.0, 0.0, 0.0, 0.0, 0.0, 0.0, 1.7307450312524538E9, 0.0, 2024-11-04 15:30:31.252
142.0, -76093.45180910252, -76161.69168492458, -76228.23282816802, -76261.80514833989, -76244.28138068692, -76211.2902058709, -76317.2151228446, -76253.49029940252, -0.064, 0.838, 0.546, 192.0, 0.0, 0.0, 0.0, 0.0, 0.0, 0.0, 0.0, 0.0, 0.0, 1.7307450312575786E9, 0.0, 2024-11-04 15:30:31.257
143.0, -76095.1058381922, -76163.3233622698, -76229.8868572577, -76263.43682568513, -76245.8460027988, -76212.92188321613, -76318.84680018983, -76255.12197674776, -0.064, 0.838, 0.546, 192.0, 0.0, 0.0, 0.0, 0.0, 0.0, 0.0, 0.0, 0.0, 0.0, 1.730745031261675E9, 0.0, 2024-11-04 15:30:31.261
144.0, -76099.82205627229, -76168.06193209434, -76234.4913166155, -76268.1530437652, -76250.56222087887, -76217.68280478512, -76323.54066652546, -76259.81584308337, -0.064, 0.838, 0.546, 192.0, 0.0, 0.0, 0.0, 0.0, 0.0, 0.0, 0.0, 0.0, 0.0, 1.7307450312654843E9, 0.0, 2024-11-04 15:30:31.265
145.0, -76104.3147569078, -76172.5322809854, -76239.0957759733, -76272.69044788963, -76255.09962500329, -76222.22020890954, -76328.07807064988, -76264.3532472078, -0.064, 0.838, 0.546, 192.0, 0.0, 0.0, 0.0, 0.0, 0.0, 0.0, 0.0, 0.0, 0.0, 1.7307450312696168E9, 0.0, 2024-11-04 15:30:31.269
146.0, -76107.6675185761, -76175.84033916477, -76242.51559287496, -76276.11026479129, -76258.51944190497, -76225.61767406674, -76331.45318406263, -76267.77306410945, -0.064, 0.838, 0.546, 192.0, 0.0, 0.0, 0.0, 0.0, 0.0, 0.0, 0.0, 0.0, 0.0, 1.730745031274731E9, 0.0, 2024-11-04 15:30:31.274
147.0, -76111.35555641122, -76179.57308048882, -76246.248334199, -76279.73124739305, -76262.16277625118, -76229.30571190188, -76335.09651840884, -76271.39404671121, -0.064, 0.838, 0.546, 192.0, 0.0, 0.0, 0.0, 0.0, 0.0, 0.0, 0.0, 0.0, 0.0, 1.7307450312776473E9, 0.0, 2024-11-04 15:30:31.277
148.0, -76116.3176436803, -76184.55751950236, -76251.16571797917, -76284.60392768431, -76267.1025117758, -76234.2454474265, -76340.08095742238, -76276.3561339803, -0.06, 0.844, 0.55, 192.0, 254.0, 32.0, 26.0, 96.0, 17.0, 48.0, 0.0, 0.0, 0.0, 1.7307450312805915E9, 0.0, 2024-11-04 15:30:31.280
149.0, -76119.42453615958, -76187.57500500382, -76254.18320348063, -76287.66611667468, -76270.14234902171, -76237.2405811835, -76343.09844292385, -76279.44067471512, -0.06, 0.844, 0.55, 192.0, 0.0, 0.0, 0.0, 0.0, 0.0, 0.0, 0.0, 0.0, 0.0, 1.7307450312856867E9, 0.0, 2024-11-04 15:30:31.285
150.0, -76121.21267571601, -76189.36314456024, -76255.99369478151, -76289.45425623111, -76271.9528403226, -76239.02872073994, -76344.9759894581, -76281.27351776046, -0.06, 0.844, 0.55, 192.0, 0.0, 0.0, 0.0, 0.0, 0.0, 0.0, 0.0, 0.0, 0.0, 1.7307450312897336E9, 0.0, 2024-11-04 15:30:31.289
151.0, -76125.75007984044, -76194.01230740694, -76260.62050588377, -76294.12577082227, -76276.53494793594, -76243.67788358664, -76349.55809707142, -76285.78857014043, -0.06, 0.844, 0.55, 192.0, 0.0, 0.0, 0.0, 0.0, 0.0, 0.0, 0.0, 0.0, 0.0, 1.7307450312936926E9, 0.0, 2024-11-04 15:30:31.293
152.0, -76130.9133328096, -76199.04144990939, -76265.80611059739, -76299.28902379144, -76281.76525613847, -76248.84113655581, -76354.7213500406, -76290.95182310962, -0.06, 0.844, 0.55, 192.0, 0.0, 0.0, 0.0, 0.0, 0.0, 0.0, 0.0, 0.0, 0.0, 1.7307450312976072E9, 0.0, 2024-11-04 15:30:31.297
153.0, -76133.59554214425, -76201.70130749956, -76268.44361644311, -76301.9041778927, -76284.31335500638, -76251.36688367926, -76357.29180065297, -76293.52227372197, -0.06, 0.844, 0.55, 192.0, 0.0, 0.0, 0.0, 0.0, 0.0, 0.0, 0.0, 0.0, 0.0, 1.7307450313015952E9, 0.0, 2024-11-04 15:30:31.301
154.0, -76137.90942882412, -76206.01519417945, -76272.77985486745, -76306.32982329486, -76288.60488994181, -76255.77017733696, -76361.6727425662, -76297.94791912413, -0.06, 0.844, 0.55, 192.0, 0.0, 0.0, 0.0, 0.0, 0.0, 0.0, 0.0, 0.0, 0.0, 1.730745031305749E9, 0.0, 2024-11-04 15:30:31.305
155.0, -76142.15626027063, -76210.35143260377, -76276.98198282505, -76310.7107652081, -76292.91877662168, -76260.10641576129, -76365.96427750163, -76302.261805804, -0.06, 0.844, 0.55, 192.0, 0.0, 0.0, 0.0, 0.0, 0.0, 0.0, 0.0, 0.0, 0.0, 1.730745031308782E9, 0.0, 2024-11-04 15:30:31.308
156.0, -76146.69366439506, -76214.86648498375, -76281.51938694947, -76315.18111409916, -76297.50088423502, -76264.62146814125, -76370.4793298816, -76306.6650994617, -0.06, 0.844, 0.55, 192.0, 0.0, 0.0, 0.0, 0.0, 0.0, 0.0, 0.0, 0.0, 0.0, 1.730745031313703E9, 0.0, 2024-11-04 15:30:31.313
157.0, -76152.05808306433, -76220.20855190857, -76286.86145387428, -76320.45612579062, -76302.73119243755, -76269.98588681054, -76375.88845203978, -76312.07422161987, -0.06, 0.844, 0.55, 192.0, 0.0, 0.0, 0.0, 0.0, 0.0, 0.0, 0.0, 0.0, 0.0, 1.7307450313178253E9, 0.0, 2024-11-04 15:30:31.317
158.0, -76157.24368777797, -76225.39415662219, -76292.02470684347, -76325.66408224871, -76307.93914889565, -76275.1044362908, -76381.0293532645, -76317.25982633351, -0.062, 0.84, 0.55, 192.0, 254.0, 16.0, 26.0, 64.0, 17.0, 48.0, 0.0, 0.0, 0.0, 1.7307450313217769E9, 0.0, 2024-11-04 15:30:31.321
159.0, -76159.30004826785, -76227.42816536763, -76294.14812256672, -76327.72044273859, -76309.99550938554, -76277.22785201405, -76383.17512073221, -76319.33853856786, -0.062, 0.84, 0.55, 192.0, 0.0, 0.0, 0.0, 0.0, 0.0, 0.0, 0.0, 0.0, 0.0, 1.7307450313257515E9, 0.0, 2024-11-04 15:30:31.325
160.0, -76162.85397563624, -76231.00444448048, -76297.74675342403, -76331.29672185144, -76313.54943675392, -76280.69237240462, -76386.63964112278, -76322.9148176807, -0.062, 0.84, 0.55, 192.0, 0.0, 0.0, 0.0, 0.0, 0.0, 0.0, 0.0, 0.0, 0.0, 1.7307450313295827E9, 0.0, 2024-11-04 15:30:31.329
161.0, -76166.2737925379, -76234.40190963769, -76301.0548116034, -76334.60478003083, -76316.85749493331, -76284.02278232847, -76390.0818097689, -76326.33463458237, -0.062, 0.84, 0.55, 192.0, 0.0, 0.0, 0.0, 0.0, 0.0, 0.0, 0.0, 0.0, 0.0, 1.7307450313336353E9, 0.0, 2024-11-04 15:30:31.333
162.0, -76169.60420246175, -76237.91113351716, -76304.4075732717, -76338.00224518804, -76320.27731183497, -76287.42024748567, -76393.43457143719, -76329.6650445062, -0.062, 0.84, 0.55, 192.0, 0.0, 0.0, 0.0, 0.0, 0.0, 0.0, 0.0, 0.0, 0.0, 1.7307450313368025E9, 0.0, 2024-11-04 15:30:31.336
163.0, -76172.46522575202, -76240.70510157409, -76307.3133000509, -76340.88562022276, -76323.22774210307, -76290.34832600932, -76396.34029821638, -76332.45901256312, -0.062, 0.84, 0.55, 192.0, 0.0, 0.0, 0.0, 0.0, 0.0, 0.0, 0.0, 0.0, 0.0, 1.7307450313417444E9, 0.0, 2024-11-04 15:30:31.341
164.0, -76176.5779467318, -76244.68371208712, -76311.38131754176, -76344.95363771364, -76327.22870436058, -76294.28223303345, -76400.31890872943, -76336.50467830953, -0.062, 0.84, 0.55, 192.0, 0.0, 0.0, 0.0, 0.0, 0.0, 0.0, 0.0, 0.0, 0.0, 1.7307450313456962E9, 0.0, 2024-11-04 15:30:31.345
165.0, -76179.483673511, -76247.58943886631, -76314.2646925765, -76347.9264197262, -76330.17913462868, -76297.27736679047, -76403.22463550862, -76339.522163811, -0.062, 0.84, 0.55, 192.0, 0.0, 0.0, 0.0, 0.0, 0.0, 0.0, 0.0, 0.0, 0.0, 1.730745031349661E9, 0.0, 2024-11-04 15:30:31.349
166.0, -76182.8811386682, -76251.0986627458, -76317.70686122261, -76351.41329186122, -76333.57659978588, -76300.78659066994, -76406.66680415474, -76343.07609117939, -0.062, 0.84, 0.55, 192.0, 0.0, 0.0, 0.0, 0.0, 0.0, 0.0, 0.0, 0.0, 0.0, 1.730745031353638E9, 0.0, 2024-11-04 15:30:31.353
167.0, -76186.01038289194, -76254.27261045846, -76320.8137537019, -76354.43077736268, -76336.68349226518, -76303.87113140478, -76409.79604837848, -76346.11592842531, -0.062, 0.84, 0.55, 192.0, 0.0, 0.0, 0.0, 0.0, 0.0, 0.0, 0.0, 0.0, 0.0, 1.73074503135777E9, 0.0, 2024-11-04 15:30:31.357
168.0, -76190.72660097202, -76259.05588377189, -76325.59702701533, -76359.16934718721, -76341.44441383415, -76308.67675646266, -76414.60167343637, -76350.89920173875, -0.058, 0.84, 0.554, 192.0, 254.0, 48.0, 26.0, 64.0, 17.0, 80.0, 0.0, 0.0, 0.0, 1.730745031360855E9, 0.0, 2024-11-04 15:30:31.360
169.0, -76195.17459811862, -76263.45917742958, -76330.11207939532, -76363.59499258937, -76345.89241098076, -76313.08005012036, -76418.96026360516, -76355.28014365198, -0.058, 0.84, 0.554, 192.0, 0.0, 0.0, 0.0, 0.0, 0.0, 0.0, 0.0, 0.0, 0.0, 1.7307450313647313E9, 0.0, 2024-11-04 15:30:31.364
170.0, -76199.75670573195, -76268.04128504293, -76334.7165387531, -76368.2218036916, -76350.519222083, -76317.6621577337, -76423.65412994077, -76359.95165824314, -0.058, 0.84, 0.554, 192.0, 0.0, 0.0, 0.0, 0.0, 0.0, 0.0, 0.0, 0.0, 0.0, 1.7307450313696222E9, 0.0, 2024-11-04 15:30:31.369
171.0, -76202.66243251115, -76270.9470118221, -76337.51050681001, -76371.03812349298, -76353.38024537328, -76320.43377404616, -76426.47044974213, -76362.79032978897, -0.058, 0.84, 0.554, 192.0, 0.0, 0.0, 0.0, 0.0, 0.0, 0.0, 0.0, 0.0, 0.0, 1.7307450313736997E9, 0.0, 2024-11-04 15:30:31.373
172.0, -76208.02685118042, -76276.49024444702, -76342.9196289682, -76376.60370786235, -76358.76701578702, -76325.88759969326, -76431.96897887814, -76368.19945194715, -0.058, 0.84, 0.554, 192.0, 0.0, 0.0, 0.0, 0.0, 0.0, 0.0, 0.0, 0.0, 0.0, 1.7307450313777018E9, 0.0, 2024-11-04 15:30:31.377
173.0, -76213.99476694998, -76282.34640149432, -76348.99930346005, -76382.54927188746, -76364.73493155658, -76331.90021895173, -76437.95924639217, -76374.16736771671, -0.058, 0.84, 0.554, 192.0, 0.0, 0.0, 0.0, 0.0, 0.0, 0.0, 0.0, 0.0, 0.0, 1.7307450313816917E9, 0.0, 2024-11-04 15:30:31.381
174.0, -76216.22994139552, -76284.33570675083, -76351.14507092776, -76384.67268761071, -76366.9254025132, -76333.93422769717, -76439.9932551376, -76376.33548692889, -0.058, 0.84, 0.554, 192.0, 0.0, 0.0, 0.0, 0.0, 0.0, 0.0, 0.0, 0.0, 0.0, 1.7307450313847685E9, 0.0, 2024-11-04 15:30:31.384
175.0, -76218.35335711877, -76286.52617770746, -76353.2237831621, -76386.7290481006, -76369.026466492, -76336.05764342043, -76442.16137434976, -76378.41419916322, -0.058, 0.84, 0.554, 192.0, 0.0, 0.0, 0.0, 0.0, 0.0, 0.0, 0.0, 0.0, 0.0, 1.7307450313886836E9, 0.0, 2024-11-04 15:30:31.388
176.0, -76219.18037166362, -76287.42024748567, -76354.16255642922, -76387.62311787881, -76369.96523975913, -76337.0634719209, -76443.16720285025, -76379.3306206859, -0.058, 0.84, 0.554, 192.0, 0.0, 0.0, 0.0, 0.0, 0.0, 0.0, 0.0, 0.0, 0.0, 1.7307450313928015E9, 0.0, 2024-11-04 15:30:31.392
177.0, -76225.01417696646, -76293.23170104405, -76359.99636173206, -76393.47927492611, -76375.75434157305, -76342.8749254793, -76448.86689768636, -76385.16442598873, -0.058, 0.84, 0.554, 192.0, 0.0, 0.0, 0.0, 0.0, 0.0, 0.0, 0.0, 0.0, 0.0, 1.7307450313967335E9, 0.0, 2024-11-04 15:30:31.396
178.0, -76228.50104910148, -76296.78562841244, -76363.50558561154, -76396.98849880559, -76379.1741584747, -76346.29474238095, -76452.37612156585, -76388.69600161267, -0.06, 0.846, 0.546, 192.0, 254.0, 32.0, 26.0, 112.0, 17.0, 16.0, 0.0, 0.0, 0.0, 1.7307450314017935E9, 0.0, 2024-11-04 15:30:31.401
179.0, -76230.0880229578, -76298.35025052432, -76365.00315249004, -76398.41901045073, -76380.76113233104, -76347.83701274836, -76453.96309542216, -76390.21592023563, -0.06, 0.846, 0.546, 192.0, 0.0, 0.0, 0.0, 0.0, 0.0, 0.0, 0.0, 0.0, 0.0, 1.7307450314059422E9, 0.0, 2024-11-04 15:30:31.405
180.0, -76233.57489509284, -76301.8594744038, -76368.53472811398, -76401.97293781913, -76384.27035621052, -76351.45799535012, -76457.51702279056, -76393.63573713729, -0.06, 0.846, 0.546, 192.0, 0.0, 0.0, 0.0, 0.0, 0.0, 0.0, 0.0, 0.0, 0.0, 1.730745031409793E9, 0.0, 2024-11-04 15:30:31.409
181.0, -76237.3970433947, -76305.63691921675, -76372.20041420465, -76405.77273437653, -76388.02544927901, -76355.28014365198, -76461.33917109242, -76397.43553369469, -0.06, 0.846, 0.546, 192.0, 0.0, 0.0, 0.0, 0.0, 0.0, 0.0, 0.0, 0.0, 0.0, 1.730745031412837E9, 0.0, 2024-11-04 15:30:31.412
182.0, -76238.53698236191, -76306.64274771724, -76373.25094619405, -76406.86796985484, -76389.21009173513, -76356.33067564138, -76462.43440657073, -76398.62017615083, -0.06, 0.846, 0.546, 192.0, 0.0, 0.0, 0.0, 0.0, 0.0, 0.0, 0.0, 0.0, 0.0, 1.7307450314168687E9, 0.0, 2024-11-04 15:30:31.416
183.0, -76243.499069631, -76311.78364894196, -76378.34714392986, -76411.94181584619, -76394.21688249313, -76361.35981814383, -76467.41884558427, -76403.67167039773, -0.06, 0.846, 0.546, 192.0, 0.0, 0.0, 0.0, 0.0, 0.0, 0.0, 0.0, 0.0, 0.0, 1.7307450314208865E9, 0.0, 2024-11-04 15:30:31.420
184.0, -76247.18710746612, -76315.62814898827, -76382.14694048726, -76415.62985368131, -76397.94962381717, -76365.04785597895, -76471.17393865275, -76407.35970823285, -0.06, 0.846, 0.546, 192.0, 0.0, 0.0, 0.0, 0.0, 0.0, 0.0, 0.0, 0.0, 0.0, 1.7307450314307327E9, 0.0, 2024-11-04 15:30:31.430
185.0, -76252.26095345747, -76320.63493974626, -76387.22078647862, -76420.74840316157, -76403.04582155298, -76370.1217019703, -76476.2030811552, -76412.47825771311, -0.06, 0.846, 0.546, 192.0, 0.0, 0.0, 0.0, 0.0, 0.0, 0.0, 0.0, 0.0, 0.0, 1.730745031431015E9, 0.0, 2024-11-04 15:30:31.431
186.0, -76256.75365409299, -76325.14999212623, -76391.75819060304, -76425.21875205263, -76407.56087393295, -76374.65910609474, -76480.78518876854, -76417.038013582, -0.06, 0.846, 0.546, 192.0, 0.0, 0.0, 0.0, 0.0, 0.0, 0.0, 0.0, 0.0, 0.0, 1.7307450314338055E9, 0.0, 2024-11-04 15:30:31.433
187.0, -76260.06171227238, -76328.34629158334, -76395.08860052688, -76428.48210674312, -76410.91363560125, -76377.92246078521, -76484.04854345901, -76420.21196129466, -0.06, 0.846, 0.546, 192.0, 0.0, 0.0, 0.0, 0.0, 0.0, 0.0, 0.0, 0.0, 0.0, 1.7307450314378693E9, 0.0, 2024-11-04 15:30:31.437
188.0, -76262.65451462919, -76330.89439045124, -76397.63669939479, -76431.14196433329, -76413.4840862136, -76380.47055965311, -76486.59664232691, -76422.78241190701, -0.062, 0.844, 0.542, 192.0, 254.0, 16.0, 26.0, 96.0, 16.0, 240.0, 0.0, 0.0, 0.0, 1.7307450314407969E9, 0.0, 2024-11-04 15:30:31.440
189.0, -76265.56024140838, -76333.88952420825, -76400.47537094062, -76433.95828413467, -76416.36746124834, -76383.44334166567, -76489.52472085056, -76425.73284217512, -0.062, 0.844, 0.542, 192.0, 0.0, 0.0, 0.0, 0.0, 0.0, 0.0, 0.0, 0.0, 0.0, 1.7307450314447436E9, 0.0, 2024-11-04 15:30:31.444
190.0, -76270.0529420439, -76338.38222484378, -76404.96807157614, -76438.47333651464, -76420.86016188386, -76387.9807457901, -76493.95036625271, -76430.18083932172, -0.062, 0.844, 0.542, 192.0, 0.0, 0.0, 0.0, 0.0, 0.0, 0.0, 0.0, 0.0, 0.0, 1.7307450314488547E9, 0.0, 2024-11-04 15:30:31.448
191.0, -76271.90813683369, -76340.10330916684, -76406.778562877, -76440.26147607106, -76422.64830144028, -76389.70183011316, -76495.73850580913, -76432.01368236705, -0.062, 0.844, 0.542, 192.0, 0.0, 0.0, 0.0, 0.0, 0.0, 0.0, 0.0, 0.0, 0.0, 1.7307450314528775E9, 0.0, 2024-11-04 15:30:31.452
192.0, -76274.03155255695, -76342.3161318679, -76408.96903383364, -76442.42959528323, -76424.79406890798, -76391.86994932532, -76497.95132851021, -76434.20415332368, -0.062, 0.844, 0.542, 192.0, 0.0, 0.0, 0.0, 0.0, 0.0, 0.0, 0.0, 0.0, 0.0, 1.7307450314578123E9, 0.0, 2024-11-04 15:30:31.457
193.0, -76278.21132877009, -76346.60766680332, -76413.17116179124, -76446.65407498529, -76429.04090035449, -76396.07207728292, -76502.17580821227, -76438.40628128128, -0.062, 0.844, 0.542, 192.0, 0.0, 0.0, 0.0, 0.0, 0.0, 0.0, 0.0, 0.0, 0.0, 1.730745031461794E9, 0.0, 2024-11-04 15:30:31.461
194.0, -76282.63697417223, -76350.9215534832, -76417.59680719337, -76451.05736864297, -76433.42184226774, -76400.52007442953, -76506.57910186995, -76442.67546447224, -0.062, 0.844, 0.542, 192.0, 0.0, 0.0, 0.0, 0.0, 0.0, 0.0, 0.0, 0.0, 0.0, 1.730745031465716E9, 0.0, 2024-11-04 15:30:31.465
195.0, -76286.28030851846, -76354.40842561823, -76421.19543805068, -76454.56659252246, -76436.90871440277, -76404.11870528683, -76510.1106774939, -76446.296447074, -0.062, 0.844, 0.542, 192.0, 0.0, 0.0, 0.0, 0.0, 0.0, 0.0, 0.0, 0.0, 0.0, 1.730745031468832E9, 0.0, 2024-11-04 15:30:31.468
196.0, -76289.23073878656, -76357.42591111969, -76424.21292355216, -76457.62878151283, -76439.90384815978, -76407.04678381048, -76513.08345950645, -76449.31393257546, -0.062, 0.844, 0.542, 192.0, 0.0, 0.0, 0.0, 0.0, 0.0, 0.0, 0.0, 0.0, 0.0, 1.7307450314728208E9, 0.0, 2024-11-04 15:30:31.472
197.0, -76294.10341907782, -76362.29859141094, -76429.01854861004, -76462.47911005963, -76444.82123193995, -76411.87476061282, -76518.04554677552, -76454.11955763336, -0.062, 0.844, 0.542, 192.0, 0.0, 0.0, 0.0, 0.0, 0.0, 0.0, 0.0, 0.0, 0.0, 1.7307450314767132E9, 0.0, 2024-11-04 15:30:31.476
198.0, -76297.92556737967, -76366.21014669063, -76432.81834516744, -76466.25655487258, -76448.68808373071, -76415.80866763696, -76521.84534333293, -76457.96405767967, -0.062, 0.844, 0.544, 192.0, 254.0, 16.0, 26.0, 96.0, 17.0, 0.0, 0.0, 0.0, 0.0, 1.7307450314809356E9, 0.0, 2024-11-04 15:30:31.480
199.0, -76301.56890172588, -76369.89818452575, -76436.50638300258, -76470.03399968553, -76452.37612156585, -76419.51905721653, -76525.48867767915, -76461.67444725924, -0.062, 0.844, 0.544, 192.0, 0.0, 0.0, 0.0, 0.0, 0.0, 0.0, 0.0, 0.0, 0.0, 1.7307450314857752E9, 0.0, 2024-11-04 15:30:31.485
200.0, -76308.45323901811, -76376.8272253069, -76443.50247901709, -76476.96304046668, -76459.32751409143, -76426.51515323104, -76532.52947718257, -76468.60348804039, -0.062, 0.844, 0.544, 192.0, 0.0, 0.0, 0.0, 0.0, 0.0, 0.0, 0.0, 0.0, 0.0, 1.7307450314898791E9, 0.0, 2024-11-04 15:30:31.489
201.0, -76312.45420127561, -76380.85053930886, -76447.57049650795, -76481.00870621309, -76463.37317983784, -76430.58317072192, -76536.57514292898, -76472.62680204234, -0.062, 0.844, 0.544, 192.0, 0.0, 0.0, 0.0, 0.0, 0.0, 0.0, 0.0, 0.0, 0.0, 1.7307450314927137E9, 0.0, 2024-11-04 15:30:31.492
202.0, -76315.516390266, -76383.82332132141, -76450.58798200941, -76483.9591364812, -76466.43536882823, -76433.53360099002, -76539.54792494154, -76475.64428754381, -0.062, 0.844, 0.544, 192.0, 0.0, 0.0, 0.0, 0.0, 0.0, 0.0, 0.0, 0.0, 0.0, 1.7307450314978442E9, 0.0, 2024-11-04 15:30:31.497
203.0, -76317.68450947816, -76385.90203355576, -76452.73374947712, -76486.03784871552, -76468.53643280703, -76435.61231322435, -76541.62663717588, -76477.76770326706, -0.062, 0.844, 0.544, 192.0, 0.0, 0.0, 0.0, 0.0, 0.0, 0.0, 0.0, 0.0, 0.0, 1.7307450315007892E9, 0.0, 2024-11-04 15:30:31.500
204.0, -76321.46195429111, -76389.74653360207, -76456.57824952343, -76489.9047005063, -76472.35858110889, -76439.41210978176, -76545.4711372222, -76481.54514808001, -0.062, 0.844, 0.544, 192.0, 0.0, 0.0, 0.0, 0.0, 0.0, 0.0, 0.0, 0.0, 0.0, 1.730745031504744E9, 0.0, 2024-11-04 15:30:31.504
205.0, -76325.32880608187, -76393.52397841502, -76460.33334259193, -76493.7044970637, -76476.09132243291, -76443.16720285025, -76549.3156372685, -76485.36729638187, -0.062, 0.844, 0.544, 192.0, 0.0, 0.0, 0.0, 0.0, 0.0, 0.0, 0.0, 0.0, 0.0, 1.730745031508747E9, 0.0, 2024-11-04 15:30:31.508
206.0, -76330.82733521788, -76398.97780406212, -76465.63070602783, -76499.24772968862, -76481.52279633556, -76448.5986767529, -76554.74711117115, -76490.84347377342, -0.062, 0.844, 0.544, 192.0, 0.0, 0.0, 0.0, 0.0, 0.0, 0.0, 0.0, 0.0, 0.0, 1.730745031512926E9, 0.0, 2024-11-04 15:30:31.512
207.0, -76332.68253000767, -76400.87770234082, -76467.57530779544, -76501.23703494514, -76483.48974984762, -76450.47622328714, -76556.6693611943, -76492.72102030767, -0.062, 0.844, 0.544, 192.0, 0.0, 0.0, 0.0, 0.0, 0.0, 0.0, 0.0, 0.0, 0.0, 1.7307450315180097E9, 0.0, 2024-11-04 15:30:31.518
208.0, -76335.47649806459, -76403.67167039773, -76470.39162759682, -76504.07570649097, -76486.306069649, -76453.35959832187, -76559.46332925122, -76495.69380232022, -0.068, 0.838, 0.546, 192.0, 253.0, 224.0, 26.0, 48.0, 17.0, 16.0, 0.0, 0.0, 0.0, 1.7307450315210323E9, 0.0, 2024-11-04 15:30:31.521
209.0, -76339.61157078881, -76407.8290948664, -76474.5043485766, -76508.03196525955, -76490.39643888432, -76457.51702279056, -76563.59840197544, -76499.73946806663, -0.068, 0.838, 0.546, 192.0, 0.0, 0.0, 0.0, 0.0, 0.0, 0.0, 0.0, 0.0, 0.0, 1.7307450315248828E9, 0.0, 2024-11-04 15:30:31.524
210.0, -76343.3219603684, -76411.60653967936, -76478.32649687845, -76511.83176181695, -76494.19623544172, -76461.22741237014, -76567.37584678839, -76503.44985764622, -0.068, 0.838, 0.546, 192.0, 0.0, 0.0, 0.0, 0.0, 0.0, 0.0, 0.0, 0.0, 0.0, 1.7307450315289829E9, 0.0, 2024-11-04 15:30:31.528
211.0, -76346.60766680332, -76414.8922461143, -76481.61220331339, -76515.13981999634, -76497.48194187664, -76464.58017403843, -76570.68390496778, -76506.73556408114, -0.068, 0.838, 0.546, 192.0, 0.0, 0.0, 0.0, 0.0, 0.0, 0.0, 0.0, 0.0, 0.0, 1.730745031532928E9, 0.0, 2024-11-04 15:30:31.532
212.0, -76350.027483705, -76418.22265603812, -76484.96496498167, -76518.53728515355, -76500.87940703385, -76467.93293570673, -76574.1260736139, -76510.17773272726, -0.068, 0.838, 0.546, 192.0, 0.0, 0.0, 0.0, 0.0, 0.0, 0.0, 0.0, 0.0, 0.0, 1.7307450315368862E9, 0.0, 2024-11-04 15:30:31.536
213.0, -76353.76022502902, -76421.97774910662, -76488.72005805017, -76522.3147299665, -76504.63450010234, -76471.6433252863, -76577.88116668239, -76513.93282579575, -0.068, 0.838, 0.546, 192.0, 0.0, 0.0, 0.0, 0.0, 0.0, 0.0, 0.0, 0.0, 0.0, 1.7307450315409396E9, 0.0, 2024-11-04 15:30:31.540
214.0, -76357.00122797504, -76425.26345554156, -76491.96106099618, -76525.44397419023, -76507.76374432609, -76474.88432823234, -76581.03276265059, -76517.1067735084, -0.068, 0.838, 0.546, 192.0, 0.0, 0.0, 0.0, 0.0, 0.0, 0.0, 0.0, 0.0, 0.0, 1.7307450315458405E9, 0.0, 2024-11-04 15:30:31.545
215.0, -76361.35981814383, -76429.59969396588, -76496.31965116497, -76529.84726784793, -76512.12233449488, -76479.17586316775, -76585.43605630829, -76521.4653636772, -0.068, 0.838, 0.546, 192.0, 0.0, 0.0, 0.0, 0.0, 0.0, 0.0, 0.0, 0.0, 0.0, 1.7307450315491052E9, 0.0, 2024-11-04 15:30:31.549
216.0, -76366.23249843509, -76434.40531902378, -76501.21468320068, -76534.69759639473, -76516.97266304167, -76484.07089520346, -76590.28638485508, -76526.27098873508, -0.068, 0.838, 0.546, 192.0, 0.0, 0.0, 0.0, 0.0, 0.0, 0.0, 0.0, 0.0, 0.0, 1.7307450315529811E9, 0.0, 2024-11-04 15:30:31.552
217.0, -76369.24998393655, -76437.51221150305, -76504.18746521324, -76537.78213712957, -76519.99014854315, -76487.13308419385, -76593.37092558992, -76529.33317772546, -0.068, 0.838, 0.546, 192.0, 0.0, 0.0, 0.0, 0.0, 0.0, 0.0, 0.0, 0.0, 0.0, 1.7307450315569825E9, 0.0, 2024-11-04 15:30:31.556
218.0, -76370.41227464823, -76438.62979872583, -76505.37210766938, -76538.9667795857, -76521.21949448818, -76488.27302316106, -76594.51086455713, -76530.51782018159, -0.064, 0.848, 0.55, 192.0, 254.0, 0.0, 26.0, 128.0, 17.0, 48.0, 0.0, 0.0, 0.0, 1.7307450315608068E9, 0.0, 2024-11-04 15:30:31.560
219.0, -76374.279126439, -76442.45194702769, -76509.28366294905, -76542.74422439864, -76525.13104976786, -76492.16222669628, -76598.33301285899, -76534.33996848344, -0.064, 0.848, 0.55, 192.0, 0.0, 0.0, 0.0, 0.0, 0.0, 0.0, 0.0, 0.0, 0.0, 1.730745031564953E9, 0.0, 2024-11-04 15:30:31.564
220.0, -76378.05657125195, -76446.27409532954, -76513.03875601754, -76546.58872444496, -76528.88614283636, -76496.02907848706, -76602.13280941639, -76538.20682027422, -0.064, 0.848, 0.55, 192.0, 0.0, 0.0, 0.0, 0.0, 0.0, 0.0, 0.0, 0.0, 0.0, 1.7307450315689213E9, 0.0, 2024-11-04 15:30:31.568
221.0, -76381.4763881536, -76449.80567095347, -76516.4585729192, -76550.05324483554, -76532.32831148247, -76499.38184015534, -76605.55262631805, -76541.62663717588, -0.064, 0.848, 0.55, 192.0, 0.0, 0.0, 0.0, 0.0, 0.0, 0.0, 0.0, 0.0, 0.0, 1.7307450315739715E9, 0.0, 2024-11-04 15:30:31.573
222.0, -76386.01379227803, -76454.298371589, -76521.063032277, -76554.54594547105, -76536.77630862908, -76503.8074855575, -76610.1347339314, -76546.1640413003, -0.064, 0.848, 0.55, 192.0, 0.0, 0.0, 0.0, 0.0, 0.0, 0.0, 0.0, 0.0, 0.0, 1.730745031577032E9, 0.0, 2024-11-04 15:30:31.577
223.0, -76387.86898706782, -76455.97475242315, -76522.80646834451, -76556.26702979411, -76538.5644481855, -76505.64032860284, -76611.98992872119, -76547.97453260119, -0.064, 0.848, 0.55, 192.0, 0.0, 0.0, 0.0, 0.0, 0.0, 0.0, 0.0, 0.0, 0.0, 1.730745031579997E9, 0.0, 2024-11-04 15:30:31.579
224.0, -76391.22174873612, -76459.48397630262, -76526.15923001281, -76559.68684669577, -76542.02896857608, -76509.1048489934, -76615.40974562285, -76551.39434950285, -0.064, 0.848, 0.55, 192.0, 0.0, 0.0, 0.0, 0.0, 0.0, 0.0, 0.0, 0.0, 0.0, 1.7307450315850172E9, 0.0, 2024-11-04 15:30:31.585
225.0, -76396.67557438322, -76465.02720892754, -76531.61305565991, -76565.20772757623, -76547.4157389898, -76514.53632289605, -76620.6847573143, -76556.84817514995, -0.064, 0.848, 0.55, 192.0, 0.0, 0.0, 0.0, 0.0, 0.0, 0.0, 0.0, 0.0, 0.0, 1.730745031589015E9, 0.0, 2024-11-04 15:30:31.589
226.0, -76399.51424592904, -76467.77647349554, -76534.54113418354, -76568.04639912205, -76550.23205879117, -76517.37499444187, -76623.50107711567, -76559.68684669577, -0.064, 0.848, 0.55, 192.0, 0.0, 0.0, 0.0, 0.0, 0.0, 0.0, 0.0, 0.0, 0.0, 1.730745031592996E9, 0.0, 2024-11-04 15:30:31.592
227.0, -76402.06234479694, -76470.23516538563, -76537.066881307, -76570.54979450104, -76552.84721289245, -76519.90074156532, -76626.16093470585, -76562.16789033031, -0.064, 0.848, 0.55, 192.0, 0.0, 0.0, 0.0, 0.0, 0.0, 0.0, 0.0, 0.0, 0.0, 1.730745031597061E9, 0.0, 2024-11-04 15:30:31.597
228.0, -76404.81160936494, -76472.96207820918, -76539.79379413054, -76573.3214108135, -76555.64118094936, -76522.69470962223, -76628.91019927386, -76564.93950664277, -0.06, 0.844, 0.55, 192.0, 254.0, 32.0, 26.0, 96.0, 17.0, 48.0, 0.0, 0.0, 0.0, 1.7307450316019819E9, 0.0, 2024-11-04 15:30:31.601
229.0, -76411.09244955689, -76479.22056665666, -76546.02993083358, -76579.6246027499, -76561.87731765238, -76528.99790155863, -76635.12398423243, -76571.26505032362, -0.06, 0.844, 0.55, 192.0, 0.0, 0.0, 0.0, 0.0, 0.0, 0.0, 0.0, 0.0, 0.0, 1.73074503160493E9, 0.0, 2024-11-04 15:30:31.604
230.0, -76416.81449613745, -76485.07672370395, -76551.86373613641, -76585.45840805274, -76567.66641946632, -76534.74229988364, -76640.98014127972, -76577.05415213754, -0.06, 0.844, 0.55, 192.0, 0.0, 0.0, 0.0, 0.0, 0.0, 0.0, 0.0, 0.0, 0.0, 1.7307450316091244E9, 0.0, 2024-11-04 15:30:31.609
231.0, -76417.6415106823, -76485.83668301543, -76552.64604719235, -76586.1736638753, -76568.38167528888, -76535.50225919513, -76641.76245233565, -76577.83646319348, -0.06, 0.844, 0.55, 192.0, 0.0, 0.0, 0.0, 0.0, 0.0, 0.0, 0.0, 0.0, 0.0, 1.7307450316129956E9, 0.0, 2024-11-04 15:30:31.612
232.0, -76421.82128689543, -76490.01645922857, -76556.8258234055, -76590.39814357736, -76572.60615499094, -76539.6149801749, -76645.9422285488, -76581.9715359177, -0.06, 0.844, 0.55, 192.0, 0.0, 0.0, 0.0, 0.0, 0.0, 0.0, 0.0, 0.0, 0.0, 1.730745031617118E9, 0.0, 2024-11-04 15:30:31.617
233.0, -76425.39756600828, -76493.57038659697, -76560.37975077388, -76593.99677443466, -76576.2271375927, -76543.25831452111, -76649.56321115055, -76585.59251851946, -0.06, 0.844, 0.55, 192.0, 0.0, 0.0, 0.0, 0.0, 0.0, 0.0, 0.0, 0.0, 0.0, 1.7307450316210747E9, 0.0, 2024-11-04 15:30:31.621
234.0, -76428.52681023203, -76496.63257558734, -76563.66545720882, -76597.17072214732, -76579.3787335609, -76546.40991048931, -76652.67010362985, -76588.6770592543, -0.06, 0.844, 0.55, 192.0, 0.0, 0.0, 0.0, 0.0, 0.0, 0.0, 0.0, 0.0, 0.0, 1.730745031624859E9, 0.0, 2024-11-04 15:30:31.624
235.0, -76433.287731801, -76501.46055238969, -76568.44873052224, -76601.90929197184, -76584.25141385215, -76551.19318380275, -76657.4980804322, -76593.4826843122, -0.06, 0.844, 0.55, 192.0, 0.0, 0.0, 0.0, 0.0, 0.0, 0.0, 0.0, 0.0, 0.0, 1.7307450316290069E9, 0.0, 2024-11-04 15:30:31.629
236.0, -76435.70172020218, -76503.8521890464, -76570.72860845669, -76604.2785768841, -76586.46423655322, -76553.60717220392, -76659.8003101111, -76595.82961748, -0.06, 0.844, 0.55, 192.0, 0.0, 0.0, 0.0, 0.0, 0.0, 0.0, 0.0, 0.0, 0.0, 1.7307450316318772E9, 0.0, 2024-11-04 15:30:31.631
237.0, -76438.294522559, -76506.53439838105, -76573.3214108135, -76606.91608272983, -76589.05703891005, -76556.17762281628, -76662.348408979, -76598.44477158127, -0.06, 0.844, 0.55, 192.0, 0.0, 0.0, 0.0, 0.0, 0.0, 0.0, 0.0, 0.0, 0.0, 1.7307450316370196E9, 0.0, 2024-11-04 15:30:31.637
238.0, -76442.0943191164, -76510.40125017181, -76577.18826260428, -76610.7829345206, -76592.90153895636, -76560.0221228626, -76666.21526076976, -76602.37867860541, -0.064, 0.844, 0.546, 192.0, 254.0, 0.0, 26.0, 96.0, 17.0, 16.0, 0.0, 0.0, 0.0, 1.730745031640945E9, 0.0, 2024-11-04 15:30:31.640
239.0, -76446.9446476632, -76515.25157871861, -76582.1279981289, -76615.72267004522, -76597.88597796988, -76565.02891362058, -76671.19969978329, -76607.2290071522, -0.064, 0.844, 0.546, 192.0, 0.0, 0.0, 0.0, 0.0, 0.0, 0.0, 0.0, 0.0, 0.0, 1.7307450316449602E9, 0.0, 2024-11-04 15:30:31.644
240.0, -76447.30227557449, -76515.564503141, -76582.46327429573, -76616.01324272314, -76598.22125413672, -76565.34183804296, -76671.49027246122, -76607.54193157458, -0.064, 0.844, 0.546, 192.0, 0.0, 0.0, 0.0, 0.0, 0.0, 0.0, 0.0, 0.0, 0.0, 1.730745031649002E9, 0.0, 2024-11-04 15:30:31.649
241.0, -76450.9009064318, -76519.18548574275, -76585.99484991966, -76619.56717009154, -76601.7304780162, -76568.85106192244, -76675.02184808515, -76611.1852659208, -0.064, 0.844, 0.546, 192.0, 0.0, 0.0, 0.0, 0.0, 0.0, 0.0, 0.0, 0.0, 0.0, 1.730745031653094E9, 0.0, 2024-11-04 15:30:31.653
242.0, -76456.06415940096, -76524.30403522302, -76591.11339939992, -76624.73042306071, -76606.93843447429, -76573.99196314717, -76680.0956940765, -76616.25911191215, -0.064, 0.844, 0.546, 192.0, 0.0, 0.0, 0.0, 0.0, 0.0, 0.0, 0.0, 0.0, 0.0, 1.73074503165709E9, 0.0, 2024-11-04 15:30:31.657
243.0, -76461.80855772598, -76530.07078529248, -76597.01425993613, -76630.51952487463, -76612.7275362882, -76579.84812019445, -76685.97420286825, -76622.1376207039, -0.064, 0.844, 0.546, 192.0, 0.0, 0.0, 0.0, 0.0, 0.0, 0.0, 0.0, 0.0, 0.0, 1.7307450316601453E9, 0.0, 2024-11-04 15:30:31.660
244.0, -76465.40718858328, -76533.73647138316, -76600.56818730453, -76634.09580398748, -76616.2367601677, -76583.40204756285, -76689.59518547001, -76625.7362515612, -0.064, 0.844, 0.546, 192.0, 0.0, 0.0, 0.0, 0.0, 0.0, 0.0, 0.0, 0.0, 0.0, 1.7307450316651108E9, 0.0, 2024-11-04 15:30:31.665
245.0, -76469.31874386297, -76537.67037840729, -76604.45739083974, -76638.02971101162, -76620.17066719182, -76587.26889935361, -76693.46203726078, -76629.67015858533, -0.064, 0.844, 0.546, 192.0, 0.0, 0.0, 0.0, 0.0, 0.0, 0.0, 0.0, 0.0, 0.0, 1.7307450316700108E9, 0.0, 2024-11-04 15:30:31.670
246.0, -76472.73856076463, -76541.02314007559, -76607.8325042525, -76641.47187965774, -76623.56813234904, -76590.68871625527, -76696.79244718462, -76633.00056850917, -0.064, 0.844, 0.546, 192.0, 0.0, 0.0, 0.0, 0.0, 0.0, 0.0, 0.0, 0.0, 0.0, 1.7307450316731124E9, 0.0, 2024-11-04 15:30:31.673
247.0, -76476.6501160443, -76544.97939884418, -76611.76641127664, -76645.38343493741, -76627.56909460653, -76594.62262327941, -76700.77105769767, -76636.97917902222, -0.064, 0.844, 0.546, 192.0, 0.0, 0.0, 0.0, 0.0, 0.0, 0.0, 0.0, 0.0, 0.0, 1.7307450316770818E9, 0.0, 2024-11-04 15:30:31.677
248.0, -76480.4499126017, -76548.73449191266, -76615.54385608959, -76649.07147277254, -76631.23478069721, -76598.40006809236, -76704.61555774398, -76640.73427209072, -0.064, 0.842, 0.542, 192.0, 254.0, 0.0, 26.0, 80.0, 16.0, 240.0, 0.0, 0.0, 0.0, 1.7307450316811109E9, 0.0, 2024-11-04 15:30:31.681
249.0, -76484.02619171455, -76552.28841928106, -76619.07543171351, -76652.6477518854, -76634.83341155451, -76601.90929197184, -76708.14713336792, -76644.22114422574, -0.064, 0.842, 0.542, 192.0, 0.0, 0.0, 0.0, 0.0, 0.0, 0.0, 0.0, 0.0, 0.0, 1.730745031684895E9, 0.0, 2024-11-04 15:30:31.684
250.0, -76485.23318591515, -76553.45070999274, -76620.37183289192, -76653.92180131935, -76636.15216447737, -76603.18334140579, -76709.37647931295, -76645.49519365969, -0.064, 0.842, 0.542, 192.0, 0.0, 0.0, 0.0, 0.0, 0.0, 0.0, 0.0, 0.0, 0.0, 1.730745031688034E9, 0.0, 2024-11-04 15:30:31.688
251.0, -76491.26815691807, -76559.35157052893, -76626.40680389486, -76659.93442057782, -76642.05302501358, -76609.1289054309, -76715.36674682699, -76651.48546117371, -0.064, 0.842, 0.542, 192.0, 0.0, 0.0, 0.0, 0.0, 0.0, 0.0, 0.0, 0.0, 0.0, 1.7307450316921208E9, 0.0, 2024-11-04 15:30:31.692
252.0, -76494.12918020836, -76562.23494556367, -76629.24547544068, -76662.77309212365, -76644.95875179276, -76612.079335699, -76718.31717709509, -76654.3911879529, -0.064, 0.842, 0.542, 192.0, 0.0, 0.0, 0.0, 0.0, 0.0, 0.0, 0.0, 0.0, 0.0, 1.7307450316970837E9, 0.0, 2024-11-04 15:30:31.697
253.0, -76496.72198256517, -76564.89480315386, -76631.86062954196, -76665.29883924709, -76647.52920240513, -76614.69448980028, -76720.93233119635, -76656.91693507636, -0.064, 0.842, 0.542, 192.0, 0.0, 0.0, 0.0, 0.0, 0.0, 0.0, 0.0, 0.0, 0.0, 1.730745031701125E9, 0.0, 2024-11-04 15:30:31.701
254.0, -76501.3040901785, -76569.61102123393, -76636.39803366638, -76669.88094686043, -76652.20071699629, -76619.29894915807, -76725.58149404306, -76661.5437461786, -0.064, 0.842, 0.542, 192.0, 0.0, 0.0, 0.0, 0.0, 0.0, 0.0, 0.0, 0.0, 0.0, 1.7307450317051487E9, 0.0, 2024-11-04 15:30:31.705
255.0, -76507.51787513708, -76575.8248061925, -76642.61181862495, -76676.07238007455, -76658.36979846595, -76625.57978935001, -76731.70587202381, -76667.69047590382, -0.064, 0.842, 0.542, 192.0, 0.0, 0.0, 0.0, 0.0, 0.0, 0.0, 0.0, 0.0, 0.0, 1.7307450317091002E9, 0.0, 2024-11-04 15:30:31.709
0.0, -76512.88229380635, -76581.14452137286, -76647.95388554978, -76681.5485574661, -76663.75656887967, -76630.83244929701, -76737.18204941537, -76673.07724631754, -0.064, 0.842, 0.542, 192.0, 0.0, 0.0, 0.0, 0.0, 0.0, 0.0, 0.0, 0.0, 0.0, 1.7307450317120852E9, 0.0, 2024-11-04 15:30:31.712
1.0, -76514.64808161832, -76582.82090220701, -76649.80908033956, -76683.33669702253, -76665.54470843611, -76632.57588536452, -76738.92548548288, -76674.95479285179, -0.064, 0.842, 0.542, 192.0, 0.0, 0.0, 0.0, 0.0, 0.0, 0.0, 0.0, 0.0, 0.0, 1.73074503171605E9, 0.0, 2024-11-04 15:30:31.716
2.0, -76516.8609043194, -76585.05607665255, -76651.99955129619, -76685.57187146806, -76667.80223462608, -76634.83341155451, -76741.04890120613, -76677.1452638084, -0.064, 0.84, 0.544, 192.0, 254.0, 0.0, 26.0, 64.0, 17.0, 0.0, 0.0, 0.0, 0.0, 1.730745031720013E9, 0.0, 2024-11-04 15:30:31.720
3.0, -76520.23601773215, -76588.52059704311, -76655.30760947557, -76689.01404011417, -76671.19969978329, -76638.25322845617, -76744.44636636334, -76680.5427289656, -0.064, 0.84, 0.544, 192.0, 0.0, 0.0, 0.0, 0.0, 0.0, 0.0, 0.0, 0.0, 0.0, 1.7307450317250922E9, 0.0, 2024-11-04 15:30:31.725
4.0, -76524.0134625451, -76592.25333836715, -76658.97329556625, -76692.61267097147, -76674.84303412952, -76641.91891454684, -76748.22381117629, -76684.16371156737, -0.064, 0.84, 0.544, 192.0, 0.0, 0.0, 0.0, 0.0, 0.0, 0.0, 0.0, 0.0, 0.0, 1.7307450317291024E9, 0.0, 2024-11-04 15:30:31.729
5.0, -76526.24863699063, -76594.53321630158, -76661.36493222296, -76694.91490065037, -76677.12291206395, -76644.17644073683, -76750.50368911073, -76686.51064473519, -0.064, 0.84, 0.544, 192.0, 0.0, 0.0, 0.0, 0.0, 0.0, 0.0, 0.0, 0.0, 0.0, 1.730745031733234E9, 0.0, 2024-11-04 15:30:31.733
6.0, -76529.95902657021, -76598.17655064781, -76665.12002529146, -76698.6029384855, -76680.85565338799, -76647.8868303164, -76754.07996822357, -76690.1986825703, -0.064, 0.84, 0.544, 192.0, 0.0, 0.0, 0.0, 0.0, 0.0, 0.0, 0.0, 0.0, 0.0, 1.7307450317361872E9, 0.0, 2024-11-04 15:30:31.736
7.0, -76534.87641035038, -76603.09393442798, -76670.03740907162, -76703.58737749903, -76685.7506854237, -76652.87126932995, -76758.97500025929, -76695.13841809492, -0.064, 0.84, 0.544, 192.0, 0.0, 0.0, 0.0, 0.0, 0.0, 0.0, 0.0, 0.0, 0.0, 1.7307450317400427E9, 0.0, 2024-11-04 15:30:31.740
8.0, -76539.34675924144, -76607.65369029685, -76674.55246145159, -76708.08007813455, -76690.26573780367, -76657.43102519882, -76763.51240438371, -76699.72052570827, -0.064, 0.84, 0.544, 192.0, 0.0, 0.0, 0.0, 0.0, 0.0, 0.0, 0.0, 0.0, 0.0, 1.7307450317442043E9, 0.0, 2024-11-04 15:30:31.744
9.0, -76541.3137127535, -76609.59829206447, -76676.45235973029, -76709.97997641325, -76692.21033957128, -76659.30857173307, -76765.52406138468, -76701.55336875361, -0.064, 0.84, 0.544, 192.0, 0.0, 0.0, 0.0, 0.0, 0.0, 0.0, 0.0, 0.0, 0.0, 1.7307450317503948E9, 0.0, 2024-11-04 15:30:31.750
10.0, -76545.58289594446, -76613.71101304425, -76680.65448768789, -76714.2044561153, -76696.41246752888, -76663.46599620176, -76769.68148585338, -76705.84490368902, -0.064, 0.84, 0.544, 192.0, 0.0, 0.0, 0.0, 0.0, 0.0, 0.0, 0.0, 0.0, 0.0, 1.7307450317531507E9, 0.0, 2024-11-04 15:30:31.753
11.0, -76547.05811107851, -76615.27563515611, -76682.26381328868, -76715.7020229938, -76697.99944138521, -76665.05297005808, -76771.24610796524, -76707.40952580089, -0.064, 0.84, 0.544, 192.0, 0.0, 0.0, 0.0, 0.0, 0.0, 0.0, 0.0, 0.0, 0.0, 1.7307450317573578E9, 0.0, 2024-11-04 15:30:31.757
12.0, -76551.08142508047, -76619.34365264699, -76686.24242380171, -76719.77004048468, -76702.08981062053, -76669.03158057113, -76775.35882894503, -76711.38813631394, -0.064, 0.838, 0.554, 192.0, 254.0, 0.0, 26.0, 48.0, 17.0, 80.0, 0.0, 0.0, 0.0, 1.7307450317611327E9, 0.0, 2024-11-04 15:30:31.761
13.0, -76555.75293967163, -76624.12692596042, -76690.98099362625, -76724.5086103092, -76706.78367695614, -76673.7477986512, -76780.16445400292, -76716.12670613846, -0.064, 0.838, 0.554, 192.0, 0.0, 0.0, 0.0, 0.0, 0.0, 0.0, 0.0, 0.0, 0.0, 1.7307450317643657E9, 0.0, 2024-11-04 15:30:31.764
14.0, -76560.2232885627, -76628.57492310702, -76695.4066390284, -76728.95660745581, -76711.23167410275, -76678.1510923089, -76784.61245114953, -76720.55235154061, -0.064, 0.838, 0.554, 192.0, 0.0, 0.0, 0.0, 0.0, 0.0, 0.0, 0.0, 0.0, 0.0, 1.7307450317680373E9, 0.0, 2024-11-04 15:30:31.768
15.0, -76564.09014035347, -76632.28531268661, -76699.16173209688, -76732.75640401321, -76714.96441542679, -76681.9955923552, -76788.34519247356, -76724.35214809801, -0.064, 0.838, 0.554, 192.0, 0.0, 0.0, 0.0, 0.0, 0.0, 0.0, 0.0, 0.0, 0.0, 1.7307450317723603E9, 0.0, 2024-11-04 15:30:31.772
16.0, -76568.26991656661, -76636.42038541083, -76703.38621179893, -76736.93618022636, -76719.09948815101, -76686.24242380171, -76792.4802651978, -76728.59897954452, -0.064, 0.838, 0.554, 192.0, 0.0, 0.0, 0.0, 0.0, 0.0, 0.0, 0.0, 0.0, 0.0, 1.730745031776186E9, 0.0, 2024-11-04 15:30:31.776
17.0, -76569.63337297838, -76637.7391383337, -76704.74966821072, -76738.25493314922, -76720.44059281834, -76687.53882498012, -76793.79901812066, -76729.89538072293, -0.064, 0.838, 0.554, 192.0, 0.0, 0.0, 0.0, 0.0, 0.0, 0.0, 0.0, 0.0, 0.0, 1.7307450317803023E9, 0.0, 2024-11-04 15:30:31.780
18.0, -76573.36611430242, -76641.5389348911, -76708.41535430138, -76742.01002621771, -76724.15098239791, -76691.29391804861, -76797.50940770023, -76733.60577030251, -0.064, 0.838, 0.554, 192.0, 0.0, 0.0, 0.0, 0.0, 0.0, 0.0, 0.0, 0.0, 0.0, 1.7307450317851152E9, 0.0, 2024-11-04 15:30:31.785
19.0, -76578.3282015715, -76646.50102216018, -76713.33273808155, -76746.92740999788, -76729.09071792255, -76696.18895008432, -76802.47149496932, -76738.47845059377, -0.064, 0.838, 0.554, 192.0, 0.0, 0.0, 0.0, 0.0, 0.0, 0.0, 0.0, 0.0, 0.0, 1.7307450317891817E9, 0.0, 2024-11-04 15:30:31.789
20.0, -76582.41857080681, -76650.63609488441, -76717.5572177836, -76751.0624827221, -76733.24814239122, -76700.32402280856, -76806.60656769354, -76742.54646808463, -0.064, 0.838, 0.554, 192.0, 0.0, 0.0, 0.0, 0.0, 0.0, 0.0, 0.0, 0.0, 0.0, 1.7307450317920854E9, 0.0, 2024-11-04 15:30:31.792
21.0, -76586.08425689749, -76654.3911879529, -76721.28995910764, -76754.70581706832, -76737.02558720417, -76704.03441238814, -76810.40636425094, -76746.32391289758, -0.064, 0.838, 0.554, 192.0, 0.0, 0.0, 0.0, 0.0, 0.0, 0.0, 0.0, 0.0, 0.0, 1.7307450317961793E9, 0.0, 2024-11-04 15:30:31.796
22.0, -76589.74994298816, -76658.05687404357, -76724.93329345385, -76758.39385490345, -76740.60186631703, -76707.63304324544, -76813.9826433638, -76750.0119507327, -0.064, 0.838, 0.554, 192.0, 0.0, 0.0, 0.0, 0.0, 0.0, 0.0, 0.0, 0.0, 0.0, 1.730745031800134E9, 0.0, 2024-11-04 15:30:31.800
23.0, -76593.75090524566, -76661.99078106771, -76728.82249698907, -76762.46187239431, -76744.62518031898, -76711.67870899185, -76817.93890213239, -76753.99056124575, -0.064, 0.838, 0.55, 192.0, 254.0, 0.0, 26.0, 48.0, 17.0, 48.0, 0.0, 0.0, 0.0, 1.730745031804311E9, 0.0, 2024-11-04 15:30:31.804
24.0, -76597.77421924761, -76665.96939158076, -76732.97992145777, -76766.37342767399, -76748.60379083203, -76715.74672648273, -76821.91751264544, -76758.0138752477, -0.064, 0.838, 0.55, 192.0, 0.0, 0.0, 0.0, 0.0, 0.0, 0.0, 0.0, 0.0, 0.0, 1.730745031808258E9, 0.0, 2024-11-04 15:30:31.808
25.0, -76602.46808558323, -76670.68560966082, -76737.62908430447, -76771.02259052069, -76753.29765716764, -76720.39588932942, -76826.61137898105, -76762.64068634996, -0.064, 0.838, 0.55, 192.0, 0.0, 0.0, 0.0, 0.0, 0.0, 0.0, 0.0, 0.0, 0.0, 1.730745031813334E9, 0.0, 2024-11-04 15:30:31.813
26.0, -76603.27274838362, -76671.49027246122, -76738.43374710486, -76771.82725332108, -76754.10231996803, -76721.22290387427, -76827.41604178144, -76763.44534915035, -0.064, 0.838, 0.55, 192.0, 0.0, 0.0, 0.0, 0.0, 0.0, 0.0, 0.0, 0.0, 0.0, 1.7307450318174372E9, 0.0, 2024-11-04 15:30:31.817
27.0, -76607.8325042525, -76676.094731819, -76742.97115122929, -76776.54347140115, -76758.70677932582, -76725.7156045098, -76831.93109416141, -76768.0721602526, -0.064, 0.838, 0.55, 192.0, 0.0, 0.0, 0.0, 0.0, 0.0, 0.0, 0.0, 0.0, 0.0, 1.7307450318203137E9, 0.0, 2024-11-04 15:30:31.820
28.0, -76611.74405953218, -76679.98393535423, -76746.8603547645, -76780.38797144748, -76762.52892762767, -76729.64951153392, -76835.84264944108, -76772.00606727673, -0.064, 0.838, 0.55, 192.0, 0.0, 0.0, 0.0, 0.0, 0.0, 0.0, 0.0, 0.0, 0.0, 1.7307450318243515E9, 0.0, 2024-11-04 15:30:31.824
29.0, -76614.04628921108, -76682.21910979976, -76749.20728793231, -76782.623145893, -76764.83115730657, -76731.90703772391, -76838.16723086443, -76774.24124172227, -0.064, 0.838, 0.55, 192.0, 0.0, 0.0, 0.0, 0.0, 0.0, 0.0, 0.0, 0.0, 0.0, 1.730745031828196E9, 0.0, 2024-11-04 15:30:31.828
30.0, -76618.29312065759, -76686.5553482241, -76753.45411937883, -76786.8699773395, -76769.12269224199, -76736.24327614823, -76842.41406231094, -76778.53277665768, -0.064, 0.838, 0.55, 192.0, 0.0, 0.0, 0.0, 0.0, 0.0, 0.0, 0.0, 0.0, 0.0, 1.7307450318323307E9, 0.0, 2024-11-04 15:30:31.832
31.0, -76623.34461490448, -76691.606842471, -76758.50561362572, -76791.92147158641, -76774.15183474444, -76741.22771516177, -76847.51026004675, -76783.58427090458, -0.064, 0.838, 0.55, 192.0, 0.0, 0.0, 0.0, 0.0, 0.0, 0.0, 0.0, 0.0, 0.0, 1.7307450318363636E9, 0.0, 2024-11-04 15:30:31.836
32.0, -76628.79844055157, -76697.01596462917, -76763.98179101727, -76797.44235246687, -76779.69506736935, -76746.68154080887, -76853.05349267168, -76789.1275035295, -0.064, 0.838, 0.55, 192.0, 0.0, 0.0, 0.0, 0.0, 0.0, 0.0, 0.0, 0.0, 0.0, 1.730745031842188E9, 0.0, 2024-11-04 15:30:31.842
33.0, -76630.25130394117, -76698.37942104095, -76765.30054394013, -76798.78345713418, -76781.05852378113, -76748.0673489651, -76854.4393008279, -76790.46860819681, -0.06, 0.838, 0.55, 192.0, 254.0, 32.0, 26.0, 48.0, 17.0, 48.0, 0.0, 0.0, 0.0, 1.7307450318452609E9, 0.0, 2024-11-04 15:30:31.845
34.0, -76633.78287956511, -76702.00040364271, -76768.87682305298, -76802.35973624703, -76784.61245114953, -76751.6659798224, -76858.01557994075, -76794.06723905411, -0.06, 0.838, 0.55, 192.0, 0.0, 0.0, 0.0, 0.0, 0.0, 0.0, 0.0, 0.0, 0.0, 1.730745031849144E9, 0.0, 2024-11-04 15:30:31.849
35.0, -76638.36498717844, -76706.53780776713, -76773.43657892187, -76806.94184386038, -76789.21691050731, -76756.20338394682, -76862.53063232072, -76798.626994923, -0.06, 0.838, 0.55, 192.0, 0.0, 0.0, 0.0, 0.0, 0.0, 0.0, 0.0, 0.0, 0.0, 1.7307450318522913E9, 0.0, 2024-11-04 15:30:31.852
36.0, -76641.9859697802, -76710.22584560225, -76777.14696850145, -76810.60752995104, -76792.88259659799, -76759.84671829305, -76866.21867015585, -76802.29268101367, -0.06, 0.838, 0.55, 192.0, 0.0, 0.0, 0.0, 0.0, 0.0, 0.0, 0.0, 0.0, 0.0, 1.7307450318562744E9, 0.0, 2024-11-04 15:30:31.856
37.0, -76645.60695238198, -76713.91388343739, -76780.83500633658, -76814.25086429725, -76796.54828268866, -76763.51240438371, -76869.92905973543, -76805.86896012652, -0.06, 0.838, 0.55, 192.0, 0.0, 0.0, 0.0, 0.0, 0.0, 0.0, 0.0, 0.0, 0.0, 1.7307450318601315E9, 0.0, 2024-11-04 15:30:31.860
38.0, -76648.62443788344, -76716.9090171944, -76783.80778834914, -76817.24599805428, -76799.49871295676, -76766.55224162963, -76872.99124872581, -76808.86409388353, -0.06, 0.838, 0.55, 192.0, 0.0, 0.0, 0.0, 0.0, 0.0, 0.0, 0.0, 0.0, 0.0, 1.7307450318646119E9, 0.0, 2024-11-04 15:30:31.864
39.0, -76653.4971181747, -76721.84875271902, -76788.65811689594, -76822.20808532335, -76804.48315197029, -76771.58138413208, -76877.88628076152, -76813.75912591924, -0.06, 0.838, 0.55, 192.0, 0.0, 0.0, 0.0, 0.0, 0.0, 0.0, 0.0, 0.0, 0.0, 1.7307450318692589E9, 0.0, 2024-11-04 15:30:31.869
40.0, -76655.95581006477, -76724.28509286465, -76791.0721052971, -76824.66677721344, -76806.91949211592, -76773.90596555543, -76880.25556567378, -76816.21781780933, -0.06, 0.838, 0.55, 192.0, 0.0, 0.0, 0.0, 0.0, 0.0, 0.0, 0.0, 0.0, 0.0, 1.7307450318724048E9, 0.0, 2024-11-04 15:30:31.872
41.0, -76658.83918509951, -76727.16846789938, -76794.02253556521, -76827.66191097045, -76809.7805154062, -76776.81169233462, -76883.13894070852, -76819.05648935515, -0.06, 0.838, 0.55, 192.0, 0.0, 0.0, 0.0, 0.0, 0.0, 0.0, 0.0, 0.0, 0.0, 1.7307450318763037E9, 0.0, 2024-11-04 15:30:31.876
42.0, -76662.61662991246, -76730.83415399006, -76797.73292514478, -76831.34994880557, -76813.53560847469, -76780.58913714757, -76886.91638552146, -76822.878637657, -0.06, 0.838, 0.55, 192.0, 0.0, 0.0, 0.0, 0.0, 0.0, 0.0, 0.0, 0.0, 0.0, 1.730745031880401E9, 0.0, 2024-11-04 15:30:31.880
43.0, -76664.29301074661, -76732.53288656866, -76799.40930597893, -76832.91457091745, -76815.18963756438, -76782.24316623725, -76888.63746984453, -76824.55501849116, -0.06, 0.842, 0.548, 192.0, 254.0, 32.0, 26.0, 80.0, 17.0, 32.0, 0.0, 0.0, 0.0, 1.7307450318845277E9, 0.0, 2024-11-04 15:30:31.884
44.0, -76667.91399334837, -76736.24327614823, -76803.09734381406, -76836.66966398593, -76818.78826842169, -76785.88650058348, -76892.28080419074, -76828.22070458182, -0.06, 0.842, 0.548, 192.0, 0.0, 0.0, 0.0, 0.0, 0.0, 0.0, 0.0, 0.0, 0.0, 1.7307450318885102E9, 0.0, 2024-11-04 15:30:31.888
45.0, -76671.98201083923, -76740.15483142792, -76807.23241653829, -76840.69297798788, -76822.8339341681, -76789.86511109651, -76896.32646993715, -76832.26637032823, -0.06, 0.842, 0.548, 192.0, 0.0, 0.0, 0.0, 0.0, 0.0, 0.0, 0.0, 0.0, 0.0, 1.7307450318924696E9, 0.0, 2024-11-04 15:30:31.892
46.0, -76676.47471147474, -76744.55812508562, -76811.65806194044, -76845.09627164558, -76827.2372278258, -76794.29075649867, -76900.72976359485, -76836.66966398593, -0.06, 0.842, 0.548, 192.0, 0.0, 0.0, 0.0, 0.0, 0.0, 0.0, 0.0, 0.0, 0.0, 1.7307450318974519E9, 0.0, 2024-11-04 15:30:31.897
47.0, -76679.55925220958, -76747.84383152054, -76814.72025093083, -76848.29257110269, -76830.47823077181, -76797.48705595577, -76903.99311828532, -76839.82125995413, -0.06, 0.842, 0.548, 192.0, 0.0, 0.0, 0.0, 0.0, 0.0, 0.0, 0.0, 0.0, 0.0, 1.73074503190028E9, 0.0, 2024-11-04 15:30:31.900
48.0, -76684.27547028965, -76752.5153461117, -76819.43646901089, -76853.05349267168, -76835.12739361852, -76802.11386705803, -76908.59757764312, -76844.49277454529, -0.06, 0.842, 0.548, 192.0, 0.0, 0.0, 0.0, 0.0, 0.0, 0.0, 0.0, 0.0, 0.0, 1.7307450319045084E9, 0.0, 2024-11-04 15:30:31.904
49.0, -76688.32113603606, -76756.53866011366, -76823.41507952394, -76857.09915841809, -76839.12835587602, -76806.09247757107, -76912.5538364117, -76848.5384402917, -0.06, 0.842, 0.548, 192.0, 0.0, 0.0, 0.0, 0.0, 0.0, 0.0, 0.0, 0.0, 0.0, 1.730745031908234E9, 0.0, 2024-11-04 15:30:31.908
50.0, -76692.47856050475, -76760.69608458235, -76827.59485573707, -76861.25658288677, -76843.30813208917, -76810.40636425094, -76916.7559643693, -76852.7405682493, -0.06, 0.842, 0.548, 192.0, 0.0, 0.0, 0.0, 0.0, 0.0, 0.0, 0.0, 0.0, 0.0, 1.7307450319124188E9, 0.0, 2024-11-04 15:30:31.912
51.0, -76697.15007509591, -76765.30054394013, -76832.35577730606, -76865.83869050011, -76848.00199842478, -76815.14493407548, -76921.4498307049, -76857.3450276071, -0.06, 0.842, 0.548, 192.0, 0.0, 0.0, 0.0, 0.0, 0.0, 0.0, 0.0, 0.0, 0.0, 1.7307450319163785E9, 0.0, 2024-11-04 15:30:31.916
52.0, -76700.03345013064, -76768.16156723042, -76835.30620757416, -76868.69971379038, -76850.90772520396, -76817.89419864348, -76924.28850225074, -76860.20605089737, -0.06, 0.842, 0.548, 192.0, 0.0, 0.0, 0.0, 0.0, 0.0, 0.0, 0.0, 0.0, 0.0, 1.7307450319201944E9, 0.0, 2024-11-04 15:30:31.920
53.0, -76703.11799086547, -76771.33551494307, -76838.32369307562, -76871.87366150304, -76854.0369694277, -76820.91168414494, -76927.39539473002, -76863.31294337666, -0.064, 0.85, 0.548, 192.0, 254.0, 0.0, 26.0, 144.0, 17.0, 32.0, 0.0, 0.0, 0.0, 1.730745031925209E9, 0.0, 2024-11-04 15:30:31.925
54.0, -76708.43770604584, -76776.67758186789, -76843.55400127817, -76877.21572842787, -76859.42373984144, -76826.32080630312, -76932.84922037712, -76868.67736204593, -0.064, 0.85, 0.548, 192.0, 0.0, 0.0, 0.0, 0.0, 0.0, 0.0, 0.0, 0.0, 0.0, 1.7307450319353015E9, 0.0, 2024-11-04 15:30:31.935
55.0, -76713.28803459264, -76781.50555867024, -76848.3372745916, -76882.02135348575, -76864.20701315487, -76831.08172787211, -76937.63249369056, -76873.50533884828, -0.064, 0.85, 0.548, 192.0, 0.0, 0.0, 0.0, 0.0, 0.0, 0.0, 0.0, 0.0, 0.0, 1.7307450319355955E9, 0.0, 2024-11-04 15:30:31.935
56.0, -76716.68549974984, -76784.88067208299, -76851.77944323773, -76885.3964668985, -76867.58212656762, -76834.50154477377, -76940.98525535886, -76876.90280400548, -0.064, 0.85, 0.548, 192.0, 0.0, 0.0, 0.0, 0.0, 0.0, 0.0, 0.0, 0.0, 0.0, 1.730745031936302E9, 0.0, 2024-11-04 15:30:31.936
57.0, -76718.96537768429, -76787.2723087397, -76854.21578338335, -76887.83280704413, -76869.88435624652, -76836.87082968603, -76943.37689201557, -76879.33914415112, -0.064, 0.85, 0.548, 192.0, 0.0, 0.0, 0.0, 0.0, 0.0, 0.0, 0.0, 0.0, 0.0, 1.730745031940325E9, 0.0, 2024-11-04 15:30:31.940
58.0, -76722.8098777306, -76791.0721052971, -76858.06028342966, -76891.6996588349, -76873.81826327066, -76840.76003322126, -76947.26609555079, -76883.16129245298, -0.064, 0.85, 0.548, 192.0, 0.0, 0.0, 0.0, 0.0, 0.0, 0.0, 0.0, 0.0, 0.0, 1.730745031944454E9, 0.0, 2024-11-04 15:30:31.944
59.0, -76725.3579765985, -76793.68725939837, -76860.5413270642, -76894.13599898052, -76876.29930690519, -76843.2857803447, -76949.8588979076, -76885.68703957643, -0.064, 0.85, 0.548, 192.0, 0.0, 0.0, 0.0, 0.0, 0.0, 0.0, 0.0, 0.0, 0.0, 1.7307450319483943E9, 0.0, 2024-11-04 15:30:31.948
60.0, -76728.08488942205, -76796.39182047747, -76863.33529512111, -76896.92996703745, -76879.07092321765, -76845.94563793488, -76952.51875549779, -76888.3468971666, -0.064, 0.85, 0.548, 192.0, 0.0, 0.0, 0.0, 0.0, 0.0, 0.0, 0.0, 0.0, 0.0, 1.7307450319532175E9, 0.0, 2024-11-04 15:30:31.953
61.0, -76732.30936912411, -76800.63865192397, -76867.58212656762, -76901.13209499503, -76883.2954029197, -76850.17011763694, -76956.7655869443, -76892.61608035756, -0.064, 0.85, 0.548, 192.0, 0.0, 0.0, 0.0, 0.0, 0.0, 0.0, 0.0, 0.0, 0.0, 1.7307450319563732E9, 0.0, 2024-11-04 15:30:31.956
62.0, -76734.36572961399, -76802.73971590278, -76869.68319054642, -76903.21080722938, -76885.37411515405, -76852.24882987129, -76958.8666509231, -76894.71714433636, -0.064, 0.85, 0.548, 192.0, 0.0, 0.0, 0.0, 0.0, 0.0, 0.0, 0.0, 0.0, 0.0, 1.7307450319603431E9, 0.0, 2024-11-04 15:30:31.960
63.0, -76739.32781688307, -76807.6794514274, -76874.55587083768, -76908.12819100956, -76890.26914718976, -76857.27797237373, -76963.82873819217, -76899.7015833499, -0.058, 0.842, 0.546, 192.0, 254.0, 48.0, 26.0, 80.0, 17.0, 16.0, 0.0, 0.0, 0.0, 1.7307450319646783E9, 0.0, 2024-11-04 15:30:31.964
64.0, -76742.63587506245, -76810.92045437342, -76877.86392901707, -76911.48095267784, -76893.64426060251, -76860.51897531975, -76967.09209288265, -76902.94258629592, -0.058, 0.842, 0.546, 192.0, 0.0, 0.0, 0.0, 0.0, 0.0, 0.0, 0.0, 0.0, 0.0, 1.7307450319684188E9, 0.0, 2024-11-04 15:30:31.968
65.0, -76747.19563093134, -76815.34609977558, -76882.37898139704, -76915.9513015689, -76898.0475542602, -76864.96697246635, -76971.47303479588, -76907.36823169807, -0.058, 0.842, 0.546, 192.0, 0.0, 0.0, 0.0, 0.0, 0.0, 0.0, 0.0, 0.0, 0.0, 1.7307450319722335E9, 0.0, 2024-11-04 15:30:31.972
66.0, -76750.10135771053, -76818.27417829921, -76885.32941166514, -76918.8570283481, -76900.99798452831, -76867.96210622336, -76974.4681685529, -76910.38571719953, -0.058, 0.842, 0.546, 192.0, 0.0, 0.0, 0.0, 0.0, 0.0, 0.0, 0.0, 0.0, 0.0, 1.73074503197661E9, 0.0, 2024-11-04 15:30:31.976
67.0, -76749.92254375489, -76818.1847713214, -76885.10589422059, -76918.78997311473, -76900.9532810394, -76867.91740273446, -76974.40111331953, -76910.31866196617, -0.058, 0.842, 0.546, 192.0, 0.0, 0.0, 0.0, 0.0, 0.0, 0.0, 0.0, 0.0, 0.0, 1.7307450319793503E9, 0.0, 2024-11-04 15:30:31.979
68.0, -76753.92350601239, -76822.20808532335, -76889.1962634559, -76922.79093537224, -76904.9542432969, -76871.96306848087, -76978.37972383258, -76914.31962422367, -0.058, 0.842, 0.546, 192.0, 0.0, 0.0, 0.0, 0.0, 0.0, 0.0, 0.0, 0.0, 0.0, 1.730745031983531E9, 0.0, 2024-11-04 15:30:31.983
69.0, -76758.10328222552, -76826.41021328095, -76893.44309490241, -76926.903656352, -76909.08931602113, -76876.12049294954, -76982.58185179018, -76918.47704869235, -0.058, 0.842, 0.546, 192.0, 0.0, 0.0, 0.0, 0.0, 0.0, 0.0, 0.0, 0.0, 0.0, 1.730745031988352E9, 0.0, 2024-11-04 15:30:31.988
70.0, -76761.79132006066, -76830.07589937162, -76897.10878099309, -76930.50228720931, -76912.82205734517, -76879.67442031794, -76986.22518613639, -76922.23214176085, -0.058, 0.842, 0.546, 192.0, 0.0, 0.0, 0.0, 0.0, 0.0, 0.0, 0.0, 0.0, 0.0, 1.7307450319924035E9, 0.0, 2024-11-04 15:30:31.992
71.0, -76765.25584045122, -76833.47336452882, -76900.52859789475, -76934.0115110888, -76916.17481901345, -76883.16129245298, -76989.60029954914, -76925.67431040696, -0.058, 0.842, 0.546, 192.0, 0.0, 0.0, 0.0, 0.0, 0.0, 0.0, 0.0, 0.0, 0.0, 1.730745031996503E9, 0.0, 2024-11-04 15:30:31.996
72.0, -76769.88265155347, -76838.10017563107, -76905.11070550808, -76938.59361870213, -76920.7569266268, -76887.85515878859, -76994.20475890694, -76930.2564180203, -0.058, 0.842, 0.546, 192.0, 0.0, 0.0, 0.0, 0.0, 0.0, 0.0, 0.0, 0.0, 0.0, 1.7307450320004804E9, 0.0, 2024-11-04 15:30:32.000
73.0, -76773.95066904434, -76842.23524835531, -76909.22342648786, -76942.66163619299, -76924.78024062875, -76891.87847279054, -76998.33983163116, -76934.34678725562, -0.06, 0.852, 0.548, 192.0, 254.0, 32.0, 26.0, 160.0, 17.0, 32.0, 0.0, 0.0, 0.0, 1.730745032004434E9, 0.0, 2024-11-04 15:30:32.004
74.0, -76776.27525046769, -76844.71629198984, -76911.65976663349, -76945.07562459417, -76927.3059877522, -76894.27010944726, -77000.70911654342, -76936.60431344561, -0.06, 0.852, 0.548, 192.0, 0.0, 0.0, 0.0, 0.0, 0.0, 0.0, 0.0, 0.0, 0.0, 1.7307450320083268E9, 0.0, 2024-11-04 15:30:32.008
75.0, -76781.86318658153, -76850.25952461475, -76917.24770274732, -76950.7082641969, -76932.93862735495, -76899.92510079445, -77006.36410789062, -76942.25930479281, -0.06, 0.852, 0.548, 192.0, 0.0, 0.0, 0.0, 0.0, 0.0, 0.0, 0.0, 0.0, 0.0, 1.730745032011347E9, 0.0, 2024-11-04 15:30:32.011
76.0, -76786.15472151694, -76854.26048687226, -76921.33807198264, -76954.75392994333, -76937.05134833472, -76903.97076654086, -77010.52153235931, -76946.41672926149, -0.06, 0.852, 0.548, 192.0, 0.0, 0.0, 0.0, 0.0, 0.0, 0.0, 0.0, 0.0, 0.0, 1.7307450320153658E9, 0.0, 2024-11-04 15:30:32.015
77.0, -76790.33449773009, -76858.50731831876, -76925.6519586625, -76958.95605790091, -76941.23112454786, -76908.19524624292, -77014.76836380582, -76950.64120896354, -0.06, 0.852, 0.548, 192.0, 0.0, 0.0, 0.0, 0.0, 0.0, 0.0, 0.0, 0.0, 0.0, 1.730745032020398E9, 0.0, 2024-11-04 15:30:32.020
78.0, -76794.71543964332, -76862.93296372092, -76930.0552523202, -76963.4711102809, -76945.56736297219, -76912.64324338952, -77019.21636095243, -76955.1115578546, -0.06, 0.852, 0.548, 192.0, 0.0, 0.0, 0.0, 0.0, 0.0, 0.0, 0.0, 0.0, 0.0, 1.7307450320244298E9, 0.0, 2024-11-04 15:30:32.024
79.0, -76798.24701526726, -76866.35278062258, -76933.34095875514, -76966.89092718255, -76949.03188336277, -76916.01835680228, -77022.63617785409, -76958.4643195229, -0.06, 0.852, 0.548, 192.0, 0.0, 0.0, 0.0, 0.0, 0.0, 0.0, 0.0, 0.0, 0.0, 1.7307450320285013E9, 0.0, 2024-11-04 15:30:32.028
80.0, -76803.11969555852, -76871.33721963612, -76938.30304602422, -76971.85301445163, -76954.12808109858, -76921.0027958158, -77027.55356163425, -76963.40405504752, -0.06, 0.852, 0.548, 192.0, 0.0, 0.0, 0.0, 0.0, 0.0, 0.0, 0.0, 0.0, 0.0, 1.7307450320325491E9, 0.0, 2024-11-04 15:30:32.032
81.0, -76807.09830607157, -76875.36053363807, -76942.37106351508, -76975.85397670913, -76958.03963637825, -76924.98140632885, -77031.64393086957, -76967.4720725384, -0.06, 0.852, 0.548, 192.0, 0.0, 0.0, 0.0, 0.0, 0.0, 0.0, 0.0, 0.0, 0.0, 1.7307450320364444E9, 0.0, 2024-11-04 15:30:32.036
82.0, -76809.89227412848, -76878.08744646162, -76945.09797633863, -76978.60324127713, -76960.7665492018, -76927.68596740795, -77034.32614020421, -76970.17663361748, -0.06, 0.852, 0.548, 192.0, 0.0, 0.0, 0.0, 0.0, 0.0, 0.0, 0.0, 0.0, 0.0, 1.73074503203944E9, 0.0, 2024-11-04 15:30:32.039
83.0, -76813.35679451904, -76881.55196685219, -76948.54014498474, -76982.13481690107, -76964.27577308129, -76931.21754303187, -77037.74595710587, -76973.64115400806, -0.056, 0.846, 0.548, 192.0, 254.0, 64.0, 26.0, 112.0, 17.0, 32.0, 0.0, 0.0, 0.0, 1.7307450320444264E9, 0.0, 2024-11-04 15:30:32.044
84.0, -76817.49186724328, -76885.8435017876, -76952.7646246868, -76986.38164834758, -76968.5226045278, -76935.41967098947, -77042.05984378576, -76977.88798545457, -0.056, 0.846, 0.548, 192.0, 0.0, 0.0, 0.0, 0.0, 0.0, 0.0, 0.0, 0.0, 0.0, 1.7307450320484085E9, 0.0, 2024-11-04 15:30:32.048
85.0, -76821.89516090098, -76890.2467954453, -76957.14556660004, -76990.78494200528, -76972.90354644103, -76939.73355766936, -77046.41843395453, -76982.24657562334, -0.056, 0.846, 0.548, 192.0, 0.0, 0.0, 0.0, 0.0, 0.0, 0.0, 0.0, 0.0, 0.0, 1.7307450320524216E9, 0.0, 2024-11-04 15:30:32.052
86.0, -76824.51031500225, -76892.83959780211, -76959.73836895685, -76993.40009610655, -76975.5187005423, -76942.41576700399, -77049.01123631134, -76984.88408146908, -0.056, 0.846, 0.548, 192.0, 0.0, 0.0, 0.0, 0.0, 0.0, 0.0, 0.0, 0.0, 0.0, 1.7307450320565205E9, 0.0, 2024-11-04 15:30:32.056
87.0, -76827.19252433689, -76895.52180713676, -76962.4652817804, -76995.99289846336, -76978.13385464357, -76945.03092110527, -77051.60403866817, -76987.49923557034, -0.056, 0.846, 0.548, 192.0, 0.0, 0.0, 0.0, 0.0, 0.0, 0.0, 0.0, 0.0, 0.0, 1.7307450320604944E9, 0.0, 2024-11-04 15:30:32.060
88.0, -76831.0370243832, -76899.43336241643, -76966.39918880454, -76999.94915723195, -76982.04540992324, -76948.98717987385, -77055.60500092567, -76991.41079085003, -0.056, 0.846, 0.548, 192.0, 0.0, 0.0, 0.0, 0.0, 0.0, 0.0, 0.0, 0.0, 0.0, 1.7307450320635064E9, 0.0, 2024-11-04 15:30:32.063
89.0, -76834.61330349605, -76902.92023455146, -76969.95311617292, -77003.4807328559, -76985.6216890361, -76952.5634589867, -77059.1365765496, -76995.09882868515, -0.056, 0.846, 0.548, 192.0, 0.0, 0.0, 0.0, 0.0, 0.0, 0.0, 0.0, 0.0, 0.0, 1.7307450320674157E9, 0.0, 2024-11-04 15:30:32.067
90.0, -76839.84361169858, -76908.10583926509, -76975.07166565319, -77008.55457884724, -76990.74023851636, -76957.77141544479, -77064.32218126324, -77000.1726746765, -0.056, 0.846, 0.548, 192.0, 0.0, 0.0, 0.0, 0.0, 0.0, 0.0, 0.0, 0.0, 0.0, 1.7307450320715735E9, 0.0, 2024-11-04 15:30:32.071
91.0, -76841.36353032154, -76909.58105439914, -76976.63628776507, -77010.07449747021, -76992.23780539486, -76959.22427883439, -77065.79739639729, -77001.60318632165, -0.056, 0.846, 0.548, 192.0, 0.0, 0.0, 0.0, 0.0, 0.0, 0.0, 0.0, 0.0, 0.0, 1.730745032076472E9, 0.0, 2024-11-04 15:30:32.076
92.0, -76845.25273385677, -76913.55966491219, -76980.54784304474, -77013.96370100543, -76996.19406416346, -76963.13583411406, -77069.73130342142, -77005.53709334577, -0.056, 0.846, 0.548, 192.0, 0.0, 0.0, 0.0, 0.0, 0.0, 0.0, 0.0, 0.0, 0.0, 1.7307450320804985E9, 0.0, 2024-11-04 15:30:32.080
93.0, -76849.45486181437, -76917.76179286979, -76984.79467449125, -77018.21053245194, -77000.46324735442, -76967.3156103272, -77073.97813486792, -77009.73922130337, -0.058, 0.834, 0.55, 192.0, 254.0, 48.0, 26.0, 16.0, 17.0, 48.0, 0.0, 0.0, 0.0, 1.7307450320846252E9, 0.0, 2024-11-04 15:30:32.084
94.0, -76856.11568166205, -76924.33320573965, -76991.50019782785, -77024.91605578853, -77007.05701196873, -76974.08818889716, -77080.63895471561, -77016.46709638443, -0.058, 0.834, 0.55, 192.0, 0.0, 0.0, 0.0, 0.0, 0.0, 0.0, 0.0, 0.0, 0.0, 1.7307450320874977E9, 0.0, 2024-11-04 15:30:32.087
95.0, -76857.90382121847, -76926.18840052944, -76993.31068912873, -77026.7265470894, -77008.86750326962, -76975.89868019804, -77082.4941495054, -77018.41169815203, -0.058, 0.834, 0.55, 192.0, 0.0, 0.0, 0.0, 0.0, 0.0, 0.0, 0.0, 0.0, 0.0, 1.7307450320913787E9, 0.0, 2024-11-04 15:30:32.091
96.0, -76860.07194043064, -76928.28946450824, -76995.3223461297, -77028.73820409039, -77010.99091899287, -76977.93268894347, -77084.66226871757, -77020.44570689747, -0.058, 0.834, 0.55, 192.0, 0.0, 0.0, 0.0, 0.0, 0.0, 0.0, 0.0, 0.0, 0.0, 1.7307450320956028E9, 0.0, 2024-11-04 15:30:32.095
97.0, -76863.60351605457, -76931.73163315436, -76998.8762734981, -77032.22507622541, -77014.4777911279, -76981.50896805633, -77088.12678910814, -77023.84317205468, -0.058, 0.834, 0.55, 192.0, 0.0, 0.0, 0.0, 0.0, 0.0, 0.0, 0.0, 0.0, 0.0, 1.7307450320994036E9, 0.0, 2024-11-04 15:30:32.099
98.0, -76868.40914111247, -76936.53725821225, -77003.68189855598, -77037.00834953885, -77019.3281196747, -76986.2698896253, -77092.91006242158, -77028.6264453681, -0.058, 0.834, 0.55, 192.0, 0.0, 0.0, 0.0, 0.0, 0.0, 0.0, 0.0, 0.0, 0.0, 1.730745032104381E9, 0.0, 2024-11-04 15:30:32.104
99.0, -76871.85130975858, -76940.06883383618, -77007.14641894656, -77040.56227690725, -77022.74793657636, -76989.73441001588, -77096.3969345566, -77032.20272448096, -0.058, 0.834, 0.55, 192.0, 0.0, 0.0, 0.0, 0.0, 0.0, 0.0, 0.0, 0.0, 0.0, 1.7307450321084003E9, 0.0, 2024-11-04 15:30:32.108
100.0, -76874.48881560432, -76942.68398793746, -77009.78392479228, -77043.19978275297, -77025.38544242209, -76992.34956411715, -77099.01208865787, -77034.81787858222, -0.058, 0.834, 0.55, 192.0, 0.0, 0.0, 0.0, 0.0, 0.0, 0.0, 0.0, 0.0, 0.0, 1.7307450321125E9, 0.0, 2024-11-04 15:30:32.112
101.0, -76877.93098425043, -76946.12615658357, -77013.22609343841, -77046.70900663246, -77028.7829075793, -76995.7693810188, -77102.47660904845, -77038.2376954839, -0.058, 0.834, 0.55, 192.0, 0.0, 0.0, 0.0, 0.0, 0.0, 0.0, 0.0, 0.0, 0.0, 1.7307450321155028E9, 0.0, 2024-11-04 15:30:32.115
102.0, -76881.12728370754, -76949.34480778514, -77016.53415161779, -77049.95000957848, -77032.06861401422, -76999.03273570929, -77105.67290850556, -77041.45634668546, -0.058, 0.834, 0.55, 192.0, 0.0, 0.0, 0.0, 0.0, 0.0, 0.0, 0.0, 0.0, 0.0, 1.7307450321196444E9, 0.0, 2024-11-04 15:30:32.119
103.0, -76885.21765294285, -76953.52458399828, -77020.60216910865, -77054.0850823027, -77036.15898324955, -77003.19016017797, -77109.78562948533, -77045.63612289859, -0.06, 0.834, 0.548, 192.0, 254.0, 32.0, 26.0, 16.0, 17.0, 32.0, 0.0, 0.0, 0.0, 1.73074503212354E9, 0.0, 2024-11-04 15:30:32.123
104.0, -76891.4984931348, -76959.69366546794, -77026.81595406723, -77060.29886726128, -77042.41747169703, -77009.33688990318, -77116.11117316618, -77051.87225960163, -0.06, 0.834, 0.548, 192.0, 0.0, 0.0, 0.0, 0.0, 0.0, 0.0, 0.0, 0.0, 0.0, 1.7307450321274772E9, 0.0, 2024-11-04 15:30:32.127
105.0, -76894.11364723607, -76962.24176433585, -77029.40875642405, -77062.95872485146, -77045.05497754276, -77011.95204400446, -77118.70397552299, -77054.42035846954, -0.06, 0.834, 0.548, 192.0, 0.0, 0.0, 0.0, 0.0, 0.0, 0.0, 0.0, 0.0, 0.0, 1.7307450321315477E9, 0.0, 2024-11-04 15:30:32.131
106.0, -76895.92413853695, -76964.1193108701, -77031.19689598047, -77064.74686440789, -77046.70900663246, -77013.76253530533, -77120.46976333497, -77056.16379453705, -0.06, 0.834, 0.548, 192.0, 0.0, 0.0, 0.0, 0.0, 0.0, 0.0, 0.0, 0.0, 0.0, 1.7307450321365387E9, 0.0, 2024-11-04 15:30:32.136
107.0, -76899.07573450515, -76967.24855509384, -77034.32614020421, -77067.85375688717, -77049.97236132293, -77016.93648301798, -77123.62135930317, -77059.36009399415, -0.06, 0.834, 0.548, 192.0, 0.0, 0.0, 0.0, 0.0, 0.0, 0.0, 0.0, 0.0, 0.0, 1.7307450321405492E9, 0.0, 2024-11-04 15:30:32.140
108.0, -76902.71906885137, -76970.89188944006, -77037.99182629488, -77071.4970912334, -77053.6380474136, -77020.55746561974, -77127.33174888275, -77063.11518706265, -0.06, 0.834, 0.548, 192.0, 0.0, 0.0, 0.0, 0.0, 0.0, 0.0, 0.0, 0.0, 0.0, 1.7307450321434004E9, 0.0, 2024-11-04 15:30:32.143
109.0, -76908.95520555439, -76977.10567439863, -77044.27266648682, -77077.66617270306, -77059.82948062771, -77026.77125057831, -77133.56788558577, -77069.32897202122, -0.06, 0.834, 0.548, 192.0, 0.0, 0.0, 0.0, 0.0, 0.0, 0.0, 0.0, 0.0, 0.0, 1.730745032147454E9, 0.0, 2024-11-04 15:30:32.147
110.0, -76911.95033931141, -76980.23491862237, -77047.29015198829, -77080.77306518234, -77062.91402136255, -77029.81108782424, -77136.6077228317, -77072.45821624497, -0.06, 0.834, 0.548, 192.0, 0.0, 0.0, 0.0, 0.0, 0.0, 0.0, 0.0, 0.0, 0.0, 1.7307450321514502E9, 0.0, 2024-11-04 15:30:32.151
111.0, -76913.04557478972, -76981.28545061177, -77048.36303572214, -77081.86830066064, -77064.00925684086, -77030.97337853591, -77137.68060656555, -77073.53109997882, -0.06, 0.834, 0.548, 192.0, 0.0, 0.0, 0.0, 0.0, 0.0, 0.0, 0.0, 0.0, 0.0, 1.730745032155512E9, 0.0, 2024-11-04 15:30:32.155
112.0, -76916.17481901345, -76984.34763960214, -77051.46992820143, -77084.93048965103, -77067.0937975757, -77034.01321578184, -77140.74279555593, -77076.57093722474, -0.06, 0.834, 0.548, 192.0, 0.0, 0.0, 0.0, 0.0, 0.0, 0.0, 0.0, 0.0, 0.0, 1.7307450321594863E9, 0.0, 2024-11-04 15:30:32.159
113.0, -76920.62281616006, -76988.7732850043, -77055.89557360359, -77089.33378330873, -77071.51944297785, -77038.41650943953, -77145.16844095808, -77080.90717564907, -0.064, 0.838, 0.548, 192.0, 254.0, 0.0, 26.0, 48.0, 17.0, 32.0, 0.0, 0.0, 0.0, 1.7307450321647458E9, 0.0, 2024-11-04 15:30:32.164
114.0, -76925.1602202845, -76993.28833738426, -77060.27651551683, -77093.78178045533, -77075.96744012446, -77042.97626530842, -77149.66114159359, -77085.46693151795, -0.064, 0.838, 0.548, 192.0, 0.0, 0.0, 0.0, 0.0, 0.0, 0.0, 0.0, 0.0, 0.0, 1.7307450321684563E9, 0.0, 2024-11-04 15:30:32.168
115.0, -76928.06594706369, -76996.26111939682, -77063.27164927384, -77096.77691421234, -77078.87316690364, -77045.85964034316, -77152.6115718617, -77088.41736178605, -0.064, 0.838, 0.548, 192.0, 0.0, 0.0, 0.0, 0.0, 0.0, 0.0, 0.0, 0.0, 0.0, 1.7307450321715324E9, 0.0, 2024-11-04 15:30:32.171
116.0, -76933.07273782167, -77001.31261364372, -77068.3901987541, -77101.94016718151, -77083.96936463944, -77051.02289331233, -77157.64071436414, -77093.51355952186, -0.064, 0.838, 0.548, 192.0, 0.0, 0.0, 0.0, 0.0, 0.0, 0.0, 0.0, 0.0, 0.0, 1.7307450321755521E9, 0.0, 2024-11-04 15:30:32.175
117.0, -76937.14075531253, -77005.20181717895, -77072.41351275606, -77105.89642595011, -77088.03738213032, -77054.97915208092, -77161.68638011055, -77097.38041131264, -0.064, 0.838, 0.548, 192.0, 0.0, 0.0, 0.0, 0.0, 0.0, 0.0, 0.0, 0.0, 0.0, 1.7307450321795948E9, 0.0, 2024-11-04 15:30:32.179
118.0, -76939.912371625, -77008.10754395813, -77075.3415912797, -77108.77980098483, -77090.8984054206, -77057.81782362674, -77164.59210688974, -77100.24143460291, -0.064, 0.838, 0.548, 192.0, 0.0, 0.0, 0.0, 0.0, 0.0, 0.0, 0.0, 0.0, 0.0, 1.7307450321834805E9, 0.0, 2024-11-04 15:30:32.183
119.0, -76943.10867108211, -77011.41560213752, -77078.56024248127, -77111.95374869749, -77094.16176011108, -77061.0364748283, -77167.78840634685, -77103.41538231556, -0.064, 0.838, 0.548, 192.0, 0.0, 0.0, 0.0, 0.0, 0.0, 0.0, 0.0, 0.0, 0.0, 1.730745032187853E9, 0.0, 2024-11-04 15:30:32.187
120.0, -76944.31566528269, -77012.64494808257, -77079.72253319294, -77113.18309464253, -77095.36875431165, -77062.26582077335, -77169.0177522919, -77104.71178349397, -0.064, 0.838, 0.548, 192.0, 0.0, 0.0, 0.0, 0.0, 0.0, 0.0, 0.0, 0.0, 0.0, 1.7307450321925201E9, 0.0, 2024-11-04 15:30:32.192
121.0, -76948.92012464048, -77017.18235220699, -77084.28228906183, -77117.83225748924, -77099.86145494717, -77066.84792838669, -77173.57750816077, -77109.29389110731, -0.064, 0.838, 0.548, 192.0, 0.0, 0.0, 0.0, 0.0, 0.0, 0.0, 0.0, 0.0, 0.0, 1.7307450321967316E9, 0.0, 2024-11-04 15:30:32.196
122.0, -76952.71992119789, -77020.95979701994, -77088.08208561923, -77121.54264706883, -77103.61654801566, -77070.692428433, -77177.37730471817, -77113.04898417581, -0.064, 0.838, 0.548, 192.0, 0.0, 0.0, 0.0, 0.0, 0.0, 0.0, 0.0, 0.0, 0.0, 1.7307450321996765E9, 0.0, 2024-11-04 15:30:32.199
123.0, -76957.30202881123, -77025.430145911, -77092.70889672148, -77126.12475468215, -77108.24335911791, -77075.20748081297, -77181.95941233152, -77117.65344353359, -0.066, 0.846, 0.546, 192.0, 253.0, 240.0, 26.0, 112.0, 17.0, 16.0, 0.0, 0.0, 0.0, 1.730745032203653E9, 0.0, 2024-11-04 15:30:32.203
124.0, -76961.6159154911, -77029.8334395687, -77096.95572816799, -77130.48334485095, -77112.62430103116, -77079.56607098176, -77186.36270598922, -77122.05673719129, -0.066, 0.846, 0.546, 192.0, 0.0, 0.0, 0.0, 0.0, 0.0, 0.0, 0.0, 0.0, 0.0, 1.7307450322076182E9, 0.0, 2024-11-04 15:30:32.207
125.0, -76963.44875853644, -77031.68863435849, -77098.9003299356, -77132.3608913852, -77114.45714407648, -77081.48832100492, -77188.28495601237, -77123.93428372554, -0.066, 0.846, 0.546, 192.0, 0.0, 0.0, 0.0, 0.0, 0.0, 0.0, 0.0, 0.0, 0.0, 1.7307450322116072E9, 0.0, 2024-11-04 15:30:32.211
126.0, -76966.60035450463, -77034.81787858222, -77102.0519259038, -77135.5124873534, -77117.63109178914, -77084.63991697312, -77191.32479325829, -77126.99647271591, -0.066, 0.846, 0.546, 192.0, 0.0, 0.0, 0.0, 0.0, 0.0, 0.0, 0.0, 0.0, 0.0, 1.7307450322155373E9, 0.0, 2024-11-04 15:30:32.215
127.0, -76970.55661327322, -77038.79648909527, -77106.03053641685, -77139.46874612197, -77121.60970230219, -77088.55147225279, -77195.25870028243, -77130.97508322896, -0.066, 0.846, 0.546, 192.0, 0.0, 0.0, 0.0, 0.0, 0.0, 0.0, 0.0, 0.0, 0.0, 1.7307450322207656E9, 0.0, 2024-11-04 15:30:32.220
128.0, -76974.44581680844, -77042.79745135277, -77109.94209169652, -77143.46970837947, -77125.52125758187, -77092.37362055464, -77199.19260730656, -77134.9089902531, -0.066, 0.846, 0.546, 192.0, 0.0, 0.0, 0.0, 0.0, 0.0, 0.0, 0.0, 0.0, 0.0, 1.7307450322235243E9, 0.0, 2024-11-04 15:30:32.223
129.0, -76977.19508137644, -77045.47966068742, -77112.64665277561, -77146.12956596966, -77128.31522563878, -77095.1452368671, -77201.98657536347, -77137.63590307665, -0.066, 0.846, 0.546, 192.0, 0.0, 0.0, 0.0, 0.0, 0.0, 0.0, 0.0, 0.0, 0.0, 1.7307450322276628E9, 0.0, 2024-11-04 15:30:32.227
130.0, -76982.60420353463, -77050.79937586778, -77117.89931272261, -77151.49398463893, -77133.61258907469, -77100.53200728084, -77207.28393879937, -77142.95561825701, -0.066, 0.846, 0.546, 192.0, 0.0, 0.0, 0.0, 0.0, 0.0, 0.0, 0.0, 0.0, 0.0, 1.7307450322315557E9, 0.0, 2024-11-04 15:30:32.231
131.0, -76986.73927625887, -77055.09091080319, -77122.14614416912, -77155.62905736317, -77137.74766179892, -77104.71178349397, -77211.3743080347, -77147.09069098123, -0.066, 0.846, 0.546, 192.0, 0.0, 0.0, 0.0, 0.0, 0.0, 0.0, 0.0, 0.0, 0.0, 1.7307450322357128E9, 0.0, 2024-11-04 15:30:32.235
132.0, -76989.37678210459, -77057.57195443774, -77124.69424303703, -77158.15480448662, -77140.3628159002, -77107.25988236188, -77213.98946213597, -77149.66114159359, -0.066, 0.846, 0.546, 192.0, 0.0, 0.0, 0.0, 0.0, 0.0, 0.0, 0.0, 0.0, 0.0, 1.7307450322395933E9, 0.0, 2024-11-04 15:30:32.239
133.0, -76991.9248809725, -77060.12005330564, -77127.3541006272, -77160.8146620768, -77142.97797000146, -77109.8526847187, -77216.55991274833, -77152.23159220596, -0.058, 0.842, 0.542, 192.0, 254.0, 48.0, 26.0, 80.0, 16.0, 240.0, 0.0, 0.0, 0.0, 1.7307450322436776E9, 0.0, 2024-11-04 15:30:32.243
134.0, -76996.64109905256, -77064.76921615234, -77131.98091172945, -77165.5085284124, -77147.62713284817, -77114.54655105431, -77221.25377908394, -77156.92545854158, -0.058, 0.842, 0.542, 192.0, 0.0, 0.0, 0.0, 0.0, 0.0, 0.0, 0.0, 0.0, 0.0, 1.7307450322486084E9, 0.0, 2024-11-04 15:30:32.248
135.0, -77000.15032293205, -77068.3454952652, -77135.46778386447, -77169.04010403635, -77151.15870847211, -77118.07812667824, -77224.76300296343, -77160.54644114333, -0.058, 0.842, 0.542, 192.0, 0.0, 0.0, 0.0, 0.0, 0.0, 0.0, 0.0, 0.0, 0.0, 1.7307450322517204E9, 0.0, 2024-11-04 15:30:32.251
136.0, -77002.31844214421, -77070.6477249441, -77137.83706877675, -77171.3199819708, -77153.50564163992, -77120.38035635714, -77227.10993613124, -77162.84867082223, -0.058, 0.842, 0.542, 192.0, 0.0, 0.0, 0.0, 0.0, 0.0, 0.0, 0.0, 0.0, 0.0, 1.7307450322556405E9, 0.0, 2024-11-04 15:30:32.255
137.0, -77006.65468056855, -77074.98396336842, -77142.21801068998, -77175.67857213957, -77157.79717657533, -77124.82835350375, -77231.49087804448, -77167.14020575765, -0.058, 0.842, 0.542, 192.0, 0.0, 0.0, 0.0, 0.0, 0.0, 0.0, 0.0, 0.0, 0.0, 1.7307450322596767E9, 0.0, 2024-11-04 15:30:32.259
138.0, -77010.34271840367, -77078.67200120354, -77145.8613450362, -77179.25485125242, -77161.41815917709, -77128.42698436105, -77235.04480541286, -77170.82824359277, -0.058, 0.842, 0.542, 192.0, 0.0, 0.0, 0.0, 0.0, 0.0, 0.0, 0.0, 0.0, 0.0, 1.7307450322636316E9, 0.0, 2024-11-04 15:30:32.263
139.0, -77012.68965157148, -77081.04128611581, -77148.14122297063, -77181.6688396536, -77163.72038885599, -77130.7068622955, -77237.36938683622, -77173.17517676057, -0.058, 0.842, 0.542, 192.0, 0.0, 0.0, 0.0, 0.0, 0.0, 0.0, 0.0, 0.0, 0.0, 1.7307450322676957E9, 0.0, 2024-11-04 15:30:32.267
140.0, -77015.77419230631, -77083.99171638391, -77151.20341196102, -77184.68632515507, -77166.78257784636, -77133.74669954141, -77240.47627931551, -77176.23736575096, -0.058, 0.842, 0.542, 192.0, 0.0, 0.0, 0.0, 0.0, 0.0, 0.0, 0.0, 0.0, 0.0, 1.7307450322716017E9, 0.0, 2024-11-04 15:30:32.271
141.0, -77020.9821487644, -77089.13261760863, -77156.38901667464, -77189.82722637978, -77171.92347907109, -77138.79819378832, -77245.61718054023, -77181.44532220904, -0.058, 0.842, 0.542, 192.0, 0.0, 0.0, 0.0, 0.0, 0.0, 0.0, 0.0, 0.0, 0.0, 1.7307450322767458E9, 0.0, 2024-11-04 15:30:32.276
142.0, -77027.95589303445, -77096.21812060096, -77163.47451966698, -77196.95743286103, -77179.12074078569, -77145.90604852511, -77252.76973876593, -77188.48612171247, -0.058, 0.842, 0.542, 192.0, 0.0, 0.0, 0.0, 0.0, 0.0, 0.0, 0.0, 0.0, 0.0, 1.7307450322795956E9, 0.0, 2024-11-04 15:30:32.279
143.0, -77032.47094541442, -77100.73317298094, -77167.98957204695, -77201.45013349655, -77183.56873793229, -77150.42110090508, -77257.26243940144, -77193.00117409244, -0.062, 0.846, 0.542, 192.0, 254.0, 16.0, 26.0, 112.0, 16.0, 240.0, 0.0, 0.0, 0.0, 1.7307450322828205E9, 0.0, 2024-11-04 15:30:32.282
144.0, -77034.97434079341, -77103.23656835992, -77170.42591219257, -77203.75236317544, -77185.96037458902, -77152.85744105071, -77259.69877954708, -77195.4151624936, -0.062, 0.846, 0.542, 192.0, 0.0, 0.0, 0.0, 0.0, 0.0, 0.0, 0.0, 0.0, 0.0, 1.7307450322877371E9, 0.0, 2024-11-04 15:30:32.287
145.0, -77037.3883291946, -77105.6058532722, -77172.68343838256, -77206.14399983216, -77188.28495601237, -77155.29378119633, -77262.09041620379, -77197.80679915033, -0.062, 0.846, 0.542, 192.0, 0.0, 0.0, 0.0, 0.0, 0.0, 0.0, 0.0, 0.0, 0.0, 1.7307450322917154E9, 0.0, 2024-11-04 15:30:32.291
146.0, -77042.32806471922, -77110.47853356345, -77177.69022914056, -77211.21784582351, -77193.33645025927, -77160.2111649765, -77266.9854482395, -77202.7241829305, -0.062, 0.846, 0.542, 192.0, 0.0, 0.0, 0.0, 0.0, 0.0, 0.0, 0.0, 0.0, 0.0, 1.7307450322956104E9, 0.0, 2024-11-04 15:30:32.295
147.0, -77045.77023336533, -77113.94305395402, -77181.17710127558, -77214.74942144746, -77196.8233223943, -77163.72038885599, -77270.51702386345, -77206.23340680997, -0.062, 0.846, 0.542, 192.0, 0.0, 0.0, 0.0, 0.0, 0.0, 0.0, 0.0, 0.0, 0.0, 1.730745032299894E9, 0.0, 2024-11-04 15:30:32.299
148.0, -77050.06176830074, -77118.14518191162, -77185.42393272209, -77218.97390114951, -77201.11485732971, -77167.98957204695, -77274.71915182105, -77210.5249417454, -0.062, 0.846, 0.542, 192.0, 0.0, 0.0, 0.0, 0.0, 0.0, 0.0, 0.0, 0.0, 0.0, 1.7307450323046615E9, 0.0, 2024-11-04 15:30:32.304
149.0, -77054.55446893627, -77122.61553080268, -77189.89428161315, -77223.51130527393, -77205.58520622077, -77172.50462442692, -77279.23420420101, -77215.03999412537, -0.062, 0.846, 0.542, 192.0, 0.0, 0.0, 0.0, 0.0, 0.0, 0.0, 0.0, 0.0, 0.0, 1.7307450323076532E9, 0.0, 2024-11-04 15:30:32.307
150.0, -77057.10256780418, -77125.16362967058, -77192.35297350324, -77226.08175588629, -77208.04389811086, -77175.00801980591, -77281.73759958001, -77217.54338950437, -0.062, 0.846, 0.542, 192.0, 0.0, 0.0, 0.0, 0.0, 0.0, 0.0, 0.0, 0.0, 0.0, 1.73074503231072E9, 0.0, 2024-11-04 15:30:32.310
151.0, -77059.85183237218, -77128.09170819423, -77195.25870028243, -77228.94277917658, -77210.9272731456, -77177.8690430962, -77284.64332635919, -77220.35970930573, -0.062, 0.846, 0.542, 192.0, 0.0, 0.0, 0.0, 0.0, 0.0, 0.0, 0.0, 0.0, 0.0, 1.7307450323157375E9, 0.0, 2024-11-04 15:30:32.315
152.0, -77064.43393998551, -77132.62911231865, -77199.88551138467, -77233.41312806764, -77215.53173250338, -77182.45115070953, -77289.13602699472, -77224.85240994125, -0.062, 0.846, 0.542, 192.0, 0.0, 0.0, 0.0, 0.0, 0.0, 0.0, 0.0, 0.0, 0.0, 1.7307450323196764E9, 0.0, 2024-11-04 15:30:32.319
153.0, -77068.65841968756, -77136.87594376516, -77204.08763934227, -77237.65995951415, -77219.71150871653, -77186.65327866713, -77293.33815495232, -77229.09924138775, -0.064, 0.846, 0.542, 192.0, 254.0, 0.0, 26.0, 112.0, 16.0, 240.0, 0.0, 0.0, 0.0, 1.7307450323237703E9, 0.0, 2024-11-04 15:30:32.323
154.0, -77072.90525113407, -77141.14512695612, -77208.33447078877, -77241.83973572728, -77223.86893318522, -77190.87775836918, -77297.67439337664, -77233.39077632318, -0.064, 0.846, 0.542, 192.0, 0.0, 0.0, 0.0, 0.0, 0.0, 0.0, 0.0, 0.0, 0.0, 1.7307450323286722E9, 0.0, 2024-11-04 15:30:32.328
155.0, -77075.27453604633, -77143.51441186838, -77210.74845918996, -77244.32077936182, -77226.46173554203, -77193.29174677035, -77300.11073352226, -77235.80476472435, -0.064, 0.846, 0.542, 192.0, 0.0, 0.0, 0.0, 0.0, 0.0, 0.0, 0.0, 0.0, 0.0, 1.73074503233173E9, 0.0, 2024-11-04 15:30:32.331
