%OpenBCI Raw EXG Data
%Number of channels = 8
%Sample Rate = 250 Hz
%Board = OpenBCI_GUI$BoardCytonSerial
Sample Index, EXG Channel 0, EXG Channel 1, EXG Channel 2, EXG Channel 3, EXG Channel 4, EXG Channel 5, EXG Channel 6, EXG Channel 7, Accel Channel 0, Accel Channel 1, Accel Channel 2, Not Used, Digital Channel 0 (D11), Digital Channel 1 (D12), Digital Channel 2 (D13), Digital Channel 3 (D17), Not Used, Digital Channel 4 (D18), Analog Channel 0, Analog Channel 1, Analog Channel 2, Timestamp, Marker Channel, Timestamp (Formatted)
0.0, -171331.82094476474, -172242.58747608514, -187500.02235174447, -187500.02235174447, -173475.6438107066, -173095.97707938877, -174787.53474802195, -173949.34433094793, -0.08, 0.41200000000000003, 0.272, 192.0, 253.0, 128.0, 12.0, 224.0, 8.0, 128.0, 0.0, 0.0, 0.0, 1.7307470370843349E9, 0.0, 2024-11-04 16:03:57.084
1.0, -171352.36219791917, -172257.2055169589, -187500.02235174447, -187500.02235174447, -173469.69824668148, -173095.9100241554, -174774.23546007104, -173935.79917380802, -0.08, 0.41200000000000003, 0.272, 192.0, 0.0, 0.0, 0.0, 0.0, 0.0, 0.0, 0.0, 0.0, 0.0, 1.730747037087347E9, 0.0, 2024-11-04 16:03:57.087
2.0, -171275.09221733717, -172238.27358940526, -187500.02235174447, -187500.02235174447, -173499.1578458736, -173142.13343168897, -174579.1047309762, -173953.90408681682, -0.08, 0.41200000000000003, 0.272, 192.0, 0.0, 0.0, 0.0, 0.0, 0.0, 0.0, 0.0, 0.0, 0.0, 1.7307470370904124E9, 0.0, 2024-11-04 16:03:57.090
3.0, -171251.17585077, -172220.2580833743, -187500.02235174447, -187500.02235174447, -173498.62140400667, -173153.9128010169, -174583.82094905627, -173956.58629615145, -0.08, 0.41200000000000003, 0.272, 192.0, 0.0, 0.0, 0.0, 0.0, 0.0, 0.0, 0.0, 0.0, 0.0, 1.73074703709346E9, 0.0, 2024-11-04 16:03:57.093
4.0, -171315.41476433453, -172228.32706312265, -187500.02235174447, -187500.02235174447, -173466.61370594666, -173122.21802737928, -174774.07899785985, -173933.13931621783, -0.08, 0.41200000000000003, 0.272, 192.0, 0.0, 0.0, 0.0, 0.0, 0.0, 0.0, 0.0, 0.0, 0.0, 1.730747037097507E9, 0.0, 2024-11-04 16:03:57.097
5.0, -171354.9997037649, -172244.97911274186, -187500.02235174447, -187500.02235174447, -173449.15699352705, -173107.7117452278, -174818.760135026, -173910.4969990846, -0.08, 0.41200000000000003, 0.272, 192.0, 0.0, 0.0, 0.0, 0.0, 0.0, 0.0, 0.0, 0.0, 0.0, 1.730747037102456E9, 0.0, 2024-11-04 16:03:57.102
6.0, -171279.89784239506, -172228.57293231165, -187500.02235174447, -187500.02235174447, -173477.63311596314, -173152.48228937178, -174614.48754244894, -173926.34438590342, -0.08, 0.41200000000000003, 0.272, 192.0, 0.0, 0.0, 0.0, 0.0, 0.0, 0.0, 0.0, 0.0, 0.0, 1.730747037106395E9, 0.0, 2024-11-04 16:03:57.106
7.0, -171242.99511229934, -172209.7527634803, -187500.02235174447, -187500.02235174447, -173484.11512185517, -173172.35299019254, -174582.9492310225, -173933.51929587356, -0.11, 0.602, 0.41200000000000003, 192.0, 252.0, 144.0, 18.0, 208.0, 12.0, 224.0, 0.0, 0.0, 0.0, 1.7307470371105795E9, 0.0, 2024-11-04 16:03:57.110
8.0, -171292.05719137876, -172210.53507453622, -187500.02235174447, -187500.02235174447, -173455.48253720792, -173146.40261487995, -174756.68934067362, -173914.27444389756, -0.11, 0.602, 0.41200000000000003, 192.0, 0.0, 0.0, 0.0, 0.0, 0.0, 0.0, 0.0, 0.0, 0.0, 1.7307470371134787E9, 0.0, 2024-11-04 16:03:57.113
9.0, -171351.46812814096, -172230.38342361254, -187500.02235174447, -187500.02235174447, -173430.85091481818, -173122.01686167918, -174857.04867327795, -173887.02766740654, -0.11, 0.602, 0.41200000000000003, 192.0, 0.0, 0.0, 0.0, 0.0, 0.0, 0.0, 0.0, 0.0, 0.0, 1.7307470371175056E9, 0.0, 2024-11-04 16:03:57.117
10.0, -171290.93960415598, -172221.26391187476, -187500.02235174447, -187500.02235174447, -173457.4941942089, -173163.0770162436, -174662.38733081668, -173900.32695535745, -0.11, 0.602, 0.41200000000000003, 192.0, 0.0, 0.0, 0.0, 0.0, 0.0, 0.0, 0.0, 0.0, 0.0, 1.730747037121464E9, 0.0, 2024-11-04 16:03:57.121
11.0, -171242.39161519904, -172201.16969360944, -187500.02235174447, -187500.02235174447, -173469.36297051466, -173189.29561248966, -174585.67614384607, -173909.8935019843, -0.11, 0.602, 0.41200000000000003, 192.0, 0.0, 0.0, 0.0, 0.0, 0.0, 0.0, 0.0, 0.0, 0.0, 1.7307470371255603E9, 0.0, 2024-11-04 16:03:57.125
12.0, -171275.40514175955, -172195.96173715137, -187500.02235174447, -187500.02235174447, -173445.55836266975, -173170.49779540274, -174728.5931978933, -173895.25310936608, -0.11, 0.602, 0.41200000000000003, 192.0, 0.0, 0.0, 0.0, 0.0, 0.0, 0.0, 0.0, 0.0, 0.0, 1.7307470371305068E9, 0.0, 2024-11-04 16:03:57.130
13.0, -171347.55657286127, -172217.53117055073, -187500.02235174447, -187500.02235174447, -173415.65172858856, -173138.98183572077, -174873.1195775413, -173865.36882702934, -0.11, 0.602, 0.41200000000000003, 192.0, 0.0, 0.0, 0.0, 0.0, 0.0, 0.0, 0.0, 0.0, 0.0, 1.7307470371345177E9, 0.0, 2024-11-04 16:03:57.134
14.0, -171310.7879532323, -172218.31348160666, -187500.02235174447, -187500.02235174447, -173435.7459468539, -173169.93900179138, -174721.0383082674, -173872.11905385484, -0.11, 0.602, 0.41200000000000003, 192.0, 0.0, 0.0, 0.0, 0.0, 0.0, 0.0, 0.0, 0.0, 0.0, 1.730747037137434E9, 0.0, 2024-11-04 16:03:57.137
15.0, -171286.24573782037, -172211.78677222572, -187500.02235174447, -187500.02235174447, -173443.25613299088, -173186.32283047712, -174675.06076992283, -173873.90719341126, -0.11, 0.602, 0.41200000000000003, 192.0, 0.0, 0.0, 0.0, 0.0, 0.0, 0.0, 0.0, 0.0, 0.0, 1.7307470371414752E9, 0.0, 2024-11-04 16:03:57.141
16.0, -171322.90259872706, -172217.17354263944, -187500.02235174447, -187500.02235174447, -173418.8256763012, -173167.10033024554, -174801.37047783978, -173856.60694320285, -0.11, 0.602, 0.41200000000000003, 192.0, 0.0, 0.0, 0.0, 0.0, 0.0, 0.0, 0.0, 0.0, 0.0, 1.7307470371454487E9, 0.0, 2024-11-04 16:03:57.145
17.0, -171355.82671830975, -172230.51753407926, -187500.02235174447, -187500.02235174447, -173402.08421970418, -173154.20337369482, -174860.98258030208, -173841.36305348433, -0.124, 0.712, 0.484, 192.0, 252.0, 32.0, 22.0, 64.0, 15.0, 32.0, 0.0, 0.0, 0.0, 1.7307470371493926E9, 0.0, 2024-11-04 16:03:57.149
18.0, -171325.51775282834, -172228.7517462673, -187500.02235174447, -187500.02235174447, -173417.26105418935, -173176.66687687242, -174743.5465149339, -173844.4252424747, -0.124, 0.712, 0.484, 192.0, 0.0, 0.0, 0.0, 0.0, 0.0, 0.0, 0.0, 0.0, 0.0, 1.7307470371535697E9, 0.0, 2024-11-04 16:03:57.153
19.0, -171317.5828835467, -172225.46603983236, -187500.02235174447, -187500.02235174447, -173413.86358903215, -173178.00798153973, -174726.5368374034, -173832.55646616896, -0.124, 0.712, 0.484, 192.0, 0.0, 0.0, 0.0, 0.0, 0.0, 0.0, 0.0, 0.0, 0.0, 1.7307470371584928E9, 0.0, 2024-11-04 16:03:57.158
20.0, -171340.98515999143, -172231.50101083532, -187500.02235174447, -187500.02235174447, -173396.96567022393, -173168.88846980198, -174802.1974923846, -173820.66533811874, -0.124, 0.712, 0.484, 192.0, 0.0, 0.0, 0.0, 0.0, 0.0, 0.0, 0.0, 0.0, 0.0, 1.7307470371624615E9, 0.0, 2024-11-04 16:03:57.162
21.0, -171356.8996020436, -172237.6030370716, -187500.02235174447, -187500.02235174447, -173385.81214974073, -173163.6805133439, -174840.08369923636, -173812.84222755936, -0.124, 0.712, 0.484, 192.0, 0.0, 0.0, 0.0, 0.0, 0.0, 0.0, 0.0, 0.0, 0.0, 1.7307470371657531E9, 0.0, 2024-11-04 16:03:57.165
22.0, -171327.81998250724, -172233.42326085846, -187500.02235174447, -187500.02235174447, -173397.79268476876, -173182.70184787535, -174740.6407881547, -173814.69742234916, -0.124, 0.712, 0.484, 192.0, 0.0, 0.0, 0.0, 0.0, 0.0, 0.0, 0.0, 0.0, 0.0, 1.7307470371696236E9, 0.0, 2024-11-04 16:03:57.169
23.0, -171310.96676718793, -172229.66816778996, -187500.02235174447, -187500.02235174447, -173405.70520230595, -173196.00113582626, -174705.14621795967, -173812.75282058155, -0.124, 0.712, 0.484, 192.0, 0.0, 0.0, 0.0, 0.0, 0.0, 0.0, 0.0, 0.0, 0.0, 1.7307470371733997E9, 0.0, 2024-11-04 16:03:57.173
24.0, -171330.30102614177, -172232.12685968005, -187500.02235174447, -187500.02235174447, -173389.16491140903, -173187.28395548867, -174788.16059686668, -173800.05702973093, -0.124, 0.712, 0.484, 192.0, 0.0, 0.0, 0.0, 0.0, 0.0, 0.0, 0.0, 0.0, 0.0, 1.730747037177437E9, 0.0, 2024-11-04 16:03:57.177
25.0, -171340.62753208014, -172231.36690036856, -187500.02235174447, -187500.02235174447, -173373.40693156802, -173179.0808652736, -174832.90878926622, -173789.8646342593, -0.124, 0.712, 0.484, 192.0, 0.0, 0.0, 0.0, 0.0, 0.0, 0.0, 0.0, 0.0, 0.0, 1.7307470371814437E9, 0.0, 2024-11-04 16:03:57.181
26.0, -171322.3438051157, -172230.0034439568, -187500.02235174447, -187500.02235174447, -173381.85589097213, -173194.34710673656, -174757.6504656852, -173790.60224182633, -0.124, 0.712, 0.484, 192.0, 0.0, 0.0, 0.0, 0.0, 0.0, 0.0, 0.0, 0.0, 0.0, 1.7307470371866329E9, 0.0, 2024-11-04 16:03:57.186
27.0, -171294.5829385022, -172221.37567059704, -187500.02235174447, -187500.02235174447, -173392.29415563276, -173210.66388018895, -174686.8401392508, -173789.7752272815, -0.14400000000000002, 0.768, 0.522, 192.0, 251.0, 128.0, 24.0, 0.0, 16.0, 80.0, 0.0, 0.0, 0.0, 1.7307470371906471E9, 0.0, 2024-11-04 16:03:57.190
28.0, -171314.52069455633, -172224.52726656524, -187500.02235174447, -187500.02235174447, -173378.2796118593, -173203.62308068553, -174768.26754430146, -173777.70528527562, -0.14400000000000002, 0.768, 0.522, 192.0, 0.0, 0.0, 0.0, 0.0, 0.0, 0.0, 0.0, 0.0, 0.0, 1.7307470371935947E9, 0.0, 2024-11-04 16:03:57.193
29.0, -171326.88120924012, -172224.39315609852, -187500.02235174447, -187500.02235174447, -173364.3097715747, -173198.23631027178, -174826.24796941853, -173770.37391309428, -0.14400000000000002, 0.768, 0.522, 192.0, 0.0, 0.0, 0.0, 0.0, 0.0, 0.0, 0.0, 0.0, 0.0, 1.7307470371976588E9, 0.0, 2024-11-04 16:03:57.197
30.0, -171318.47695332492, -172224.21434214286, -187500.02235174447, -187500.02235174447, -173368.33308557668, -173208.8310371436, -174780.96333515208, -173769.18927063816, -0.14400000000000002, 0.768, 0.522, 192.0, 0.0, 0.0, 0.0, 0.0, 0.0, 0.0, 0.0, 0.0, 0.0, 1.7307470372016428E9, 0.0, 2024-11-04 16:03:57.201
31.0, -171283.11649359664, -172212.7926007262, -187500.02235174447, -187500.02235174447, -173383.5769752952, -173230.66869147643, -174685.61079330574, -173772.18440439517, -0.14400000000000002, 0.768, 0.522, 192.0, 0.0, 0.0, 0.0, 0.0, 0.0, 0.0, 0.0, 0.0, 0.0, 1.7307470372055845E9, 0.0, 2024-11-04 16:03:57.205
32.0, -171294.76175245785, -172208.63517625752, -187500.02235174447, -187500.02235174447, -173367.5284227763, -173221.0797931051, -174757.248134285, -173755.62176175378, -0.14400000000000002, 0.768, 0.522, 192.0, 0.0, 0.0, 0.0, 0.0, 0.0, 0.0, 0.0, 0.0, 0.0, 1.730747037209663E9, 0.0, 2024-11-04 16:03:57.209
33.0, -171307.2787293528, -172205.5953390116, -187500.02235174447, -187500.02235174447, -173351.52457374628, -173214.10604883506, -174824.2139606731, -173746.88222967176, -0.14400000000000002, 0.768, 0.522, 192.0, 0.0, 0.0, 0.0, 0.0, 0.0, 0.0, 0.0, 0.0, 0.0, 1.730747037214564E9, 0.0, 2024-11-04 16:03:57.214
34.0, -171311.0785259102, -172209.23867335782, -187500.02235174447, -187500.02235174447, -173353.0668441137, -173221.86210416106, -174809.79708549942, -173745.78699419345, -0.14400000000000002, 0.768, 0.522, 192.0, 0.0, 0.0, 0.0, 0.0, 0.0, 0.0, 0.0, 0.0, 0.0, 1.7307470372185674E9, 0.0, 2024-11-04 16:03:57.218
35.0, -171273.39348475856, -172199.02392614173, -187500.02235174447, -187500.02235174447, -173370.94823967793, -173246.82900271763, -174694.8867672547, -173751.15141286273, -0.14400000000000002, 0.768, 0.522, 192.0, 0.0, 0.0, 0.0, 0.0, 0.0, 0.0, 0.0, 0.0, 0.0, 1.730747037221903E9, 0.0, 2024-11-04 16:03:57.221
36.0, -171279.04847610576, -172193.4359900279, -187500.02235174447, -187500.02235174447, -173358.7218354609, -173240.52581078123, -174748.754471392, -173735.95222663312, -0.14400000000000002, 0.768, 0.522, 192.0, 0.0, 0.0, 0.0, 0.0, 0.0, 0.0, 0.0, 0.0, 0.0, 1.7307470372255452E9, 0.0, 2024-11-04 16:03:57.225
37.0, -171291.94543265647, -172189.36797253706, -187500.02235174447, -187500.02235174447, -173341.33217827466, -173232.8815141775, -174824.5268850955, -173725.98334860604, -0.14400000000000002, 0.786, 0.534, 192.0, 251.0, 128.0, 24.0, 144.0, 16.0, 176.0, 0.0, 0.0, 0.0, 1.7307470372303824E9, 0.0, 2024-11-04 16:03:57.230
38.0, -171299.29915658227, -172190.50791150428, -187500.02235174447, -187500.02235174447, -173335.49837297184, -173233.3956043, -174833.48993462205, -173720.19424679212, -0.14400000000000002, 0.786, 0.534, 192.0, 0.0, 0.0, 0.0, 0.0, 0.0, 0.0, 0.0, 0.0, 0.0, 1.7307470372335925E9, 0.0, 2024-11-04 16:03:57.233
39.0, -171263.67047592052, -172181.90248988898, -187500.02235174447, -187500.02235174447, -173353.60328598061, -173258.89894472348, -174711.11413372925, -173726.18451430614, -0.14400000000000002, 0.786, 0.534, 192.0, 0.0, 0.0, 0.0, 0.0, 0.0, 0.0, 0.0, 0.0, 0.0, 1.7307470372376204E9, 0.0, 2024-11-04 16:03:57.237
40.0, -171264.78806314326, -172177.5886032091, -187500.02235174447, -187500.02235174447, -173349.19999232295, -173260.24004939082, -174738.22679975352, -173716.506208957, -0.14400000000000002, 0.786, 0.534, 192.0, 0.0, 0.0, 0.0, 0.0, 0.0, 0.0, 0.0, 0.0, 0.0, 1.730747037242695E9, 0.0, 2024-11-04 16:03:57.242
41.0, -171279.38375227258, -172172.7829781512, -187500.02235174447, -187500.02235174447, -173329.48575371335, -173250.22646787483, -174816.4579053471, -173703.76571461748, -0.14400000000000002, 0.786, 0.534, 192.0, 0.0, 0.0, 0.0, 0.0, 0.0, 0.0, 0.0, 0.0, 0.0, 1.7307470372454996E9, 0.0, 2024-11-04 16:03:57.245
42.0, -171291.431342534, -172173.00649559576, -187500.02235174447, -187500.02235174447, -173318.35458497462, -173245.82317421713, -174840.35192016984, -173695.0932377688, -0.14400000000000002, 0.786, 0.534, 192.0, 0.0, 0.0, 0.0, 0.0, 0.0, 0.0, 0.0, 0.0, 0.0, 1.7307470372488186E9, 0.0, 2024-11-04 16:03:57.248
43.0, -171260.45182471894, -172166.81506238165, -187500.02235174447, -187500.02235174447, -173334.20197179343, -173268.91252623947, -174723.49700015748, -173699.83180759332, -0.14400000000000002, 0.786, 0.534, 192.0, 0.0, 0.0, 0.0, 0.0, 0.0, 0.0, 0.0, 0.0, 0.0, 1.730747037253626E9, 0.0, 2024-11-04 16:03:57.253
44.0, -171252.7181211374, -172161.54005069018, -187500.02235174447, -187500.02235174447, -173335.87835262757, -173276.10978795408, -174715.00333726447, -173693.86389182377, -0.14400000000000002, 0.786, 0.534, 192.0, 0.0, 0.0, 0.0, 0.0, 0.0, 0.0, 0.0, 0.0, 0.0, 1.7307470372576432E9, 0.0, 2024-11-04 16:03:57.257
45.0, -171272.2758975358, -172159.77426287823, -187500.02235174447, -187500.02235174447, -173317.59462566313, -173266.81146226067, -174799.42587607217, -173681.27985969544, -0.14400000000000002, 0.786, 0.534, 192.0, 0.0, 0.0, 0.0, 0.0, 0.0, 0.0, 0.0, 0.0, 0.0, 1.730747037261617E9, 0.0, 2024-11-04 16:03:57.261
46.0, -171285.48577850888, -172158.88019310002, -187500.02235174447, -187500.02235174447, -173302.7977708337, -173259.3459796126, -174838.18380095766, -173670.93100201263, -0.14400000000000002, 0.786, 0.534, 192.0, 0.0, 0.0, 0.0, 0.0, 0.0, 0.0, 0.0, 0.0, 0.0, 1.730747037265668E9, 0.0, 2024-11-04 16:03:57.265
47.0, -171263.2234410314, -172156.95794307685, -187500.02235174447, -187500.02235174447, -173315.89589308453, -173279.37314264456, -174739.6349596542, -173674.75315031447, -0.156, 0.808, 0.546, 192.0, 251.0, 32.0, 25.0, 64.0, 17.0, 16.0, 0.0, 0.0, 0.0, 1.7307470372706532E9, 0.0, 2024-11-04 16:03:57.270
48.0, -171242.45867043242, -172147.90548657245, -187500.02235174447, -187500.02235174447, -173320.76857337577, -173290.2584421943, -174690.8858049972, -173670.30515316786, -0.156, 0.808, 0.546, 192.0, 0.0, 0.0, 0.0, 0.0, 0.0, 0.0, 0.0, 0.0, 0.0, 1.7307470372738862E9, 0.0, 2024-11-04 16:03:57.273
49.0, -171260.9212113525, -172144.55272490415, -187500.02235174447, -187500.02235174447, -173300.67435511047, -173278.5461280997, -174775.01777112696, -173654.52482158242, -0.156, 0.808, 0.546, 192.0, 0.0, 0.0, 0.0, 0.0, 0.0, 0.0, 0.0, 0.0, 0.0, 1.7307470372775893E9, 0.0, 2024-11-04 16:03:57.277
50.0, -171278.84731040566, -172145.7820708492, -187500.02235174447, -187500.02235174447, -173286.97273575937, -173273.00289547478, -174826.7173560521, -173647.0369871899, -0.156, 0.808, 0.546, 192.0, 0.0, 0.0, 0.0, 0.0, 0.0, 0.0, 0.0, 0.0, 0.0, 1.730747037281533E9, 0.0, 2024-11-04 16:03:57.281
51.0, -171268.34199051166, -172148.62074239503, -187500.02235174447, -187500.02235174447, -173296.91926204198, -173289.654945094, -174754.78944239492, -173649.96506571354, -0.156, 0.808, 0.546, 192.0, 0.0, 0.0, 0.0, 0.0, 0.0, 0.0, 0.0, 0.0, 0.0, 1.7307470372855844E9, 0.0, 2024-11-04 16:03:57.285
52.0, -171241.38578669858, -172141.892867314, -187500.02235174447, -187500.02235174447, -173310.53147441524, -173309.5032941703, -174674.09964491127, -173652.42375760362, -0.156, 0.808, 0.546, 192.0, 0.0, 0.0, 0.0, 0.0, 0.0, 0.0, 0.0, 0.0, 0.0, 1.7307470372896821E9, 0.0, 2024-11-04 16:03:57.289
53.0, -171263.75988289833, -172142.87634407, -187500.02235174447, -187500.02235174447, -173296.22635796387, -173302.5071981558, -174756.3987679957, -173640.1302981532, -0.156, 0.808, 0.546, 192.0, 0.0, 0.0, 0.0, 0.0, 0.0, 0.0, 0.0, 0.0, 0.0, 1.7307470372936437E9, 0.0, 2024-11-04 16:03:57.293
54.0, -171281.70833369595, -172143.0775097701, -187500.02235174447, -187500.02235174447, -173281.1389304565, -173296.33811668612, -174816.8602367473, -173632.41894631612, -0.156, 0.808, 0.546, 192.0, 0.0, 0.0, 0.0, 0.0, 0.0, 0.0, 0.0, 0.0, 0.0, 1.7307470372986922E9, 0.0, 2024-11-04 16:03:57.298
55.0, -171277.30504003825, -172144.59742839306, -187500.02235174447, -187500.02235174447, -173282.7482560573, -173304.29533771222, -174773.20727982608, -173629.5355712814, -0.156, 0.808, 0.546, 192.0, 0.0, 0.0, 0.0, 0.0, 0.0, 0.0, 0.0, 0.0, 0.0, 1.7307470373020616E9, 0.0, 2024-11-04 16:03:57.302
56.0, -171241.4304901875, -172136.2378759668, -187500.02235174447, -187500.02235174447, -173299.17678823197, -173327.33998624564, -174666.79062447438, -173634.09532715028, -0.156, 0.808, 0.546, 192.0, 0.0, 0.0, 0.0, 0.0, 0.0, 0.0, 0.0, 0.0, 0.0, 1.7307470373046722E9, 0.0, 2024-11-04 16:03:57.304
57.0, -171258.3731124846, -172135.74613758878, -187500.02235174447, -187500.02235174447, -173285.72103806987, -173320.14272453103, -174732.32593921732, -173620.34900431026, -0.166, 0.804, 0.546, 192.0, 250.0, 208.0, 25.0, 32.0, 17.0, 16.0, 0.0, 0.0, 0.0, 1.730747037309618E9, 0.0, 2024-11-04 16:03:57.309
58.0, -171278.22146156093, -172136.90842830043, -187500.02235174447, -187500.02235174447, -173270.2983343957, -173314.24186399483, -174798.37534408277, -173612.74941119546, -0.166, 0.804, 0.546, 192.0, 0.0, 0.0, 0.0, 0.0, 0.0, 0.0, 0.0, 0.0, 0.0, 1.7307470373138344E9, 0.0, 2024-11-04 16:03:57.313
59.0, -171282.51299649634, -172140.127079502, -187500.02235174447, -187500.02235174447, -173266.45383434938, -173316.63350065154, -174781.61153574128, -173607.13912333717, -0.166, 0.804, 0.546, 192.0, 0.0, 0.0, 0.0, 0.0, 0.0, 0.0, 0.0, 0.0, 0.0, 1.730747037317856E9, 0.0, 2024-11-04 16:03:57.317
60.0, -171241.89987682103, -172131.49930614227, -187500.02235174447, -187500.02235174447, -173283.6870293244, -173340.90749513003, -174659.6157145042, -173612.32472805082, -0.166, 0.804, 0.546, 192.0, 0.0, 0.0, 0.0, 0.0, 0.0, 0.0, 0.0, 0.0, 0.0, 1.7307470373219552E9, 0.0, 2024-11-04 16:03:57.321
61.0, -171250.84057460315, -172128.30300668516, -187500.02235174447, -187500.02235174447, -173273.38287513054, -173336.25833228332, -174700.49705511297, -173599.07014358882, -0.166, 0.804, 0.546, 192.0, 0.0, 0.0, 0.0, 0.0, 0.0, 0.0, 0.0, 0.0, 0.0, 1.7307470373267715E9, 0.0, 2024-11-04 16:03:57.326
62.0, -171270.15248181255, -172127.65480609593, -187500.02235174447, -187500.02235174447, -173255.68029352193, -173328.16700079048, -174770.61447746927, -173588.98950683945, -0.166, 0.804, 0.546, 192.0, 0.0, 0.0, 0.0, 0.0, 0.0, 0.0, 0.0, 0.0, 0.0, 1.7307470373297167E9, 0.0, 2024-11-04 16:03:57.329
63.0, -171282.5800517297, -172133.2203904653, -187500.02235174447, -187500.02235174447, -173249.17593588543, -173328.09994555713, -174781.18685259664, -173583.28981200335, -0.166, 0.804, 0.546, 192.0, 0.0, 0.0, 0.0, 0.0, 0.0, 0.0, 0.0, 0.0, 0.0, 1.7307470373327937E9, 0.0, 2024-11-04 16:03:57.332
64.0, -171244.0232925443, -172127.0289572512, -187500.02235174447, -187500.02235174447, -173267.1467384275, -173353.4691755139, -174658.90045868166, -173589.95063185104, -0.166, 0.804, 0.546, 192.0, 0.0, 0.0, 0.0, 0.0, 0.0, 0.0, 0.0, 0.0, 0.0, 1.7307470373378277E9, 0.0, 2024-11-04 16:03:57.337
65.0, -171240.20114424243, -172121.44102113738, -187500.02235174447, -187500.02235174447, -173261.93878196942, -173353.58093423618, -174672.0879879103, -173579.19944276803, -0.166, 0.804, 0.546, 192.0, 0.0, 0.0, 0.0, 0.0, 0.0, 0.0, 0.0, 0.0, 0.0, 1.730747037341817E9, 0.0, 2024-11-04 16:03:57.341
66.0, -171261.68117066397, -172123.2738641827, -187500.02235174447, -187500.02235174447, -173245.93493293942, -173347.0095213663, -174753.62715168323, -173570.3705037082, -0.166, 0.804, 0.546, 192.0, 0.0, 0.0, 0.0, 0.0, 0.0, 0.0, 0.0, 0.0, 0.0, 1.7307470373458967E9, 0.0, 2024-11-04 16:03:57.345
67.0, -171276.25450804885, -172127.34188167358, -187500.02235174447, -187500.02235174447, -173235.5413717677, -173343.29913178674, -174784.249041587, -173563.0167797824, -0.182, 0.798, 0.55, 192.0, 250.0, 80.0, 24.0, 240.0, 17.0, 48.0, 0.0, 0.0, 0.0, 1.7307470373496E9, 0.0, 2024-11-04 16:03:57.349
68.0, -171243.08451927718, -172122.4244978934, -187500.02235174447, -187500.02235174447, -173250.20411613036, -173365.13678611958, -174671.3727320877, -173567.6212391402, -0.182, 0.798, 0.55, 192.0, 0.0, 0.0, 0.0, 0.0, 0.0, 0.0, 0.0, 0.0, 0.0, 1.7307470373536615E9, 0.0, 2024-11-04 16:03:57.353
69.0, -171228.13120223657, -172114.7131460563, -187500.02235174447, -187500.02235174447, -173251.76873824224, -173372.177585623, -174653.22311559, -173561.6086198817, -0.182, 0.798, 0.55, 192.0, 0.0, 0.0, 0.0, 0.0, 0.0, 0.0, 0.0, 0.0, 0.0, 1.7307470373577647E9, 0.0, 2024-11-04 16:03:57.357
70.0, -171248.5830484132, -172114.31081465614, -187500.02235174447, -187500.02235174447, -173234.5355432672, -173363.5721640077, -174740.998416066, -173549.94100927605, -0.182, 0.798, 0.55, 192.0, 0.0, 0.0, 0.0, 0.0, 0.0, 0.0, 0.0, 0.0, 0.0, 1.7307470373608088E9, 0.0, 2024-11-04 16:03:57.360
71.0, -171264.18456604297, -172115.5178088567, -187500.02235174447, -187500.02235174447, -173220.632758216, -173357.2242685824, -174786.1042363768, -173541.31323591628, -0.182, 0.798, 0.55, 192.0, 0.0, 0.0, 0.0, 0.0, 0.0, 0.0, 0.0, 0.0, 0.0, 1.7307470373656893E9, 0.0, 2024-11-04 16:03:57.365
72.0, -171242.0786907767, -172114.31081465614, -187500.02235174447, -187500.02235174447, -173232.8815141775, -173376.35736183613, -174693.72447654302, -173545.3589016627, -0.182, 0.798, 0.55, 192.0, 0.0, 0.0, 0.0, 0.0, 0.0, 0.0, 0.0, 0.0, 0.0, 1.7307470373697696E9, 0.0, 2024-11-04 16:03:57.369
73.0, -171215.72598406387, -172103.89490173996, -187500.02235174447, -187500.02235174447, -173239.7882032142, -173389.0308009423, -174638.04628110485, -173542.74374756144, -0.182, 0.798, 0.55, 192.0, 0.0, 0.0, 0.0, 0.0, 0.0, 0.0, 0.0, 0.0, 0.0, 1.7307470373737795E9, 0.0, 2024-11-04 16:03:57.373
74.0, -171234.34498719513, -172100.22921564928, -187500.02235174447, -187500.02235174447, -173220.36453728256, -173377.43024557, -174724.01109027996, -173527.23163690945, -0.182, 0.798, 0.55, 192.0, 0.0, 0.0, 0.0, 0.0, 0.0, 0.0, 0.0, 0.0, 0.0, 1.7307470373776968E9, 0.0, 2024-11-04 16:03:57.377
75.0, -171253.25456300433, -172100.9221197274, -187500.02235174447, -187500.02235174447, -173205.56768245314, -173370.70237048893, -174779.37636129576, -173519.1179536722, -0.182, 0.798, 0.55, 192.0, 0.0, 0.0, 0.0, 0.0, 0.0, 0.0, 0.0, 0.0, 0.0, 1.7307470373819685E9, 0.0, 2024-11-04 16:03:57.381
76.0, -171241.0728622762, -172100.54214007166, -187500.02235174447, -187500.02235174447, -173210.59682495557, -173382.0347049278, -174710.95767151806, -173517.93331121604, -0.182, 0.798, 0.55, 192.0, 0.0, 0.0, 0.0, 0.0, 0.0, 0.0, 0.0, 0.0, 0.0, 1.7307470373849013E9, 0.0, 2024-11-04 16:03:57.384
77.0, -171207.25467291533, -172090.26033762223, -187500.02235174447, -187500.02235174447, -173222.86793266152, -173400.22902491438, -174621.19306578554, -173519.1626571611, -0.188, 0.81, 0.542, 192.0, 250.0, 32.0, 25.0, 80.0, 16.0, 240.0, 0.0, 0.0, 0.0, 1.7307470373888278E9, 0.0, 2024-11-04 16:03:57.388
78.0, -171226.9689115249, -172089.09804691054, -187500.02235174447, -187500.02235174447, -173207.7805051542, -173391.66830678802, -174700.51940685743, -173505.5057412989, -0.188, 0.81, 0.542, 192.0, 0.0, 0.0, 0.0, 0.0, 0.0, 0.0, 0.0, 0.0, 0.0, 1.730747037393836E9, 0.0, 2024-11-04 16:03:57.393
79.0, -171247.3760542126, -172090.41679983342, -187500.02235174447, -187500.02235174447, -173193.14011253597, -173385.678039274, -174764.3559890218, -173498.5096452844, -0.188, 0.81, 0.542, 192.0, 0.0, 0.0, 0.0, 0.0, 0.0, 0.0, 0.0, 0.0, 0.0, 1.7307470373978035E9, 0.0, 2024-11-04 16:03:57.397
80.0, -171247.28664723478, -172094.10483766854, -187500.02235174447, -187500.02235174447, -173194.81649337013, -173393.38939111106, -174728.10145951528, -173496.43093305005, -0.188, 0.81, 0.542, 192.0, 0.0, 0.0, 0.0, 0.0, 0.0, 0.0, 0.0, 0.0, 0.0, 1.7307470374019432E9, 0.0, 2024-11-04 16:03:57.401
81.0, -171209.98158573886, -172086.03585792016, -187500.02235174447, -187500.02235174447, -173212.54142672318, -173417.5292751228, -174616.49919944993, -173502.3094418418, -0.188, 0.81, 0.542, 192.0, 0.0, 0.0, 0.0, 0.0, 0.0, 0.0, 0.0, 0.0, 0.0, 1.7307470374058022E9, 0.0, 2024-11-04 16:03:57.405
82.0, -171225.67251034649, -172084.58299453056, -187500.02235174447, -187500.02235174447, -173200.35972599505, -173410.95786225295, -174678.34647635778, -173489.01015389088, -0.188, 0.81, 0.542, 192.0, 0.0, 0.0, 0.0, 0.0, 0.0, 0.0, 0.0, 0.0, 0.0, 1.7307470374088738E9, 0.0, 2024-11-04 16:03:57.408
83.0, -171245.25263848933, -172083.6665730079, -187500.02235174447, -187500.02235174447, -173182.81360659763, -173402.41949587103, -174744.6417504122, -173479.13068284164, -0.188, 0.81, 0.542, 192.0, 0.0, 0.0, 0.0, 0.0, 0.0, 0.0, 0.0, 0.0, 0.0, 1.7307470374128284E9, 0.0, 2024-11-04 16:03:57.412
84.0, -171253.7239496379, -172088.87452946597, -187500.02235174447, -187500.02235174447, -173179.59495539605, -173405.19111218347, -174735.7904596079, -173474.81679616176, -0.188, 0.81, 0.542, 192.0, 0.0, 0.0, 0.0, 0.0, 0.0, 0.0, 0.0, 0.0, 0.0, 1.7307470374167428E9, 0.0, 2024-11-04 16:03:57.416
85.0, -171213.26729217378, -172081.58786077355, -187500.02235174447, -187500.02235174447, -173199.13038005, -173431.677929363, -174613.68287964855, -173482.66225846557, -0.188, 0.81, 0.542, 192.0, 0.0, 0.0, 0.0, 0.0, 0.0, 0.0, 0.0, 0.0, 0.0, 1.7307470374219556E9, 0.0, 2024-11-04 16:03:57.421
86.0, -171219.8610567881, -172078.19039561634, -187500.02235174447, -187500.02235174447, -173192.24604275776, -173430.1356589956, -174653.0219498899, -173472.15693857157, -0.188, 0.81, 0.542, 192.0, 0.0, 0.0, 0.0, 0.0, 0.0, 0.0, 0.0, 0.0, 0.0, 1.7307470374258244E9, 0.0, 2024-11-04 16:03:57.425
87.0, -171239.10590876412, -172075.48583453725, -187500.02235174447, -187500.02235174447, -173173.5376326487, -173420.8373333022, -174729.55432290488, -173461.0481215773, -0.192, 0.808, 0.54, 192.0, 250.0, 0.0, 25.0, 64.0, 16.0, 224.0, 0.0, 0.0, 0.0, 1.7307470374298248E9, 0.0, 2024-11-04 16:03:57.429
88.0, -171251.24290600335, -172078.3245060831, -187500.02235174447, -187500.02235174447, -173164.23930695528, -173417.99866175637, -174747.1004423023, -173453.42617671803, -0.192, 0.808, 0.54, 192.0, 0.0, 0.0, 0.0, 0.0, 0.0, 0.0, 0.0, 0.0, 0.0, 1.7307470374339085E9, 0.0, 2024-11-04 16:03:57.433
89.0, -171213.02142298478, -172072.35659031352, -187500.02235174447, -187500.02235174447, -173182.14305426396, -173443.25613299088, -174624.38936524265, -173460.57873494373, -0.192, 0.808, 0.54, 192.0, 0.0, 0.0, 0.0, 0.0, 0.0, 0.0, 0.0, 0.0, 0.0, 1.7307470374367514E9, 0.0, 2024-11-04 16:03:57.436
90.0, -171206.09238220364, -172065.62871523248, -187500.02235174447, -187500.02235174447, -173179.2373274848, -173445.96069406995, -174632.41364150212, -173452.0403685618, -0.192, 0.808, 0.54, 192.0, 0.0, 0.0, 0.0, 0.0, 0.0, 0.0, 0.0, 0.0, 0.0, 1.7307470374408512E9, 0.0, 2024-11-04 16:03:57.440
91.0, -171226.38776616906, -172063.9076309094, -187500.02235174447, -187500.02235174447, -173160.90889703142, -173437.22116198792, -174718.66902335515, -173440.8868480786, -0.192, 0.808, 0.54, 192.0, 0.0, 0.0, 0.0, 0.0, 0.0, 0.0, 0.0, 0.0, 0.0, 1.730747037444852E9, 0.0, 2024-11-04 16:03:57.444
92.0, -171244.8726588336, -172068.109758867, -187500.02235174447, -187500.02235174447, -173150.29181841516, -173433.82369683072, -174756.91285811816, -173434.4942491644, -0.192, 0.808, 0.54, 192.0, 0.0, 0.0, 0.0, 0.0, 0.0, 0.0, 0.0, 0.0, 0.0, 1.730747037448918E9, 0.0, 2024-11-04 16:03:57.448
93.0, -171215.4130596415, -172065.58401174357, -187500.02235174447, -187500.02235174447, -173165.6251151115, -173456.42131047504, -174644.32712129678, -173440.52922016731, -0.192, 0.808, 0.54, 192.0, 0.0, 0.0, 0.0, 0.0, 0.0, 0.0, 0.0, 0.0, 0.0, 1.7307470374538498E9, 0.0, 2024-11-04 16:03:57.453
94.0, -171196.41407685447, -172055.72689243878, -187500.02235174447, -187500.02235174447, -173167.21208896782, -173463.77503440084, -174612.74410638143, -173434.427193931, -0.192, 0.808, 0.54, 192.0, 0.0, 0.0, 0.0, 0.0, 0.0, 0.0, 0.0, 0.0, 0.0, 1.7307470374578605E9, 0.0, 2024-11-04 16:03:57.457
95.0, -171216.664757331, -172051.83768890356, -187500.02235174447, -187500.02235174447, -173147.02846372468, -173452.57681042873, -174700.87703476872, -173420.0773739907, -0.192, 0.808, 0.54, 192.0, 0.0, 0.0, 0.0, 0.0, 0.0, 0.0, 0.0, 0.0, 0.0, 1.7307470374622033E9, 0.0, 2024-11-04 16:03:57.462
96.0, -171236.5131064073, -172053.98345637126, -187500.02235174447, -187500.02235174447, -173133.4162513514, -173446.81006035925, -174751.9060673602, -173412.54483610927, -0.192, 0.808, 0.54, 192.0, 0.0, 0.0, 0.0, 0.0, 0.0, 0.0, 0.0, 0.0, 0.0, 1.7307470374648032E9, 0.0, 2024-11-04 16:03:57.464
97.0, -171216.88827477556, -172054.3187325381, -187500.02235174447, -187500.02235174447, -173144.54742009015, -173464.8926216236, -174662.38733081668, -173416.16581871104, -0.196, 0.812, 0.542, 192.0, 249.0, 224.0, 25.0, 96.0, 16.0, 240.0, 0.0, 0.0, 0.0, 1.7307470374688783E9, 0.0, 2024-11-04 16:03:57.468
98.0, -171188.97094595086, -172045.3109795226, -187500.02235174447, -187500.02235174447, -173153.9128010169, -173480.2929735533, -174595.6673736176, -173416.14346696658, -0.196, 0.812, 0.542, 192.0, 0.0, 0.0, 0.0, 0.0, 0.0, 0.0, 0.0, 0.0, 0.0, 1.730747037472944E9, 0.0, 2024-11-04 16:03:57.472
99.0, -171207.45583861542, -172039.63363643095, -187500.02235174447, -187500.02235174447, -173133.17038216238, -173467.44072049152, -174679.978153703, -173399.11143769164, -0.196, 0.812, 0.542, 192.0, 0.0, 0.0, 0.0, 0.0, 0.0, 0.0, 0.0, 0.0, 0.0, 1.730747037476848E9, 0.0, 2024-11-04 16:03:57.476
100.0, -171227.68416734747, -172040.3041887646, -187500.02235174447, -187500.02235174447, -173117.90414069942, -173460.6457901771, -174740.8419538548, -173391.22127189892, -0.196, 0.812, 0.542, 192.0, 0.0, 0.0, 0.0, 0.0, 0.0, 0.0, 0.0, 0.0, 0.0, 1.7307470374819949E9, 0.0, 2024-11-04 16:03:57.481
101.0, -171220.62101609958, -172044.8639446335, -187500.02235174447, -187500.02235174447, -173125.07905066956, -173474.61563046166, -174682.36979035972, -173393.59055681116, -0.196, 0.812, 0.542, 192.0, 0.0, 0.0, 0.0, 0.0, 0.0, 0.0, 0.0, 0.0, 0.0, 1.730747037485746E9, 0.0, 2024-11-04 16:03:57.485
102.0, -171184.5005970598, -172036.0573573181, -187500.02235174447, -187500.02235174447, -173139.3618153765, -173495.71567722748, -174586.5478618798, -173397.54681557976, -0.196, 0.812, 0.542, 192.0, 0.0, 0.0, 0.0, 0.0, 0.0, 0.0, 0.0, 0.0, 0.0, 1.7307470374888396E9, 0.0, 2024-11-04 16:03:57.488
103.0, -171202.49375134634, -172032.07874680505, -187500.02235174447, -187500.02235174447, -173123.29091111314, -173487.0432003788, -174666.16477562962, -173383.3758095951, -0.196, 0.812, 0.542, 192.0, 0.0, 0.0, 0.0, 0.0, 0.0, 0.0, 0.0, 0.0, 0.0, 1.7307470374928105E9, 0.0, 2024-11-04 16:03:57.492
104.0, -171223.5043911343, -172030.62588341546, -187500.02235174447, -187500.02235174447, -173106.59415800503, -173479.8459386642, -174734.8516863408, -173375.26212635782, -0.196, 0.812, 0.542, 192.0, 0.0, 0.0, 0.0, 0.0, 0.0, 0.0, 0.0, 0.0, 0.0, 1.730747037497058E9, 0.0, 2024-11-04 16:03:57.497
105.0, -171226.2089522134, -172034.58214218405, -187500.02235174447, -187500.02235174447, -173106.19182660483, -173486.01502013387, -174704.3862586482, -173372.80343446773, -0.196, 0.812, 0.542, 192.0, 0.0, 0.0, 0.0, 0.0, 0.0, 0.0, 0.0, 0.0, 0.0, 1.7307470375008276E9, 0.0, 2024-11-04 16:03:57.500
106.0, -171186.13227440504, -172027.29547349163, -187500.02235174447, -187500.02235174447, -173123.71559425778, -173510.6466425236, -174583.9997630119, -173379.26308861532, -0.196, 0.812, 0.542, 192.0, 0.0, 0.0, 0.0, 0.0, 0.0, 0.0, 0.0, 0.0, 0.0, 1.730747037504908E9, 0.0, 2024-11-04 16:03:57.504
107.0, -171198.06810594417, -172021.39461295542, -187500.02235174447, -187500.02235174447, -173109.5669400176, -173502.82353196427, -174640.43791776156, -173364.39917855253, -0.186, 0.8240000000000001, 0.532, 192.0, 250.0, 48.0, 25.0, 192.0, 16.0, 160.0, 0.0, 0.0, 0.0, 1.730747037509959E9, 0.0, 2024-11-04 16:03:57.509
108.0, -171217.7152893204, -172016.54428440862, -187500.02235174447, -187500.02235174447, -173088.7574659297, -173491.7370667144, -174710.98002326253, -173352.32923654668, -0.186, 0.8240000000000001, 0.532, 192.0, 0.0, 0.0, 0.0, 0.0, 0.0, 0.0, 0.0, 0.0, 0.0, 1.7307470375140114E9, 0.0, 2024-11-04 16:03:57.514
109.0, -171227.63946385856, -172019.45001118782, -187500.02235174447, -187500.02235174447, -173081.33668677052, -173490.97710740296, -174706.28615692692, -173345.35549227663, -0.186, 0.8240000000000001, 0.532, 192.0, 0.0, 0.0, 0.0, 0.0, 0.0, 0.0, 0.0, 0.0, 0.0, 1.7307470375168982E9, 0.0, 2024-11-04 16:03:57.516
110.0, -171186.62401278305, -172013.21387448476, -187500.02235174447, -187500.02235174447, -173099.1063236125, -173516.3016338708, -174575.59550709673, -173352.4633470134, -0.186, 0.8240000000000001, 0.532, 192.0, 0.0, 0.0, 0.0, 0.0, 0.0, 0.0, 0.0, 0.0, 0.0, 1.730747037520986E9, 0.0, 2024-11-04 16:03:57.520
111.0, -171190.87084422956, -172007.53653139313, -187500.02235174447, -187500.02235174447, -173091.64084096442, -173514.7593635034, -174606.8655975897, -173341.77921316377, -0.186, 0.8240000000000001, 0.532, 192.0, 0.0, 0.0, 0.0, 0.0, 0.0, 0.0, 0.0, 0.0, 0.0, 1.730747037524902E9, 0.0, 2024-11-04 16:03:57.524
112.0, -171215.4577631304, -172005.18959822532, -187500.02235174447, -187500.02235174447, -173073.67003842237, -173506.3998110771, -174686.2813456394, -173331.94444560344, -0.186, 0.8240000000000001, 0.532, 192.0, 0.0, 0.0, 0.0, 0.0, 0.0, 0.0, 0.0, 0.0, 0.0, 1.7307470375287771E9, 0.0, 2024-11-04 16:03:57.528
113.0, -171234.4567459174, -172009.9058163054, -187500.02235174447, -187500.02235174447, -173064.43876796233, -173503.6505465091, -174705.16856970414, -173325.39538447803, -0.186, 0.8240000000000001, 0.532, 192.0, 0.0, 0.0, 0.0, 0.0, 0.0, 0.0, 0.0, 0.0, 0.0, 1.7307470375328617E9, 0.0, 2024-11-04 16:03:57.532
114.0, -171198.13516117755, -172006.3071854481, -187500.02235174447, -187500.02235174447, -173081.53785247062, -173527.83513400974, -174578.00949549788, -173332.05620432572, -0.186, 0.8240000000000001, 0.532, 192.0, 0.0, 0.0, 0.0, 0.0, 0.0, 0.0, 0.0, 0.0, 0.0, 1.7307470375378687E9, 0.0, 2024-11-04 16:03:57.537
115.0, -171191.22847214085, -172000.0934004895, -187500.02235174447, -187500.02235174447, -173080.82259664807, -173532.81957302327, -174576.82485304176, -173325.6636054115, -0.186, 0.8240000000000001, 0.532, 192.0, 0.0, 0.0, 0.0, 0.0, 0.0, 0.0, 0.0, 0.0, 0.0, 1.7307470375420086E9, 0.0, 2024-11-04 16:03:57.542
116.0, -171214.89896951904, -171995.98067950972, -187500.02235174447, -187500.02235174447, -173060.59426791602, -173522.09073568473, -174660.55448777135, -173312.83370409414, -0.186, 0.8240000000000001, 0.532, 192.0, 0.0, 0.0, 0.0, 0.0, 0.0, 0.0, 0.0, 0.0, 0.0, 1.730747037544865E9, 0.0, 2024-11-04 16:03:57.544
117.0, -171238.3235977082, -172000.8086563121, -187500.02235174447, -187500.02235174447, -173049.70896836626, -173518.62621529415, -174700.83233127982, -173307.0669540247, -0.178, 0.8220000000000001, 0.532, 192.0, 250.0, 112.0, 25.0, 176.0, 16.0, 160.0, 0.0, 0.0, 0.0, 1.730747037548918E9, 0.0, 2024-11-04 16:03:57.548
118.0, -171210.31686190568, -171999.8922347894, -187500.02235174447, -187500.02235174447, -173064.01408481767, -173540.08388997125, -174591.12996949317, -173312.78900060523, -0.178, 0.8220000000000001, 0.532, 192.0, 0.0, 0.0, 0.0, 0.0, 0.0, 0.0, 0.0, 0.0, 0.0, 1.7307470375530071E9, 0.0, 2024-11-04 16:03:57.553
119.0, -171191.5637483077, -171992.91849051937, -187500.02235174447, -187500.02235174447, -173070.36198024297, -173551.99736976594, -174554.09312893072, -173311.09026802663, -0.178, 0.8220000000000001, 0.532, 192.0, 0.0, 0.0, 0.0, 0.0, 0.0, 0.0, 0.0, 0.0, 0.0, 1.7307470375569396E9, 0.0, 2024-11-04 16:03:57.556
120.0, -171213.93784450745, -171988.0011067392, -187500.02235174447, -187500.02235174447, -173049.95483755527, -173539.92742776006, -174639.74501368345, -173296.09224749712, -0.178, 0.8220000000000001, 0.532, 192.0, 0.0, 0.0, 0.0, 0.0, 0.0, 0.0, 0.0, 0.0, 0.0, 1.7307470375607898E9, 0.0, 2024-11-04 16:03:57.560
121.0, -171234.63555987307, -171987.86699627247, -187500.02235174447, -187500.02235174447, -173034.37567166993, -173532.10431720072, -174690.21525266353, -173287.17390145946, -0.178, 0.8220000000000001, 0.532, 192.0, 0.0, 0.0, 0.0, 0.0, 0.0, 0.0, 0.0, 0.0, 0.0, 1.7307470375649705E9, 0.0, 2024-11-04 16:03:57.564
122.0, -171216.5082951198, -171989.27515617313, -187500.02235174447, -187500.02235174447, -173044.59041888601, -173548.93518077556, -174606.93265282307, -173290.63842185002, -0.178, 0.8220000000000001, 0.532, 192.0, 0.0, 0.0, 0.0, 0.0, 0.0, 0.0, 0.0, 0.0, 0.0, 1.730747037569975E9, 0.0, 2024-11-04 16:03:57.569
123.0, -171187.07104767216, -171983.30724040358, -187500.02235174447, -187500.02235174447, -173058.13557602593, -173568.40355019612, -174537.08345140022, -173294.3935149185, -0.178, 0.8220000000000001, 0.532, 192.0, 0.0, 0.0, 0.0, 0.0, 0.0, 0.0, 0.0, 0.0, 0.0, 1.7307470375729012E9, 0.0, 2024-11-04 16:03:57.572
124.0, -171208.79694328274, -171979.9321269908, -187500.02235174447, -187500.02235174447, -173040.43299441732, -173558.23350646897, -174622.15419079713, -173280.2001571894, -0.178, 0.8220000000000001, 0.532, 192.0, 0.0, 0.0, 0.0, 0.0, 0.0, 0.0, 0.0, 0.0, 0.0, 1.7307470375768747E9, 0.0, 2024-11-04 16:03:57.576
125.0, -171226.87950454708, -171977.11580718946, -187500.02235174447, -187500.02235174447, -173021.27754941912, -173547.54937261934, -174679.7769880029, -173268.77841577274, -0.178, 0.8220000000000001, 0.532, 192.0, 0.0, 0.0, 0.0, 0.0, 0.0, 0.0, 0.0, 0.0, 0.0, 1.7307470375810626E9, 0.0, 2024-11-04 16:03:57.581
126.0, -171218.89993177654, -171980.06623745756, -187500.02235174447, -187500.02235174447, -173024.8314767875, -173557.18297447957, -174623.47294372, -173267.75023552778, -0.178, 0.8220000000000001, 0.532, 192.0, 0.0, 0.0, 0.0, 0.0, 0.0, 0.0, 0.0, 0.0, 0.0, 1.7307470375849717E9, 0.0, 2024-11-04 16:03:57.584
127.0, -171181.68427725844, -171975.0370949551, -187500.02235174447, -187500.02235174447, -173043.87516306344, -173582.3733904807, -174523.5829977492, -173275.8415670206, -0.182, 0.8320000000000001, 0.524, 192.0, 250.0, 80.0, 26.0, 0.0, 16.0, 96.0, 0.0, 0.0, 0.0, 1.7307470375889049E9, 0.0, 2024-11-04 16:03:57.588
128.0, -171201.19735016793, -171972.086664687, -187500.02235174447, -187500.02235174447, -173029.86061928998, -173575.04201829937, -174597.79078934083, -173262.92225872545, -0.182, 0.8320000000000001, 0.524, 192.0, 0.0, 0.0, 0.0, 0.0, 0.0, 0.0, 0.0, 0.0, 0.0, 1.7307470375941803E9, 0.0, 2024-11-04 16:03:57.594
129.0, -171223.83966730116, -171970.29852513058, -187500.02235174447, -187500.02235174447, -173012.64977605938, -173566.973038551, -174664.8236709623, -173254.27213362124, -0.182, 0.8320000000000001, 0.524, 192.0, 0.0, 0.0, 0.0, 0.0, 0.0, 0.0, 0.0, 0.0, 0.0, 1.7307470375979235E9, 0.0, 2024-11-04 16:03:57.597
130.0, -171228.93586503697, -171975.1935571663, -187500.02235174447, -187500.02235174447, -173012.2921481481, -173572.5162711759, -174641.13082183967, -173252.05931092016, -0.182, 0.8320000000000001, 0.524, 192.0, 0.0, 0.0, 0.0, 0.0, 0.0, 0.0, 0.0, 0.0, 0.0, 1.7307470376009288E9, 0.0, 2024-11-04 16:03:57.600
131.0, -171183.1147889036, -171965.51525181715, -187500.02235174447, -187500.02235174447, -173029.05595648958, -173596.0750098318, -174518.3973930356, -173257.62489528954, -0.182, 0.8320000000000001, 0.524, 192.0, 0.0, 0.0, 0.0, 0.0, 0.0, 0.0, 0.0, 0.0, 0.0, 1.7307470376050093E9, 0.0, 2024-11-04 16:03:57.605
132.0, -171193.77657100876, -171957.53567904662, -187500.02235174447, -187500.02235174447, -173015.7343167942, -173589.05656207283, -174570.34284714973, -173243.11861313804, -0.182, 0.8320000000000001, 0.524, 192.0, 0.0, 0.0, 0.0, 0.0, 0.0, 0.0, 0.0, 0.0, 0.0, 1.7307470376090105E9, 0.0, 2024-11-04 16:03:57.609
133.0, -171218.34113816515, -171954.85346971196, -187500.02235174447, -187500.02235174447, -172997.6294037854, -173580.719361391, -174645.6235224752, -173233.97674965582, -0.182, 0.8320000000000001, 0.524, 192.0, 0.0, 0.0, 0.0, 0.0, 0.0, 0.0, 0.0, 0.0, 0.0, 1.7307470376131735E9, 0.0, 2024-11-04 16:03:57.613
134.0, -171230.23226621537, -171958.04976916907, -187500.02235174447, -187500.02235174447, -172990.11921764843, -173579.33355323478, -174647.79164168736, -173227.4947437638, -0.182, 0.8320000000000001, 0.524, 192.0, 0.0, 0.0, 0.0, 0.0, 0.0, 0.0, 0.0, 0.0, 0.0, 1.7307470376168177E9, 0.0, 2024-11-04 16:03:57.616
135.0, -171186.53460580524, -171952.79710922207, -187500.02235174447, -187500.02235174447, -173009.00644171317, -173605.01570761393, -174516.8327709237, -173235.3402060676, -0.182, 0.8320000000000001, 0.524, 192.0, 0.0, 0.0, 0.0, 0.0, 0.0, 0.0, 0.0, 0.0, 0.0, 1.730747037622204E9, 0.0, 2024-11-04 16:03:57.622
136.0, -171190.69203027393, -171947.32093183053, -187500.02235174447, -187500.02235174447, -173003.64202304388, -173605.03805935837, -174537.5975415227, -173225.8407146741, -0.182, 0.8320000000000001, 0.524, 192.0, 0.0, 0.0, 0.0, 0.0, 0.0, 0.0, 0.0, 0.0, 0.0, 1.7307470376249993E9, 0.0, 2024-11-04 16:03:57.624
137.0, -171219.2575596878, -171945.86806844093, -187500.02235174447, -187500.02235174447, -172985.29124084607, -173595.98560285397, -174614.7781151269, -173215.64831920248, -0.182, 0.8300000000000001, 0.526, 192.0, 250.0, 80.0, 25.0, 240.0, 16.0, 112.0, 0.0, 0.0, 0.0, 1.7307470376279576E9, 0.0, 2024-11-04 16:03:57.627
138.0, -171240.3799581981, -171951.50070804366, -187500.02235174447, -187500.02235174447, -172975.99291515266, -173592.96811735252, -174639.58855147226, -173209.50158947727, -0.182, 0.8300000000000001, 0.526, 192.0, 0.0, 0.0, 0.0, 0.0, 0.0, 0.0, 0.0, 0.0, 0.0, 1.7307470376329603E9, 0.0, 2024-11-04 16:03:57.632
139.0, -171202.65021355753, -171949.8913824429, -187500.02235174447, -187500.02235174447, -172994.72367700623, -173618.53851300938, -174519.06794536926, -173218.06230760366, -0.182, 0.8300000000000001, 0.526, 192.0, 0.0, 0.0, 0.0, 0.0, 0.0, 0.0, 0.0, 0.0, 0.0, 1.7307470376370113E9, 0.0, 2024-11-04 16:03:57.637
140.0, -171190.91554771847, -171941.39771954986, -187500.02235174447, -187500.02235174447, -172994.54486305057, -173623.74646946747, -174507.46738999695, -173211.4238395004, -0.182, 0.8300000000000001, 0.526, 192.0, 0.0, 0.0, 0.0, 0.0, 0.0, 0.0, 0.0, 0.0, 0.0, 1.730747037641041E9, 0.0, 2024-11-04 16:03:57.641
141.0, -171215.48011487487, -171936.25681832514, -187500.02235174447, -187500.02235174447, -172973.42246454032, -173611.63182397268, -174591.17467298207, -173197.25283351575, -0.182, 0.8300000000000001, 0.526, 192.0, 0.0, 0.0, 0.0, 0.0, 0.0, 0.0, 0.0, 0.0, 0.0, 1.7307470376449592E9, 0.0, 2024-11-04 16:03:57.644
142.0, -171238.70357736392, -171939.587228249, -187500.02235174447, -187500.02235174447, -172960.95019113424, -173606.20035007005, -174635.3193682813, -173190.12262703452, -0.182, 0.8300000000000001, 0.526, 192.0, 0.0, 0.0, 0.0, 0.0, 0.0, 0.0, 0.0, 0.0, 0.0, 1.7307470376501045E9, 0.0, 2024-11-04 16:03:57.650
143.0, -171209.13221944956, -171938.82726893752, -187500.02235174447, -187500.02235174447, -172975.07649363, -173626.71925148, -174533.685986243, -173195.55410093715, -0.182, 0.8300000000000001, 0.526, 192.0, 0.0, 0.0, 0.0, 0.0, 0.0, 0.0, 0.0, 0.0, 0.0, 1.730747037653004E9, 0.0, 2024-11-04 16:03:57.653
144.0, -171184.8135214822, -171930.64653046688, -187500.02235174447, -187500.02235174447, -172983.36899082293, -173640.62203653122, -174491.39648573357, -173195.30823174815, -0.182, 0.8300000000000001, 0.526, 192.0, 0.0, 0.0, 0.0, 0.0, 0.0, 0.0, 0.0, 0.0, 0.0, 1.7307470376561077E9, 0.0, 2024-11-04 16:03:57.656
145.0, -171208.48401886036, -171924.74566993068, -187500.02235174447, -187500.02235174447, -172963.6324004689, -173629.40146081467, -174580.33407692125, -173180.8243013411, -0.182, 0.8300000000000001, 0.526, 192.0, 0.0, 0.0, 0.0, 0.0, 0.0, 0.0, 0.0, 0.0, 0.0, 1.7307470376613724E9, 0.0, 2024-11-04 16:03:57.661
146.0, -171229.02527201478, -171922.8234199075, -187500.02235174447, -187500.02235174447, -172946.7121299162, -173620.34900431026, -174635.22996130347, -173170.8330715696, -0.182, 0.8300000000000001, 0.526, 192.0, 0.0, 0.0, 0.0, 0.0, 0.0, 0.0, 0.0, 0.0, 0.0, 1.7307470376651192E9, 0.0, 2024-11-04 16:03:57.665
147.0, -171209.35573689413, -171923.44926875227, -187500.02235174447, -187500.02235174447, -172954.69170268677, -173634.40825157266, -174559.0999196887, -173172.129472748, -0.168, 0.834, 0.524, 192.0, 250.0, 192.0, 26.0, 16.0, 16.0, 96.0, 0.0, 0.0, 0.0, 1.7307470376690528E9, 0.0, 2024-11-04 16:03:57.669
148.0, -171173.88351844353, -171915.73791691518, -187500.02235174447, -187500.02235174447, -172969.1756330938, -173654.748339027, -174484.91447984154, -173176.3316007056, -0.168, 0.834, 0.524, 192.0, 0.0, 0.0, 0.0, 0.0, 0.0, 0.0, 0.0, 0.0, 0.0, 1.730747037672872E9, 0.0, 2024-11-04 16:03:57.672
149.0, -171192.83779774164, -171907.69128891127, -187500.02235174447, -187500.02235174447, -172950.13194681788, -173643.4383563326, -174572.39920763962, -173160.35010342003, -0.168, 0.834, 0.524, 192.0, 0.0, 0.0, 0.0, 0.0, 0.0, 0.0, 0.0, 0.0, 0.0, 1.7307470376780355E9, 0.0, 2024-11-04 16:03:57.678
150.0, -171213.1108299626, -171903.84678886496, -187500.02235174447, -187500.02235174447, -172931.98233032017, -173634.36354808375, -174638.56037122733, -173150.5600393486, -0.168, 0.834, 0.524, 192.0, 0.0, 0.0, 0.0, 0.0, 0.0, 0.0, 0.0, 0.0, 0.0, 1.730747037681162E9, 0.0, 2024-11-04 16:03:57.681
151.0, -171206.67352755947, -171906.30548075505, -187500.02235174447, -187500.02235174447, -172934.30691174354, -173642.477231321, -174591.42054217108, -173148.95071374785, -0.168, 0.834, 0.524, 192.0, 0.0, 0.0, 0.0, 0.0, 0.0, 0.0, 0.0, 0.0, 0.0, 1.7307470376840377E9, 0.0, 2024-11-04 16:03:57.684
152.0, -171164.4957857723, -171899.26468125163, -187500.02235174447, -187500.02235174447, -172952.70239743023, -173667.01944673294, -174486.81437812024, -173156.05856848462, -0.168, 0.834, 0.524, 192.0, 0.0, 0.0, 0.0, 0.0, 0.0, 0.0, 0.0, 0.0, 0.0, 1.7307470376881273E9, 0.0, 2024-11-04 16:03:57.688
153.0, -171178.62208826805, -171890.48044568067, -187500.02235174447, -187500.02235174447, -172937.1232315449, -173658.7940047734, -174563.79378602433, -173141.4181758664, -0.168, 0.834, 0.524, 192.0, 0.0, 0.0, 0.0, 0.0, 0.0, 0.0, 0.0, 0.0, 0.0, 1.7307470376930285E9, 0.0, 2024-11-04 16:03:57.693
154.0, -171200.19152166744, -171884.80310258904, -187500.02235174447, -187500.02235174447, -172917.54310340204, -173648.95923721304, -174634.11237408072, -173130.89050422795, -0.168, 0.834, 0.524, 192.0, 0.0, 0.0, 0.0, 0.0, 0.0, 0.0, 0.0, 0.0, 0.0, 1.7307470376969607E9, 0.0, 2024-11-04 16:03:57.696
155.0, -171209.73571654985, -171890.36868695842, -187500.02235174447, -187500.02235174447, -172916.06788826798, -173652.9378477261, -174612.98997557044, -173127.71655651528, -0.168, 0.834, 0.524, 192.0, 0.0, 0.0, 0.0, 0.0, 0.0, 0.0, 0.0, 0.0, 0.0, 1.7307470377009656E9, 0.0, 2024-11-04 16:03:57.700
156.0, -171168.36263756308, -171886.85946307893, -187500.02235174447, -187500.02235174447, -172936.69854840025, -173679.67053409465, -174482.6346019071, -173136.43373685286, -0.168, 0.834, 0.524, 192.0, 0.0, 0.0, 0.0, 0.0, 0.0, 0.0, 0.0, 0.0, 0.0, 1.7307470377051213E9, 0.0, 2024-11-04 16:03:57.705
157.0, -171179.27028885728, -171880.19864323124, -187500.02235174447, -187500.02235174447, -172924.82977209447, -173673.70261832507, -174524.56647450526, -173122.4638965683, -0.16, 0.846, 0.52, 192.0, 251.0, 0.0, 26.0, 112.0, 16.0, 64.0, 0.0, 0.0, 0.0, 1.7307470377091503E9, 0.0, 2024-11-04 16:03:57.709
158.0, -171204.59481532514, -171876.44355016274, -187500.02235174447, -187500.02235174447, -172904.60144336242, -173663.24200192, -174596.6061468847, -173111.109210385, -0.16, 0.846, 0.52, 192.0, 0.0, 0.0, 0.0, 0.0, 0.0, 0.0, 0.0, 0.0, 0.0, 1.7307470377121353E9, 0.0, 2024-11-04 16:03:57.712
159.0, -171221.04569924425, -171882.07618976547, -187500.02235174447, -187500.02235174447, -172897.8735682814, -173662.45969086405, -174605.47978943348, -173105.70008822682, -0.16, 0.846, 0.52, 192.0, 0.0, 0.0, 0.0, 0.0, 0.0, 0.0, 0.0, 0.0, 0.0, 1.7307470377170892E9, 0.0, 2024-11-04 16:03:57.717
160.0, -171177.6162597676, -171879.90807055333, -187500.02235174447, -187500.02235174447, -172918.59363539144, -173689.75117084399, -174477.9854390604, -173115.28898659814, -0.16, 0.846, 0.52, 192.0, 0.0, 0.0, 0.0, 0.0, 0.0, 0.0, 0.0, 0.0, 0.0, 1.7307470377211719E9, 0.0, 2024-11-04 16:03:57.721
161.0, -171174.68818124392, -171869.7156750817, -187500.02235174447, -187500.02235174447, -172911.2622632101, -173688.45476966558, -174494.12339855713, -173103.80018994812, -0.16, 0.846, 0.52, 192.0, 0.0, 0.0, 0.0, 0.0, 0.0, 0.0, 0.0, 0.0, 0.0, 1.7307470377251592E9, 0.0, 2024-11-04 16:03:57.725
162.0, -171203.410172869, -171865.53589886855, -187500.02235174447, -187500.02235174447, -172891.79389378952, -173679.17879571664, -174576.7577978084, -173092.847835165, -0.16, 0.846, 0.52, 192.0, 0.0, 0.0, 0.0, 0.0, 0.0, 0.0, 0.0, 0.0, 0.0, 1.73074703772895E9, 0.0, 2024-11-04 16:03:57.728
163.0, -171228.7570510813, -171871.2132419602, -187500.02235174447, -187500.02235174447, -172883.18847217422, -173677.43535964913, -174608.3631644682, -173088.22102406278, -0.16, 0.846, 0.52, 192.0, 0.0, 0.0, 0.0, 0.0, 0.0, 0.0, 0.0, 0.0, 0.0, 1.7307470377322168E9, 0.0, 2024-11-04 16:03:57.732
164.0, -171193.9106814755, -171872.7778640721, -187500.02235174447, -187500.02235174447, -172903.03682125054, -173703.76571461748, -174490.77063688883, -173097.9663846453, -0.16, 0.846, 0.52, 192.0, 0.0, 0.0, 0.0, 0.0, 0.0, 0.0, 0.0, 0.0, 0.0, 1.7307470377362452E9, 0.0, 2024-11-04 16:03:57.736
165.0, -171178.8009022237, -171865.15591921282, -187500.02235174447, -187500.02235174447, -172905.29434744053, -173711.96880483258, -174475.05736053674, -173093.58544273203, -0.16, 0.846, 0.52, 192.0, 0.0, 0.0, 0.0, 0.0, 0.0, 0.0, 0.0, 0.0, 0.0, 1.7307470377400916E9, 0.0, 2024-11-04 16:03:57.740
166.0, -171203.410172869, -171857.84689877593, -187500.02235174447, -187500.02235174447, -172883.03200996306, -173699.3400692153, -174561.87153600116, -173078.47566348026, -0.16, 0.846, 0.52, 192.0, 0.0, 0.0, 0.0, 0.0, 0.0, 0.0, 0.0, 0.0, 0.0, 1.730747037744342E9, 0.0, 2024-11-04 16:03:57.744
167.0, -171224.80079231272, -171858.04806447602, -187500.02235174447, -187500.02235174447, -172866.6928847662, -173690.8464063223, -174607.04441154533, -173068.46208196427, -0.156, 0.844, 0.518, 192.0, 251.0, 32.0, 26.0, 96.0, 16.0, 48.0, 0.0, 0.0, 0.0, 1.730747037749225E9, 0.0, 2024-11-04 16:03:57.749
168.0, -171198.15751292201, -171861.98197150018, -187500.02235174447, -187500.02235174447, -172880.7521320286, -173711.32060424337, -174508.5849772197, -173074.4523494783, -0.156, 0.844, 0.518, 192.0, 0.0, 0.0, 0.0, 0.0, 0.0, 0.0, 0.0, 0.0, 0.0, 1.730747037753188E9, 0.0, 2024-11-04 16:03:57.753
169.0, -171166.395684051, -171852.19190742873, -187500.02235174447, -187500.02235174447, -172887.36824838739, -173724.016395094, -174455.90191553856, -173072.26187852168, -0.156, 0.844, 0.518, 192.0, 0.0, 0.0, 0.0, 0.0, 0.0, 0.0, 0.0, 0.0, 0.0, 1.7307470377570088E9, 0.0, 2024-11-04 16:03:57.757
170.0, -171188.50155931732, -171845.0617009475, -187500.02235174447, -187500.02235174447, -172866.58112604395, -173712.57230193287, -174548.63930328362, -173057.04034054762, -0.156, 0.844, 0.518, 192.0, 0.0, 0.0, 0.0, 0.0, 0.0, 0.0, 0.0, 0.0, 0.0, 1.7307470377602444E9, 0.0, 2024-11-04 16:03:57.760
171.0, -171210.69684156144, -171844.03352070256, -187500.02235174447, -187500.02235174447, -172849.61615200236, -173704.57037741787, -174609.14547552413, -173047.9431805543, -0.156, 0.844, 0.518, 192.0, 0.0, 0.0, 0.0, 0.0, 0.0, 0.0, 0.0, 0.0, 0.0, 1.7307470377641957E9, 0.0, 2024-11-04 16:03:57.764
172.0, -171197.75518152182, -171849.80027077202, -187500.02235174447, -187500.02235174447, -172859.02623641805, -173720.1048398143, -174539.2962741013, -173051.47475617824, -0.156, 0.844, 0.518, 192.0, 0.0, 0.0, 0.0, 0.0, 0.0, 0.0, 0.0, 0.0, 0.0, 1.7307470377679873E9, 0.0, 2024-11-04 16:03:57.767
173.0, -171159.4442915254, -171843.7652997691, -187500.02235174447, -187500.02235174447, -172874.47129183667, -173741.76368019148, -174454.00201725986, -173056.52625042514, -0.156, 0.844, 0.518, 192.0, 0.0, 0.0, 0.0, 0.0, 0.0, 0.0, 0.0, 0.0, 0.0, 1.7307470377731762E9, 0.0, 2024-11-04 16:03:57.773
174.0, -171175.06816089968, -171833.304683364, -187500.02235174447, -187500.02235174447, -172852.38776831483, -173728.3079300294, -174537.73165198942, -173037.92959903833, -0.156, 0.844, 0.518, 192.0, 0.0, 0.0, 0.0, 0.0, 0.0, 0.0, 0.0, 0.0, 0.0, 1.7307470377772267E9, 0.0, 2024-11-04 16:03:57.777
175.0, -171199.16334142248, -171832.14239265234, -187500.02235174447, -187500.02235174447, -172834.5063727506, -173720.3060055144, -174606.6644318896, -173029.3018256786, -0.156, 0.844, 0.518, 192.0, 0.0, 0.0, 0.0, 0.0, 0.0, 0.0, 0.0, 0.0, 0.0, 1.7307470377810566E9, 0.0, 2024-11-04 16:03:57.781
176.0, -171196.74935302133, -171836.32216886547, -187500.02235174447, -187500.02235174447, -172834.88635240632, -173726.51979047296, -174562.49738484592, -173026.37374715492, -0.156, 0.844, 0.518, 192.0, 0.0, 0.0, 0.0, 0.0, 0.0, 0.0, 0.0, 0.0, 0.0, 1.7307470377852924E9, 0.0, 2024-11-04 16:03:57.785
177.0, -171150.45889025438, -171829.5048868066, -187500.02235174447, -187500.02235174447, -172852.11954738136, -173749.92206691767, -174445.50835436684, -173032.1404972244, -0.146, 0.844, 0.522, 192.0, 251.0, 112.0, 26.0, 96.0, 16.0, 80.0, 0.0, 0.0, 0.0, 1.7307470377882495E9, 0.0, 2024-11-04 16:03:57.788
178.0, -171162.4394252824, -171819.37954656835, -187500.02235174447, -187500.02235174447, -172835.55690473996, -173741.04842436893, -174516.69866045698, -173016.3378138945, -0.146, 0.844, 0.522, 192.0, 0.0, 0.0, 0.0, 0.0, 0.0, 0.0, 0.0, 0.0, 0.0, 1.730747037792236E9, 0.0, 2024-11-04 16:03:57.792
179.0, -171184.5005970598, -171812.71872672066, -187500.02235174447, -187500.02235174447, -172814.27804401852, -173730.18547656364, -174591.5099491489, -173004.64785154437, -0.146, 0.844, 0.522, 192.0, 0.0, 0.0, 0.0, 0.0, 0.0, 0.0, 0.0, 0.0, 0.0, 1.7307470377961988E9, 0.0, 2024-11-04 16:03:57.796
180.0, -171197.68812628844, -171820.78770646904, -187500.02235174447, -187500.02235174447, -172813.60749168487, -173735.32637778835, -174583.19510021154, -173003.35145036597, -0.146, 0.844, 0.522, 192.0, 0.0, 0.0, 0.0, 0.0, 0.0, 0.0, 0.0, 0.0, 0.0, 1.7307470378000853E9, 0.0, 2024-11-04 16:03:57.800
181.0, -171152.4481955109, -171818.39606981233, -187500.02235174447, -187500.02235174447, -172834.61813147285, -173762.506099046, -174451.3198079252, -173012.56036908156, -0.146, 0.844, 0.522, 192.0, 0.0, 0.0, 0.0, 0.0, 0.0, 0.0, 0.0, 0.0, 0.0, 1.7307470378052235E9, 0.0, 2024-11-04 16:03:57.805
182.0, -171156.62797172405, -171810.52825576405, -187500.02235174447, -187500.02235174447, -172824.96217786815, -173759.44391005565, -174497.87849162563, -173000.84805498697, -0.146, 0.844, 0.522, 192.0, 0.0, 0.0, 0.0, 0.0, 0.0, 0.0, 0.0, 0.0, 0.0, 1.7307470378092597E9, 0.0, 2024-11-04 16:03:57.809
183.0, -171181.5054633028, -171805.6555754728, -187500.02235174447, -187500.02235174447, -172805.04677355848, -173749.76560470648, -174580.1552629656, -172990.32038334853, -0.146, 0.844, 0.522, 192.0, 0.0, 0.0, 0.0, 0.0, 0.0, 0.0, 0.0, 0.0, 0.0, 1.7307470378133109E9, 0.0, 2024-11-04 16:03:57.813
184.0, -171199.92330073396, -171809.18715109673, -187500.02235174447, -187500.02235174447, -172796.01666879855, -173746.68106397166, -174592.91810904958, -172983.21252861174, -0.146, 0.844, 0.522, 192.0, 0.0, 0.0, 0.0, 0.0, 0.0, 0.0, 0.0, 0.0, 0.0, 1.7307470378161695E9, 0.0, 2024-11-04 16:03:57.816
185.0, -171158.05848336918, -171807.66723247376, -187500.02235174447, -187500.02235174447, -172816.06618357496, -173772.8102532399, -174460.1263952406, -172991.88500546038, -0.146, 0.844, 0.522, 192.0, 0.0, 0.0, 0.0, 0.0, 0.0, 0.0, 0.0, 0.0, 0.0, 1.7307470378200943E9, 0.0, 2024-11-04 16:03:57.820
186.0, -171148.87191639806, -171797.72070619115, -187500.02235174447, -187500.02235174447, -172812.86988411783, -173775.9171457192, -174479.30419198325, -172984.21835711223, -0.146, 0.844, 0.522, 192.0, 0.0, 0.0, 0.0, 0.0, 0.0, 0.0, 0.0, 0.0, 0.0, 1.7307470378242767E9, 0.0, 2024-11-04 16:03:57.824
187.0, -171173.660000999, -171791.01518285458, -187500.02235174447, -187500.02235174447, -172793.08859027489, -173766.6635235147, -174573.62855358465, -172973.1318918624, -0.134, 0.846, 0.526, 192.0, 251.0, 208.0, 26.0, 112.0, 16.0, 112.0, 0.0, 0.0, 0.0, 1.7307470378282473E9, 0.0, 2024-11-04 16:03:57.828
188.0, -171197.12933267705, -171794.2561858006, -187500.02235174447, -187500.02235174447, -172781.68920060268, -173762.19317462365, -174611.9170918366, -172966.49342375915, -0.134, 0.846, 0.526, 192.0, 0.0, 0.0, 0.0, 0.0, 0.0, 0.0, 0.0, 0.0, 0.0, 1.730747037833217E9, 0.0, 2024-11-04 16:03:57.833
189.0, -171163.78052994973, -171795.7537526791, -187500.02235174447, -187500.02235174447, -172798.1400845218, -173784.5225673345, -174487.66374440954, -172972.86367092893, -0.134, 0.846, 0.526, 192.0, 0.0, 0.0, 0.0, 0.0, 0.0, 0.0, 0.0, 0.0, 0.0, 1.730747037837083E9, 0.0, 2024-11-04 16:03:57.837
190.0, -171143.93218087344, -171789.78583690952, -187500.02235174447, -187500.02235174447, -172804.26446250256, -173796.771323296, -174469.87175582311, -172971.8801941729, -0.134, 0.846, 0.526, 192.0, 0.0, 0.0, 0.0, 0.0, 0.0, 0.0, 0.0, 0.0, 0.0, 1.730747037841273E9, 0.0, 2024-11-04 16:03:57.841
191.0, -171166.77566370677, -171783.08031357292, -187500.02235174447, -187500.02235174447, -172783.67850585922, -173786.4224656132, -174568.28648665984, -172958.73736843318, -0.134, 0.846, 0.526, 192.0, 0.0, 0.0, 0.0, 0.0, 0.0, 0.0, 0.0, 0.0, 0.0, 1.7307470378444111E9, 0.0, 2024-11-04 16:03:57.844
192.0, -171191.38493435204, -171784.6002321959, -187500.02235174447, -187500.02235174447, -172768.2334504406, -173778.8675759873, -174617.8626558617, -172950.10959507342, -0.134, 0.846, 0.526, 192.0, 0.0, 0.0, 0.0, 0.0, 0.0, 0.0, 0.0, 0.0, 0.0, 1.7307470378481722E9, 0.0, 2024-11-04 16:03:57.848
193.0, -171172.83298645413, -171792.42334275524, -187500.02235174447, -187500.02235174447, -172782.76208433654, -173798.93944250816, -174517.07864011274, -172956.5245457321, -0.134, 0.846, 0.526, 192.0, 0.0, 0.0, 0.0, 0.0, 0.0, 0.0, 0.0, 0.0, 0.0, 1.7307470378524015E9, 0.0, 2024-11-04 16:03:57.852
194.0, -171140.31119827167, -171785.6060606964, -187500.02235174447, -187500.02235174447, -172792.90977631925, -173814.85388456035, -174454.15847947105, -172957.1727463213, -0.134, 0.846, 0.526, 192.0, 0.0, 0.0, 0.0, 0.0, 0.0, 0.0, 0.0, 0.0, 0.0, 1.7307470378560963E9, 0.0, 2024-11-04 16:03:57.856
195.0, -171158.17024209147, -171775.6818861582, -187500.02235174447, -187500.02235174447, -172770.42392139722, -173801.55459660944, -174547.43230908303, -172939.89484785736, -0.134, 0.846, 0.526, 192.0, 0.0, 0.0, 0.0, 0.0, 0.0, 0.0, 0.0, 0.0, 0.0, 1.7307470378601823E9, 0.0, 2024-11-04 16:03:57.860
196.0, -171182.69010575893, -171775.41366522477, -187500.02235174447, -187500.02235174447, -172753.526002589, -173793.4856168611, -174609.34664122423, -172931.3117779865, -0.134, 0.846, 0.526, 192.0, 0.0, 0.0, 0.0, 0.0, 0.0, 0.0, 0.0, 0.0, 0.0, 1.7307470378651235E9, 0.0, 2024-11-04 16:03:57.865
197.0, -171172.83298645413, -171780.5545664495, -187500.02235174447, -187500.02235174447, -172758.80101428044, -173803.83447454387, -174534.58005602122, -172930.6635773973, -0.132, 0.84, 0.518, 192.0, 251.0, 224.0, 26.0, 64.0, 16.0, 48.0, 0.0, 0.0, 0.0, 1.7307470378693333E9, 0.0, 2024-11-04 16:03:57.869
198.0, -171132.04105282322, -171774.43018846872, -187500.02235174447, -187500.02235174447, -172774.42488365472, -173824.95687305415, -174435.07008970622, -172935.0221675661, -0.132, 0.84, 0.518, 192.0, 0.0, 0.0, 0.0, 0.0, 0.0, 0.0, 0.0, 0.0, 0.0, 1.730747037872232E9, 0.0, 2024-11-04 16:03:57.872
199.0, -171147.66492219747, -171765.62360115335, -187500.02235174447, -187500.02235174447, -172756.1188049458, -173814.69742234916, -174521.57134074825, -172919.39829819184, -0.132, 0.84, 0.518, 192.0, 0.0, 0.0, 0.0, 0.0, 0.0, 0.0, 0.0, 0.0, 0.0, 1.7307470378762915E9, 0.0, 2024-11-04 16:03:57.876
200.0, -171171.82715795364, -171763.47783368564, -187500.02235174447, -187500.02235174447, -172737.49980181456, -173805.5779106114, -174590.28060320386, -172909.98821377615, -0.132, 0.84, 0.518, 192.0, 0.0, 0.0, 0.0, 0.0, 0.0, 0.0, 0.0, 0.0, 0.0, 1.730747037880159E9, 0.0, 2024-11-04 16:03:57.880
201.0, -171175.3587335776, -171771.05507505598, -187500.02235174447, -187500.02235174447, -172738.6173890373, -173811.74699208105, -174549.6004282952, -172907.99890851963, -0.132, 0.84, 0.518, 192.0, 0.0, 0.0, 0.0, 0.0, 0.0, 0.0, 0.0, 0.0, 0.0, 1.7307470378842196E9, 0.0, 2024-11-04 16:03:57.884
202.0, -171131.86223886756, -171769.35634247737, -187500.02235174447, -187500.02235174447, -172759.51627010302, -173838.05499530496, -174424.38595585656, -172916.53727490155, -0.132, 0.84, 0.518, 192.0, 0.0, 0.0, 0.0, 0.0, 0.0, 0.0, 0.0, 0.0, 0.0, 1.730747037888286E9, 0.0, 2024-11-04 16:03:57.888
203.0, -171141.92052387245, -171761.91321157376, -187500.02235174447, -187500.02235174447, -172744.8758774848, -173830.34364346787, -174489.42953222152, -172901.6733648388, -0.132, 0.84, 0.518, 192.0, 0.0, 0.0, 0.0, 0.0, 0.0, 0.0, 0.0, 0.0, 0.0, 1.7307470378933303E9, 0.0, 2024-11-04 16:03:57.893
204.0, -171166.97682940686, -171760.46034818416, -187500.02235174447, -187500.02235174447, -172725.47456329758, -173821.02296603, -174562.43032961254, -172891.9056525118, -0.132, 0.84, 0.518, 192.0, 0.0, 0.0, 0.0, 0.0, 0.0, 0.0, 0.0, 0.0, 0.0, 1.7307470378963685E9, 0.0, 2024-11-04 16:03:57.896
205.0, -171179.94084119092, -171768.95401107718, -187500.02235174447, -187500.02235174447, -172721.25008359554, -173822.09584976386, -174551.6120852962, -172887.6141175764, -0.132, 0.84, 0.518, 192.0, 0.0, 0.0, 0.0, 0.0, 0.0, 0.0, 0.0, 0.0, 0.0, 1.730747037900329E9, 0.0, 2024-11-04 16:03:57.900
206.0, -171134.32093075765, -171768.35051397688, -187500.02235174447, -187500.02235174447, -172742.35013036136, -173848.6273704323, -174416.49579006384, -172896.39835314732, -0.132, 0.84, 0.518, 192.0, 0.0, 0.0, 0.0, 0.0, 0.0, 0.0, 0.0, 0.0, 0.0, 1.7307470379043224E9, 0.0, 2024-11-04 16:03:57.904
207.0, -171133.13628830152, -171760.77327260654, -187500.02235174447, -187500.02235174447, -172733.09650815686, -173845.8781058643, -174458.29355219527, -172884.306059397, -0.13, 0.846, 0.512, 192.0, 251.0, 240.0, 26.0, 112.0, 16.0, 0.0, 0.0, 0.0, 0.0, 1.730747037908333E9, 0.0, 2024-11-04 16:03:57.908
208.0, -171155.26451531227, -171756.30292371547, -187500.02235174447, -187500.02235174447, -172711.05768812392, -173834.7245853811, -174539.4974398014, -172871.92319296877, -0.13, 0.846, 0.512, 192.0, 0.0, 0.0, 0.0, 0.0, 0.0, 0.0, 0.0, 0.0, 0.0, 1.7307470379122956E9, 0.0, 2024-11-04 16:03:57.912
209.0, -171173.83881495462, -171761.77910110704, -187500.02235174447, -187500.02235174447, -172700.30649904092, -173830.2318847456, -174555.16601266456, -172864.3459515984, -0.13, 0.846, 0.512, 192.0, 0.0, 0.0, 0.0, 0.0, 0.0, 0.0, 0.0, 0.0, 0.0, 1.7307470379164052E9, 0.0, 2024-11-04 16:03:57.916
210.0, -171134.16446854646, -171763.94722031918, -187500.02235174447, -187500.02235174447, -172720.6689382397, -173856.47283273612, -174422.86603723362, -172873.800739503, -0.13, 0.846, 0.512, 192.0, 0.0, 0.0, 0.0, 0.0, 0.0, 0.0, 0.0, 0.0, 0.0, 1.7307470379214475E9, 0.0, 2024-11-04 16:03:57.921
211.0, -171125.38023297553, -171759.27570572804, -187500.02235174447, -187500.02235174447, -172721.36184231783, -173863.35717002835, -174432.49963909385, -172869.33039061195, -0.13, 0.846, 0.512, 192.0, 0.0, 0.0, 0.0, 0.0, 0.0, 0.0, 0.0, 0.0, 0.0, 1.730747037924256E9, 0.0, 2024-11-04 16:03:57.924
212.0, -171149.85539315408, -171754.9394673037, -187500.02235174447, -187500.02235174447, -172700.03827810744, -173852.4942222231, -174521.4372302815, -172856.63459976134, -0.13, 0.846, 0.512, 192.0, 0.0, 0.0, 0.0, 0.0, 0.0, 0.0, 0.0, 0.0, 0.0, 1.7307470379283535E9, 0.0, 2024-11-04 16:03:57.928
213.0, -171169.36846606358, -171756.48173767113, -187500.02235174447, -187500.02235174447, -172683.69915291062, -173843.21824827412, -174554.76368126436, -172845.65989323377, -0.13, 0.846, 0.512, 192.0, 0.0, 0.0, 0.0, 0.0, 0.0, 0.0, 0.0, 0.0, 0.0, 1.7307470379323442E9, 0.0, 2024-11-04 16:03:57.932
214.0, -171138.61246569306, -171761.42147319575, -187500.02235174447, -187500.02235174447, -172701.22292056357, -173865.9946758741, -174435.96415948443, -172853.32654158195, -0.13, 0.846, 0.512, 192.0, 0.0, 0.0, 0.0, 0.0, 0.0, 0.0, 0.0, 0.0, 0.0, 1.7307470379364276E9, 0.0, 2024-11-04 16:03:57.936
215.0, -171114.4949334258, -171754.04539752548, -187500.02235174447, -187500.02235174447, -172706.27441481047, -173876.70116146817, -174405.2752143473, -172850.44316654722, -0.13, 0.846, 0.512, 192.0, 0.0, 0.0, 0.0, 0.0, 0.0, 0.0, 0.0, 0.0, 0.0, 1.730747037940367E9, 0.0, 2024-11-04 16:03:57.940
216.0, -171134.3432825021, -171745.17175497673, -187500.02235174447, -187500.02235174447, -172682.17923428767, -173862.26193455004, -174497.07382882523, -172833.12056459434, -0.13, 0.846, 0.512, 192.0, 0.0, 0.0, 0.0, 0.0, 0.0, 0.0, 0.0, 0.0, 0.0, 1.7307470379444468E9, 0.0, 2024-11-04 16:03:57.944
217.0, -171158.7513874473, -171748.54686838947, -187500.02235174447, -187500.02235174447, -172667.13651026925, -173855.1317280688, -174548.5051928169, -172825.56567496844, -0.13, 0.846, 0.512, 192.0, 0.0, 0.0, 0.0, 0.0, 0.0, 0.0, 0.0, 0.0, 0.0, 1.7307470379494123E9, 0.0, 2024-11-04 16:03:57.949
218.0, -171138.50070697078, -171754.62654288133, -187500.02235174447, -187500.02235174447, -172678.13356854126, -173871.29203931, -174452.2809329368, -172829.03019535902, -0.128, 0.854, 0.514, 192.0, 252.0, 0.0, 26.0, 176.0, 16.0, 16.0, 0.0, 0.0, 0.0, 1.7307470379523568E9, 0.0, 2024-11-04 16:03:57.952
219.0, -171105.26366296574, -171750.06678701245, -187500.02235174447, -187500.02235174447, -172691.7234291701, -173890.22396686365, -174384.86807165958, -172832.4500122607, -0.128, 0.854, 0.514, 192.0, 0.0, 0.0, 0.0, 0.0, 0.0, 0.0, 0.0, 0.0, 0.0, 1.7307470379563138E9, 0.0, 2024-11-04 16:03:57.956
220.0, -171126.85544810956, -171745.01529276554, -187500.02235174447, -187500.02235174447, -172673.3502952278, -173880.56801325895, -174478.96891581643, -172818.68133767621, -0.128, 0.854, 0.514, 192.0, 0.0, 0.0, 0.0, 0.0, 0.0, 0.0, 0.0, 0.0, 0.0, 1.7307470379603107E9, 0.0, 2024-11-04 16:03:57.960
221.0, -171149.6989309429, -171743.87535379833, -187500.02235174447, -187500.02235174447, -172655.245382219, -173871.44850152117, -174539.2068671235, -172809.3830119828, -0.128, 0.854, 0.514, 192.0, 0.0, 0.0, 0.0, 0.0, 0.0, 0.0, 0.0, 0.0, 0.0, 1.7307470379643815E9, 0.0, 2024-11-04 16:03:57.964
222.0, -171142.27815178374, -171749.84326956788, -187500.02235174447, -187500.02235174447, -172660.498042166, -173881.59619350388, -174474.40915994754, -172809.40536372727, -0.128, 0.854, 0.514, 192.0, 0.0, 0.0, 0.0, 0.0, 0.0, 0.0, 0.0, 0.0, 0.0, 1.730747037968212E9, 0.0, 2024-11-04 16:03:57.968
223.0, -171100.3909826745, -171744.92588578773, -187500.02235174447, -187500.02235174447, -172678.1559202857, -173904.52908331505, -174373.49103373184, -172815.46268647467, -0.128, 0.854, 0.514, 192.0, 0.0, 0.0, 0.0, 0.0, 0.0, 0.0, 0.0, 0.0, 0.0, 1.730747037972428E9, 0.0, 2024-11-04 16:03:57.972
224.0, -171115.0984305261, -171737.92978977322, -187500.02235174447, -187500.02235174447, -172660.9450770551, -173895.20840587717, -174457.5335928838, -172800.4870176896, -0.128, 0.854, 0.514, 192.0, 0.0, 0.0, 0.0, 0.0, 0.0, 0.0, 0.0, 0.0, 0.0, 1.730747037976393E9, 0.0, 2024-11-04 16:03:57.976
225.0, -171136.55610520317, -171735.4934496276, -187500.02235174447, -187500.02235174447, -172641.65552159018, -173885.8430249504, -174526.0416896393, -172790.89811931827, -0.128, 0.854, 0.514, 192.0, 0.0, 0.0, 0.0, 0.0, 0.0, 0.0, 0.0, 0.0, 0.0, 1.730747037979344E9, 0.0, 2024-11-04 16:03:57.979
226.0, -171140.60177094958, -171742.15426947526, -187500.02235174447, -187500.02235174447, -172641.00732100097, -173890.02280116355, -174492.44701772297, -172788.01474428354, -0.128, 0.854, 0.514, 192.0, 0.0, 0.0, 0.0, 0.0, 0.0, 0.0, 0.0, 0.0, 0.0, 1.730747037984346E9, 0.0, 2024-11-04 16:03:57.984
227.0, -171096.21120646136, -171739.00267350706, -187500.02235174447, -187500.02235174447, -172661.03448403295, -173915.16851367577, -174365.75733015029, -172795.6813926317, -0.128, 0.854, 0.514, 192.0, 0.0, 0.0, 0.0, 0.0, 0.0, 0.0, 0.0, 0.0, 0.0, 1.7307470379883845E9, 0.0, 2024-11-04 16:03:57.988
228.0, -171107.87881706702, -171732.1853914482, -187500.02235174447, -187500.02235174447, -172648.83043156035, -173909.6476327953, -174427.51520008032, -172782.73973259208, -0.132, 0.852, 0.518, 192.0, 251.0, 224.0, 26.0, 160.0, 16.0, 48.0, 0.0, 0.0, 0.0, 1.7307470379923294E9, 0.0, 2024-11-04 16:03:57.992
229.0, -171131.95164584537, -171727.35741464584, -187500.02235174447, -187500.02235174447, -172628.3562336393, -173898.96349894567, -174499.26429978185, -172771.69797083116, -0.132, 0.852, 0.518, 192.0, 0.0, 0.0, 0.0, 0.0, 0.0, 0.0, 0.0, 0.0, 0.0, 1.7307470379964364E9, 0.0, 2024-11-04 16:03:57.996
230.0, -171145.72032042986, -171733.95117926016, -187500.02235174447, -187500.02235174447, -172622.99181497, -173898.56116754547, -174492.96110784545, -172766.780587051, -0.132, 0.852, 0.518, 192.0, 0.0, 0.0, 0.0, 0.0, 0.0, 0.0, 0.0, 0.0, 0.0, 1.7307470380003417E9, 0.0, 2024-11-04 16:03:58.000
231.0, -171100.65920360797, -171732.87829552632, -187500.02235174447, -187500.02235174447, -172644.36008266927, -173924.73506030263, -174358.4036062245, -172775.58717436637, -0.132, 0.852, 0.518, 192.0, 0.0, 0.0, 0.0, 0.0, 0.0, 0.0, 0.0, 0.0, 0.0, 1.7307470380043716E9, 0.0, 2024-11-04 16:03:58.004
232.0, -171099.16163672943, -171723.5799698329, -187500.02235174447, -187500.02235174447, -172636.80519304337, -173922.96927249068, -174392.78058919677, -172764.2324881831, -0.132, 0.852, 0.518, 192.0, 0.0, 0.0, 0.0, 0.0, 0.0, 0.0, 0.0, 0.0, 0.0, 1.7307470380073304E9, 0.0, 2024-11-04 16:03:58.007
233.0, -171124.59792191957, -171718.99786221958, -187500.02235174447, -187500.02235174447, -172617.02389920043, -173913.53683633052, -174475.12441577011, -172753.54835433344, -0.132, 0.852, 0.518, 192.0, 0.0, 0.0, 0.0, 0.0, 0.0, 0.0, 0.0, 0.0, 0.0, 1.730747038012223E9, 0.0, 2024-11-04 16:03:58.012
234.0, -171144.647436696, -171724.5410948445, -187500.02235174447, -187500.02235174447, -172607.6808700181, -173909.96055721768, -174495.688020669, -172747.49103158608, -0.132, 0.852, 0.518, 192.0, 0.0, 0.0, 0.0, 0.0, 0.0, 0.0, 0.0, 0.0, 0.0, 1.7307470380165143E9, 0.0, 2024-11-04 16:03:58.016
235.0, -171103.7884478317, -171724.69755705568, -187500.02235174447, -187500.02235174447, -172626.2998731494, -173933.29577842902, -174365.37735049456, -172754.55418283393, -0.132, 0.852, 0.518, 192.0, 0.0, 0.0, 0.0, 0.0, 0.0, 0.0, 0.0, 0.0, 0.0, 1.7307470380205066E9, 0.0, 2024-11-04 16:03:58.020
236.0, -171089.30451742467, -171716.4274116072, -187500.02235174447, -187500.02235174447, -172626.23281791602, -173938.5037348871, -174365.33264700565, -172747.8710112418, -0.132, 0.852, 0.518, 192.0, 0.0, 0.0, 0.0, 0.0, 0.0, 0.0, 0.0, 0.0, 0.0, 1.730747038024435E9, 0.0, 2024-11-04 16:03:58.024
237.0, -171111.56685490214, -171709.99010920408, -187500.02235174447, -187500.02235174447, -172604.37281183872, -173926.56790334798, -174452.88443003708, -172733.87881921278, -0.132, 0.852, 0.518, 192.0, 0.0, 0.0, 0.0, 0.0, 0.0, 0.0, 0.0, 0.0, 0.0, 1.7307470380284133E9, 0.0, 2024-11-04 16:03:58.028
238.0, -171134.65620692447, -171714.10283018387, -187500.02235174447, -187500.02235174447, -172592.50403553297, -173921.56111259, -174493.16227354555, -172727.8661999543, -0.14, 0.854, 0.516, 192.0, 251.0, 160.0, 26.0, 176.0, 16.0, 32.0, 0.0, 0.0, 0.0, 1.7307470380323682E9, 0.0, 2024-11-04 16:03:58.032
239.0, -171105.26366296574, -171717.09796394088, -187500.02235174447, -187500.02235174447, -172608.4408293296, -173941.96825527766, -174380.86710940208, -172734.10233665735, -0.14, 0.854, 0.516, 192.0, 0.0, 0.0, 0.0, 0.0, 0.0, 0.0, 0.0, 0.0, 0.0, 1.7307470380354452E9, 0.0, 2024-11-04 16:03:58.035
240.0, -171080.877909765, -171708.49254232558, -187500.02235174447, -187500.02235174447, -172615.28046313292, -173953.61351413888, -174341.57274264965, -172731.84481046736, -0.14, 0.854, 0.516, 192.0, 0.0, 0.0, 0.0, 0.0, 0.0, 0.0, 0.0, 0.0, 0.0, 1.7307470380394545E9, 0.0, 2024-11-04 16:03:58.039
241.0, -171107.1412095, -171701.98818468908, -187500.02235174447, -187500.02235174447, -172594.69450648958, -173941.96825527766, -174430.86796174862, -172717.40558354923, -0.14, 0.854, 0.516, 192.0, 0.0, 0.0, 0.0, 0.0, 0.0, 0.0, 0.0, 0.0, 0.0, 1.730747038044308E9, 0.0, 2024-11-04 16:03:58.044
242.0, -171136.84667788108, -171705.05037367946, -187500.02235174447, -187500.02235174447, -172580.74701794947, -173935.6650633413, -174478.6336396496, -172711.12474335727, -0.14, 0.854, 0.516, 192.0, 0.0, 0.0, 0.0, 0.0, 0.0, 0.0, 0.0, 0.0, 0.0, 1.7307470380483797E9, 0.0, 2024-11-04 16:03:58.048
243.0, -171126.69898589837, -171710.4818475821, -187500.02235174447, -187500.02235174447, -172591.7887797104, -173951.08776701544, -174387.32676354967, -172714.72337421458, -0.14, 0.854, 0.516, 192.0, 0.0, 0.0, 0.0, 0.0, 0.0, 0.0, 0.0, 0.0, 0.0, 1.7307470380523334E9, 0.0, 2024-11-04 16:03:58.052
244.0, -171098.26756695122, -171702.83755097838, -187500.02235174447, -187500.02235174447, -172606.07154441733, -173970.42202596928, -174312.11314345757, -172718.27730158297, -0.14, 0.854, 0.516, 192.0, 0.0, 0.0, 0.0, 0.0, 0.0, 0.0, 0.0, 0.0, 0.0, 1.7307470380565248E9, 0.0, 2024-11-04 16:03:58.056
245.0, -171125.00025331977, -171689.24769034956, -187500.02235174447, -187500.02235174447, -172583.54098600638, -173956.72040661817, -174397.0721241322, -172699.8594641518, -0.14, 0.854, 0.516, 192.0, 0.0, 0.0, 0.0, 0.0, 0.0, 0.0, 0.0, 0.0, 0.0, 1.7307470380606852E9, 0.0, 2024-11-04 16:03:58.060
246.0, -171154.48220425635, -171683.34682981335, -187500.02235174447, -187500.02235174447, -172563.67028518562, -173946.61741812437, -174452.0127120033, -172689.33179251335, -0.14, 0.854, 0.516, 192.0, 0.0, 0.0, 0.0, 0.0, 0.0, 0.0, 0.0, 0.0, 0.0, 1.7307470380634518E9, 0.0, 2024-11-04 16:03:58.063
247.0, -171153.4987275003, -171688.19715836016, -187500.02235174447, -187500.02235174447, -172567.85006139876, -173955.73692986215, -174393.33938280816, -172689.2200337911, -0.14, 0.854, 0.516, 192.0, 0.0, 0.0, 0.0, 0.0, 0.0, 0.0, 0.0, 0.0, 0.0, 1.73074703806731E9, 0.0, 2024-11-04 16:03:58.067
248.0, -171111.87977932452, -171681.55869025693, -187500.02235174447, -187500.02235174447, -172585.57499475183, -173978.80393014, -174289.60493679106, -172695.07619083836, -0.128, 0.872, 0.508, 192.0, 252.0, 0.0, 27.0, 64.0, 15.0, 224.0, 0.0, 0.0, 0.0, 1.7307470380724664E9, 0.0, 2024-11-04 16:03:58.072
249.0, -171135.37146274705, -171670.18165232916, -187500.02235174447, -187500.02235174447, -172567.9841718655, -173969.68441840226, -174366.78551039525, -172679.34056274183, -0.128, 0.872, 0.508, 192.0, 0.0, 0.0, 0.0, 0.0, 0.0, 0.0, 0.0, 0.0, 0.0, 1.7307470380764208E9, 0.0, 2024-11-04 16:03:58.076
250.0, -171163.66877122747, -171663.0737975924, -187500.02235174447, -187500.02235174447, -172547.7781948779, -173960.45314794223, -174433.32665363868, -172669.37168471477, -0.128, 0.872, 0.508, 192.0, 0.0, 0.0, 0.0, 0.0, 0.0, 0.0, 0.0, 0.0, 0.0, 1.7307470380805442E9, 0.0, 2024-11-04 16:03:58.080
251.0, -171169.18965210792, -171664.86193714882, -187500.02235174447, -187500.02235174447, -172543.64312215368, -173962.1071770319, -174407.64449925954, -172664.11902476777, -0.128, 0.872, 0.508, 192.0, 0.0, 0.0, 0.0, 0.0, 0.0, 0.0, 0.0, 0.0, 0.0, 1.7307470380844946E9, 0.0, 2024-11-04 16:03:58.084
252.0, -171120.12757302853, -171659.4751667351, -187500.02235174447, -187500.02235174447, -172562.1280148182, -173986.29176453254, -174286.20747163385, -172670.5563271709, -0.128, 0.872, 0.508, 192.0, 0.0, 0.0, 0.0, 0.0, 0.0, 0.0, 0.0, 0.0, 0.0, 1.7307470380884342E9, 0.0, 2024-11-04 16:03:58.088
253.0, -171132.15281154547, -171647.04759681792, -187500.02235174447, -187500.02235174447, -172548.5828576783, -173980.99440109663, -174349.19468750892, -172656.56413514187, -0.128, 0.872, 0.508, 192.0, 0.0, 0.0, 0.0, 0.0, 0.0, 0.0, 0.0, 0.0, 0.0, 1.7307470380915568E9, 0.0, 2024-11-04 16:03:58.091
254.0, -171159.6901607144, -171638.19630601362, -187500.02235174447, -187500.02235174447, -172527.14753474566, -173971.3607992364, -174426.53172332427, -172645.58942861433, -0.128, 0.872, 0.508, 192.0, 0.0, 0.0, 0.0, 0.0, 0.0, 0.0, 0.0, 0.0, 0.0, 1.7307470380954108E9, 0.0, 2024-11-04 16:03:58.095
255.0, -171177.7503702343, -171642.19726827112, -187500.02235174447, -187500.02235174447, -172521.04550850936, -173971.8525376144, -174432.61139781613, -172641.65552159018, -0.128, 0.872, 0.508, 192.0, 0.0, 0.0, 0.0, 0.0, 0.0, 0.0, 0.0, 0.0, 0.0, 1.730747038100506E9, 0.0, 2024-11-04 16:03:58.100
0.0, -171135.05853832467, -171643.87364910528, -187500.02235174447, -187500.02235174447, -172543.8666395982, -174000.26160481712, -174306.36874513255, -172652.74198684003, -0.128, 0.872, 0.508, 192.0, 0.0, 0.0, 0.0, 0.0, 0.0, 0.0, 0.0, 0.0, 0.0, 1.7307470381045074E9, 0.0, 2024-11-04 16:03:58.104
1.0, -171132.68925341242, -171629.54618090944, -187500.02235174447, -187500.02235174447, -172534.05422378235, -173997.6240989714, -174337.92940830343, -172639.35329191128, -0.128, 0.872, 0.508, 192.0, 0.0, 0.0, 0.0, 0.0, 0.0, 0.0, 0.0, 0.0, 0.0, 1.7307470381084385E9, 0.0, 2024-11-04 16:03:58.108
2.0, -171160.58423049262, -171619.42084067117, -187500.02235174447, -187500.02235174447, -172511.18838920456, -173986.58233721048, -174422.2178366444, -172626.2551696605, -0.124, 0.864, 0.498, 192.0, 252.0, 32.0, 27.0, 0.0, 15.0, 144.0, 0.0, 0.0, 0.0, 1.7307470381127667E9, 0.0, 2024-11-04 16:03:58.112
3.0, -171183.6512307705, -171621.49955290553, -187500.02235174447, -187500.02235174447, -172500.03486872136, -173982.69313367523, -174448.74935731286, -172619.97432946853, -0.124, 0.864, 0.498, 192.0, 0.0, 0.0, 0.0, 0.0, 0.0, 0.0, 0.0, 0.0, 0.0, 1.730747038116557E9, 0.0, 2024-11-04 16:03:58.116
4.0, -171144.87095414056, -171623.19828548413, -187500.02235174447, -187500.02235174447, -172517.4692293965, -174005.40250604184, -174324.92069303046, -172626.67985280513, -0.124, 0.864, 0.498, 192.0, 0.0, 0.0, 0.0, 0.0, 0.0, 0.0, 0.0, 0.0, 0.0, 1.730747038119459E9, 0.0, 2024-11-04 16:03:58.119
5.0, -171130.87876211153, -171613.58703536834, -187500.02235174447, -187500.02235174447, -172517.31276718533, -174011.92921542277, -174324.2501406968, -172620.1978469131, -0.124, 0.864, 0.498, 192.0, 0.0, 0.0, 0.0, 0.0, 0.0, 0.0, 0.0, 0.0, 0.0, 1.7307470381234553E9, 0.0, 2024-11-04 16:03:58.123
6.0, -171156.2926955572, -171603.57345385235, -187500.02235174447, -187500.02235174447, -172493.30699364032, -173999.21107282772, -174414.3276708517, -172604.66338451667, -0.124, 0.864, 0.498, 192.0, 0.0, 0.0, 0.0, 0.0, 0.0, 0.0, 0.0, 0.0, 0.0, 1.7307470381284556E9, 0.0, 2024-11-04 16:03:58.128
7.0, -171179.58321327963, -171603.88637827474, -187500.02235174447, -187500.02235174447, -172478.13015915517, -173992.25968030212, -174454.35964517115, -172596.34853557928, -0.124, 0.864, 0.498, 192.0, 0.0, 0.0, 0.0, 0.0, 0.0, 0.0, 0.0, 0.0, 0.0, 1.7307470381324136E9, 0.0, 2024-11-04 16:03:58.132
8.0, -171153.61048622258, -171610.4577911446, -187500.02235174447, -187500.02235174447, -172493.53051108486, -174012.59976775644, -174347.4512514414, -172602.7411344935, -0.124, 0.864, 0.498, 192.0, 0.0, 0.0, 0.0, 0.0, 0.0, 0.0, 0.0, 0.0, 0.0, 1.7307470381366024E9, 0.0, 2024-11-04 16:03:58.136
9.0, -171127.7942213767, -171603.34993640782, -187500.02235174447, -187500.02235174447, -172501.89006351115, -174027.08369816348, -174308.26864341125, -172602.27174785992, -0.124, 0.864, 0.498, 192.0, 0.0, 0.0, 0.0, 0.0, 0.0, 0.0, 0.0, 0.0, 0.0, 1.7307470381397274E9, 0.0, 2024-11-04 16:03:58.139
10.0, -171152.96228563337, -171592.7105060471, -187500.02235174447, -187500.02235174447, -172479.02422893338, -174014.67847999078, -174401.1624933675, -172585.77616045193, -0.124, 0.864, 0.498, 192.0, 0.0, 0.0, 0.0, 0.0, 0.0, 0.0, 0.0, 0.0, 0.0, 1.7307470381434927E9, 0.0, 2024-11-04 16:03:58.143
11.0, -171179.33734409063, -171592.6658025582, -187500.02235174447, -187500.02235174447, -172464.13796712615, -174008.84467468795, -174453.2644096928, -172579.49532025997, -0.124, 0.864, 0.498, 192.0, 0.0, 0.0, 0.0, 0.0, 0.0, 0.0, 0.0, 0.0, 0.0, 1.7307470381474605E9, 0.0, 2024-11-04 16:03:58.147
12.0, -171166.73096021783, -171601.4053346402, -187500.02235174447, -187500.02235174447, -172475.0009149314, -174024.71441325123, -174372.99929535383, -172583.8315586843, -0.11800000000000001, 0.852, 0.49, 192.0, 252.0, 80.0, 26.0, 160.0, 15.0, 80.0, 0.0, 0.0, 0.0, 1.7307470381515949E9, 0.0, 2024-11-04 16:03:58.151
13.0, -171127.83892486562, -171594.43159037014, -187500.02235174447, -187500.02235174447, -172486.7579325149, -174042.30523613756, -174296.4892740833, -172585.10560811826, -0.11800000000000001, 0.852, 0.49, 192.0, 0.0, 0.0, 0.0, 0.0, 0.0, 0.0, 0.0, 0.0, 0.0, 1.7307470381565144E9, 0.0, 2024-11-04 16:03:58.156
14.0, -171147.32964603064, -171583.3004216314, -187500.02235174447, -187500.02235174447, -172464.42853980407, -174029.69885226476, -174386.96913563838, -172566.97834336502, -0.11800000000000001, 0.852, 0.49, 192.0, 0.0, 0.0, 0.0, 0.0, 0.0, 0.0, 0.0, 0.0, 0.0, 1.7307470381606224E9, 0.0, 2024-11-04 16:03:58.160
15.0, -171171.2460125978, -171580.66291578568, -187500.02235174447, -187500.02235174447, -172445.96599888397, -174021.56281728303, -174442.64733107656, -172558.238811283, -0.11800000000000001, 0.852, 0.49, 192.0, 0.0, 0.0, 0.0, 0.0, 0.0, 0.0, 0.0, 0.0, 0.0, 1.7307470381645305E9, 0.0, 2024-11-04 16:03:58.164
16.0, -171170.66486724198, -171590.07300020134, -187500.02235174447, -187500.02235174447, -172450.12342335266, -174030.68232902078, -174389.405475784, -172558.81995663882, -0.11800000000000001, 0.852, 0.49, 192.0, 0.0, 0.0, 0.0, 0.0, 0.0, 0.0, 0.0, 0.0, 0.0, 1.7307470381676664E9, 0.0, 2024-11-04 16:03:58.167
17.0, -171128.4424219659, -171588.0613432004, -187500.02235174447, -187500.02235174447, -172468.7647782284, -174054.66575082132, -174282.385323332, -172565.39136950867, -0.11800000000000001, 0.852, 0.49, 192.0, 0.0, 0.0, 0.0, 0.0, 0.0, 0.0, 0.0, 0.0, 0.0, 1.7307470381717868E9, 0.0, 2024-11-04 16:03:58.171
18.0, -171146.23441055234, -171579.1429971627, -187500.02235174447, -187500.02235174447, -172452.78328094285, -174047.24497166218, -174363.05276907122, -172550.6392181682, -0.11800000000000001, 0.852, 0.49, 192.0, 0.0, 0.0, 0.0, 0.0, 0.0, 0.0, 0.0, 0.0, 0.0, 1.7307470381756735E9, 0.0, 2024-11-04 16:03:58.175
19.0, -171170.03901839722, -171572.92921220412, -187500.02235174447, -187500.02235174447, -172431.39266149912, -174036.53848606808, -174425.52589482378, -172539.26218024042, -0.11800000000000001, 0.852, 0.49, 192.0, 0.0, 0.0, 0.0, 0.0, 0.0, 0.0, 0.0, 0.0, 0.0, 1.7307470381796165E9, 0.0, 2024-11-04 16:03:58.179
20.0, -171179.06912315718, -171579.76884600747, -187500.02235174447, -187500.02235174447, -172427.88343761963, -174038.1701634133, -174400.2684235893, -172535.10475577172, -0.11800000000000001, 0.852, 0.49, 192.0, 0.0, 0.0, 0.0, 0.0, 0.0, 0.0, 0.0, 0.0, 0.0, 1.7307470381836696E9, 0.0, 2024-11-04 16:03:58.183
21.0, -171135.14794530248, -171580.1935291521, -187500.02235174447, -187500.02235174447, -172448.62585647416, -174064.0311317481, -174272.17057611592, -172543.7772326204, -0.11800000000000001, 0.852, 0.49, 192.0, 0.0, 0.0, 0.0, 0.0, 0.0, 0.0, 0.0, 0.0, 0.0, 1.7307470381886287E9, 0.0, 2024-11-04 16:03:58.188
22.0, -171143.48514598433, -171570.4034650807, -187500.02235174447, -187500.02235174447, -172436.84648714622, -174059.8960590239, -174330.396870422, -172530.94733130306, -0.126, 0.864, 0.47400000000000003, 192.0, 252.0, 16.0, 27.0, 0.0, 14.0, 208.0, 0.0, 0.0, 0.0, 1.7307470381926029E9, 0.0, 2024-11-04 16:03:58.192
23.0, -171173.83881495462, -171569.241174369, -187500.02235174447, -187500.02235174447, -172420.26149276036, -174054.26341942113, -174406.50456029232, -172524.28651145537, -0.126, 0.864, 0.47400000000000003, 192.0, 0.0, 0.0, 0.0, 0.0, 0.0, 0.0, 0.0, 0.0, 0.0, 1.7307470381959116E9, 0.0, 2024-11-04 16:03:58.195
24.0, -171189.909719218, -171575.83493898332, -187500.02235174447, -187500.02235174447, -172412.77365836783, -174052.6764455648, -174408.80678997122, -172519.32442418628, -0.126, 0.864, 0.47400000000000003, 192.0, 0.0, 0.0, 0.0, 0.0, 0.0, 0.0, 0.0, 0.0, 0.0, 1.7307470381995287E9, 0.0, 2024-11-04 16:03:58.199
25.0, -171145.63091345204, -171578.11481691778, -187500.02235174447, -187500.02235174447, -172431.16914405455, -174076.01166677615, -174274.8974889395, -172526.29816845636, -0.126, 0.864, 0.47400000000000003, 192.0, 0.0, 0.0, 0.0, 0.0, 0.0, 0.0, 0.0, 0.0, 0.0, 1.7307470382036784E9, 0.0, 2024-11-04 16:03:58.203
26.0, -171142.43461399493, -171568.70473250208, -187500.02235174447, -187500.02235174447, -172422.67548116154, -174073.95530628625, -174295.84107349408, -172513.78119156137, -0.126, 0.864, 0.47400000000000003, 192.0, 0.0, 0.0, 0.0, 0.0, 0.0, 0.0, 0.0, 0.0, 0.0, 1.7307470382076323E9, 0.0, 2024-11-04 16:03:58.207
27.0, -171172.11773063158, -171564.6814185001, -187500.02235174447, -187500.02235174447, -172401.2848617178, -174063.15941371434, -174370.13827206354, -172501.26421466641, -0.126, 0.864, 0.47400000000000003, 192.0, 0.0, 0.0, 0.0, 0.0, 0.0, 0.0, 0.0, 0.0, 0.0, 1.730747038211564E9, 0.0, 2024-11-04 16:03:58.211
28.0, -171195.72117277636, -171570.35876159178, -187500.02235174447, -187500.02235174447, -172390.7795418238, -174059.2255066902, -174389.67369671748, -172495.85509250822, -0.126, 0.864, 0.47400000000000003, 192.0, 0.0, 0.0, 0.0, 0.0, 0.0, 0.0, 0.0, 0.0, 0.0, 1.7307470382166653E9, 0.0, 2024-11-04 16:03:58.216
29.0, -171163.17703284946, -171577.98070645102, -187500.02235174447, -187500.02235174447, -172410.02439379983, -174083.27598372413, -174268.9295731699, -172505.15341820163, -0.126, 0.864, 0.47400000000000003, 192.0, 0.0, 0.0, 0.0, 0.0, 0.0, 0.0, 0.0, 0.0, 0.0, 1.7307470382207477E9, 0.0, 2024-11-04 16:03:58.220
30.0, -171146.32381753015, -171568.57062203536, -187500.02235174447, -187500.02235174447, -172409.6444141441, -174089.10978902696, -174261.15116609947, -172498.42554312057, -0.126, 0.864, 0.47400000000000003, 192.0, 0.0, 0.0, 0.0, 0.0, 0.0, 0.0, 0.0, 0.0, 0.0, 1.7307470382235513E9, 0.0, 2024-11-04 16:03:58.223
31.0, -171171.0001434088, -171561.8427469543, -187500.02235174447, -187500.02235174447, -172386.62211735515, -174076.86103306545, -174349.37350146455, -172483.47222608, -0.126, 0.864, 0.47400000000000003, 192.0, 0.0, 0.0, 0.0, 0.0, 0.0, 0.0, 0.0, 0.0, 0.0, 1.7307470382275E9, 0.0, 2024-11-04 16:03:58.227
32.0, -171191.34023086313, -171569.10706390228, -187500.02235174447, -187500.02235174447, -172372.83109102622, -174071.340152185, -174385.89625190452, -172477.3701998437, -0.126, 0.872, 0.454, 192.0, 252.0, 16.0, 27.0, 64.0, 14.0, 48.0, 0.0, 0.0, 0.0, 1.730747038231628E9, 0.0, 2024-11-04 16:03:58.231
33.0, -171164.0934543721, -171580.17117740767, -187500.02235174447, -187500.02235174447, -172385.57158536575, -174088.95332681577, -174282.22886112082, -172482.3546388572, -0.126, 0.872, 0.454, 192.0, 0.0, 0.0, 0.0, 0.0, 0.0, 0.0, 0.0, 0.0, 0.0, 1.7307470382356267E9, 0.0, 2024-11-04 16:03:58.235
34.0, -171134.81266913566, -171577.13134016172, -187500.02235174447, -187500.02235174447, -172393.90878604757, -174103.2360915227, -174235.6254739315, -172481.97465920149, -0.126, 0.872, 0.454, 192.0, 0.0, 0.0, 0.0, 0.0, 0.0, 0.0, 0.0, 0.0, 0.0, 1.7307470382397172E9, 0.0, 2024-11-04 16:03:58.239
35.0, -171158.86314616958, -171573.3538953488, -187500.02235174447, -187500.02235174447, -172371.48998635888, -174091.05439079457, -174326.3065011867, -172466.0155136604, -0.126, 0.872, 0.454, 192.0, 0.0, 0.0, 0.0, 0.0, 0.0, 0.0, 0.0, 0.0, 0.0, 1.7307470382444937E9, 0.0, 2024-11-04 16:03:58.244
36.0, -171179.98554467983, -171577.93600296212, -187500.02235174447, -187500.02235174447, -172354.1897361505, -174083.54420465758, -174373.46868198738, -172458.52767926786, -0.126, 0.872, 0.454, 192.0, 0.0, 0.0, 0.0, 0.0, 0.0, 0.0, 0.0, 0.0, 0.0, 1.7307470382475276E9, 0.0, 2024-11-04 16:03:58.247
37.0, -171165.23339333932, -171593.02343046945, -187500.02235174447, -187500.02235174447, -172362.01284670984, -174097.15641703087, -174297.76332351725, -172462.03690314735, -0.126, 0.872, 0.454, 192.0, 0.0, 0.0, 0.0, 0.0, 0.0, 0.0, 0.0, 0.0, 0.0, 1.7307470382518785E9, 0.0, 2024-11-04 16:03:58.251
38.0, -171121.78160211822, -171593.8504450143, -187500.02235174447, -187500.02235174447, -172373.76986429334, -174115.3954405064, -174215.73242136627, -172464.29442933731, -0.126, 0.872, 0.454, 192.0, 0.0, 0.0, 0.0, 0.0, 0.0, 0.0, 0.0, 0.0, 0.0, 1.7307470382556753E9, 0.0, 2024-11-04 16:03:58.255
39.0, -171139.23831453783, -171597.04674447142, -187500.02235174447, -187500.02235174447, -172352.75922450534, -174104.82306537905, -174301.87604449704, -172448.4023390296, -0.126, 0.872, 0.454, 192.0, 0.0, 0.0, 0.0, 0.0, 0.0, 0.0, 0.0, 0.0, 0.0, 1.7307470382596376E9, 0.0, 2024-11-04 16:03:58.259
40.0, -171158.05848336918, -171603.97578525255, -187500.02235174447, -187500.02235174447, -172332.79911670677, -174096.0388298081, -174353.32976023314, -172439.66280694757, -0.126, 0.872, 0.454, 192.0, 0.0, 0.0, 0.0, 0.0, 0.0, 0.0, 0.0, 0.0, 0.0, 1.730747038263726E9, 0.0, 2024-11-04 16:03:58.263
41.0, -171153.9904658783, -171616.62687261426, -187500.02235174447, -187500.02235174447, -172332.7320614734, -174101.58206243304, -174304.80412302067, -172437.91937088006, -0.126, 0.872, 0.454, 192.0, 0.0, 0.0, 0.0, 0.0, 0.0, 0.0, 0.0, 0.0, 0.0, 1.7307470382678645E9, 0.0, 2024-11-04 16:03:58.267
42.0, -171108.21409323384, -171617.40918367018, -187500.02235174447, -187500.02235174447, -172350.25582912634, -174125.0960976, -174197.38163916848, -172444.62489421666, -0.136, 0.898, 0.442, 192.0, 251.0, 192.0, 28.0, 16.0, 13.0, 208.0, 0.0, 0.0, 0.0, 1.730747038272685E9, 0.0, 2024-11-04 16:03:58.272
43.0, -171118.80882010565, -171621.29838720543, -187500.02235174447, -187500.02235174447, -172332.8214684512, -174116.98241436272, -174270.80711970414, -172429.4480597315, -0.136, 0.898, 0.442, 192.0, 0.0, 0.0, 0.0, 0.0, 0.0, 0.0, 0.0, 0.0, 0.0, 1.730747038275705E9, 0.0, 2024-11-04 16:03:58.275
44.0, -171136.62316043655, -171631.33432046586, -187500.02235174447, -187500.02235174447, -172311.67671819648, -174107.4382194803, -174328.18404772092, -172419.5015334489, -0.136, 0.898, 0.442, 192.0, 0.0, 0.0, 0.0, 0.0, 0.0, 0.0, 0.0, 0.0, 0.0, 1.7307470382788193E9, 0.0, 2024-11-04 16:03:58.278
45.0, -171140.40060524948, -171645.95236133962, -187500.02235174447, -187500.02235174447, -172305.37352626008, -174107.0358880801, -174305.83230326563, -172414.36063222418, -0.136, 0.898, 0.442, 192.0, 0.0, 0.0, 0.0, 0.0, 0.0, 0.0, 0.0, 0.0, 0.0, 1.7307470382837505E9, 0.0, 2024-11-04 16:03:58.283
46.0, -171093.9313285269, -171645.1029950503, -187500.02235174447, -187500.02235174447, -172323.8137154357, -174130.7957924361, -174182.54008085016, -172421.51319044986, -0.136, 0.898, 0.442, 192.0, 0.0, 0.0, 0.0, 0.0, 0.0, 0.0, 0.0, 0.0, 0.0, 1.730747038287788E9, 0.0, 2024-11-04 16:03:58.287
47.0, -171097.70877333987, -171642.64430316022, -187500.02235174447, -187500.02235174447, -172311.5202559853, -174126.48190575623, -174237.34655825456, -172408.41506819907, -0.136, 0.898, 0.442, 192.0, 0.0, 0.0, 0.0, 0.0, 0.0, 0.0, 0.0, 0.0, 0.0, 1.7307470382907076E9, 0.0, 2024-11-04 16:03:58.290
48.0, -171117.15479101596, -171646.77937588448, -187500.02235174447, -187500.02235174447, -172288.65442140753, -174115.48484748421, -174307.0840009551, -172396.434533171, -0.136, 0.898, 0.442, 192.0, 0.0, 0.0, 0.0, 0.0, 0.0, 0.0, 0.0, 0.0, 0.0, 1.730747038295636E9, 0.0, 2024-11-04 16:03:58.295
49.0, -171130.20820977786, -171660.30218127993, -187500.02235174447, -187500.02235174447, -172280.49603468133, -174114.5013707282, -174313.4318963804, -172392.61238486916, -0.136, 0.898, 0.442, 192.0, 0.0, 0.0, 0.0, 0.0, 0.0, 0.0, 0.0, 0.0, 0.0, 1.7307470382996268E9, 0.0, 2024-11-04 16:03:58.299
50.0, -171090.01977324722, -171661.2633062915, -187500.02235174447, -187500.02235174447, -172300.12086631308, -174139.24475184022, -174190.87728153198, -172401.62013788463, -0.136, 0.898, 0.442, 192.0, 0.0, 0.0, 0.0, 0.0, 0.0, 0.0, 0.0, 0.0, 0.0, 1.7307470383038492E9, 0.0, 2024-11-04 16:03:58.303
51.0, -171081.39199988748, -171652.03203583148, -187500.02235174447, -187500.02235174447, -172292.20834877592, -174138.5071442732, -174216.33591846656, -172389.97487902344, -0.136, 0.898, 0.442, 192.0, 0.0, 0.0, 0.0, 0.0, 0.0, 0.0, 0.0, 0.0, 0.0, 1.730747038307795E9, 0.0, 2024-11-04 16:03:58.307
52.0, -171102.87202630902, -171652.7249399096, -187500.02235174447, -187500.02235174447, -172269.63308687607, -174127.77830693463, -174300.57964331863, -172377.12262596164, -0.14200000000000002, 0.87, 0.42, 192.0, 251.0, 144.0, 27.0, 48.0, 13.0, 32.0, 0.0, 0.0, 0.0, 1.7307470383127007E9, 0.0, 2024-11-04 16:03:58.312
53.0, -171119.25585499476, -171661.8220999029, -187500.02235174447, -187500.02235174447, -172258.34545592612, -174124.358490033, -174327.11116398708, -172372.22759392593, -0.14200000000000002, 0.87, 0.42, 192.0, 0.0, 0.0, 0.0, 0.0, 0.0, 0.0, 0.0, 0.0, 0.0, 1.73074703831577E9, 0.0, 2024-11-04 16:03:58.315
54.0, -171085.4823691228, -171661.777396414, -187500.02235174447, -187500.02235174447, -172274.32695321168, -174145.36912982096, -174215.73242136627, -172378.97782075143, -0.14200000000000002, 0.87, 0.42, 192.0, 0.0, 0.0, 0.0, 0.0, 0.0, 0.0, 0.0, 0.0, 0.0, 1.730747038318683E9, 0.0, 2024-11-04 16:03:58.318
55.0, -171065.72342702432, -171648.9698468411, -187500.02235174447, -187500.02235174447, -172274.55047065622, -174152.02994966865, -174209.18336024086, -172372.49581485937, -0.14200000000000002, 0.87, 0.42, 192.0, 0.0, 0.0, 0.0, 0.0, 0.0, 0.0, 0.0, 0.0, 0.0, 1.730747038323775E9, 0.0, 2024-11-04 16:03:58.323
56.0, -171086.5329011122, -171644.07481480538, -187500.02235174447, -187500.02235174447, -172249.42710988846, -174138.0601093841, -174298.21035840636, -172355.3296751177, -0.14200000000000002, 0.87, 0.42, 192.0, 0.0, 0.0, 0.0, 0.0, 0.0, 0.0, 0.0, 0.0, 0.0, 1.7307470383276489E9, 0.0, 2024-11-04 16:03:58.327
57.0, -171104.21313097634, -171646.9134863512, -187500.02235174447, -187500.02235174447, -172233.11033643608, -174130.57227499154, -174332.43087916743, -172347.1265849026, -0.14200000000000002, 0.87, 0.42, 192.0, 0.0, 0.0, 0.0, 0.0, 0.0, 0.0, 0.0, 0.0, 0.0, 1.730747038331622E9, 0.0, 2024-11-04 16:03:58.331
58.0, -171084.5212441112, -171652.03203583148, -187500.02235174447, -187500.02235174447, -172247.66132207648, -174149.75007173422, -174240.20758154485, -172354.30149487275, -0.14200000000000002, 0.87, 0.42, 192.0, 0.0, 0.0, 0.0, 0.0, 0.0, 0.0, 0.0, 0.0, 0.0, 1.7307470383357627E9, 0.0, 2024-11-04 16:03:58.335
59.0, -171054.56990654112, -171639.9620938256, -187500.02235174447, -187500.02235174447, -172256.17733671397, -174163.76461550768, -174196.12994147898, -172353.65329428355, -0.14200000000000002, 0.87, 0.42, 192.0, 0.0, 0.0, 0.0, 0.0, 0.0, 0.0, 0.0, 0.0, 0.0, 1.7307470383407886E9, 0.0, 2024-11-04 16:03:58.340
60.0, -171076.65343006296, -171636.63168390177, -187500.02235174447, -187500.02235174447, -172232.93152248044, -174150.15240313442, -174287.92855595693, -172336.2859888418, -0.14200000000000002, 0.87, 0.42, 192.0, 0.0, 0.0, 0.0, 0.0, 0.0, 0.0, 0.0, 0.0, 0.0, 1.7307470383435953E9, 0.0, 2024-11-04 16:03:58.343
61.0, -171097.17233147292, -171642.68900664916, -187500.02235174447, -187500.02235174447, -172216.1453623945, -174142.12812687494, -174328.27345469873, -172328.932264916, -0.14200000000000002, 0.87, 0.42, 192.0, 0.0, 0.0, 0.0, 0.0, 0.0, 0.0, 0.0, 0.0, 0.0, 1.730747038346851E9, 0.0, 2024-11-04 16:03:58.346
62.0, -171086.2870319232, -171651.7191114091, -187500.02235174447, -187500.02235174447, -172222.403850842, -174151.8064322241, -174254.95973288533, -172330.3180730722, -0.16, 0.906, 0.40800000000000003, 192.0, 251.0, 0.0, 28.0, 80.0, 12.0, 192.0, 0.0, 0.0, 0.0, 1.7307470383519468E9, 0.0, 2024-11-04 16:03:58.351
63.0, -171051.7759384842, -171645.34886423932, -187500.02235174447, -187500.02235174447, -172237.15600218248, -174170.22426965527, -174173.97936272377, -172334.430794052, -0.16, 0.906, 0.40800000000000003, 192.0, 0.0, 0.0, 0.0, 0.0, 0.0, 0.0, 0.0, 0.0, 0.0, 1.7307470383559122E9, 0.0, 2024-11-04 16:03:58.355
64.0, -171078.24040391928, -171644.5218496945, -187500.02235174447, -187500.02235174447, -172216.3018246057, -174157.39436833793, -174257.86545966452, -172317.4658200104, -0.16, 0.906, 0.40800000000000003, 192.0, 0.0, 0.0, 0.0, 0.0, 0.0, 0.0, 0.0, 0.0, 0.0, 1.7307470383597932E9, 0.0, 2024-11-04 16:03:58.359
65.0, -171106.649471122, -171651.4732422201, -187500.02235174447, -187500.02235174447, -172199.51566451977, -174151.04647291263, -174308.4921608558, -172311.7661251743, -0.16, 0.906, 0.40800000000000003, 192.0, 0.0, 0.0, 0.0, 0.0, 0.0, 0.0, 0.0, 0.0, 0.0, 1.730747038363918E9, 0.0, 2024-11-04 16:03:58.363
66.0, -171112.30446246915, -171661.4197685027, -187500.02235174447, -187500.02235174447, -172199.98505115331, -174156.76851949317, -174262.51462251123, -172311.20733156294, -0.16, 0.906, 0.40800000000000003, 192.0, 0.0, 0.0, 0.0, 0.0, 0.0, 0.0, 0.0, 0.0, 0.0, 1.7307470383688295E9, 0.0, 2024-11-04 16:03:58.368
67.0, -171075.26762190674, -171653.3731404988, -187500.02235174447, -187500.02235174447, -172214.9607199384, -174176.72862729177, -174147.49254554423, -172315.1188868426, -0.16, 0.906, 0.40800000000000003, 192.0, 0.0, 0.0, 0.0, 0.0, 0.0, 0.0, 0.0, 0.0, 0.0, 1.730747038371974E9, 0.0, 2024-11-04 16:03:58.371
68.0, -171102.31323269763, -171646.4664514621, -187500.02235174447, -187500.02235174447, -172195.58175749562, -174165.77627250866, -174210.99385154175, -172297.55041570074, -0.16, 0.906, 0.40800000000000003, 192.0, 0.0, 0.0, 0.0, 0.0, 0.0, 0.0, 0.0, 0.0, 0.0, 1.7307470383749423E9, 0.0, 2024-11-04 16:03:58.374
69.0, -171129.85058186657, -171644.70066365012, -187500.02235174447, -187500.02235174447, -172171.71009441736, -174153.61692352497, -174261.7323114553, -172285.03343880575, -0.16, 0.906, 0.40800000000000003, 192.0, 0.0, 0.0, 0.0, 0.0, 0.0, 0.0, 0.0, 0.0, 0.0, 1.7307470383798242E9, 0.0, 2024-11-04 16:03:58.379
70.0, -171143.01575935076, -171654.64718993273, -187500.02235174447, -187500.02235174447, -172166.97152459284, -174155.31565610357, -174239.31351176664, -172282.59709866013, -0.16, 0.906, 0.40800000000000003, 192.0, 0.0, 0.0, 0.0, 0.0, 0.0, 0.0, 0.0, 0.0, 0.0, 1.7307470383837616E9, 0.0, 2024-11-04 16:03:58.383
71.0, -171100.41333441893, -171651.7191114091, -187500.02235174447, -187500.02235174447, -172187.82570216962, -174181.5119006052, -174117.8541323965, -172292.27540400927, -0.16, 0.906, 0.40800000000000003, 192.0, 0.0, 0.0, 0.0, 0.0, 0.0, 0.0, 0.0, 0.0, 0.0, 1.730747038387895E9, 0.0, 2024-11-04 16:03:58.387
72.0, -171111.56685490214, -171643.33720723836, -187500.02235174447, -187500.02235174447, -172177.387437509, -174179.14261569295, -174164.12224341897, -172280.5630899147, -0.158, 0.9380000000000001, 0.40800000000000003, 192.0, 251.0, 16.0, 29.0, 80.0, 12.0, 192.0, 0.0, 0.0, 0.0, 1.730747038391951E9, 0.0, 2024-11-04 16:03:58.391
73.0, -171137.96426510386, -171641.14673628172, -187500.02235174447, -187500.02235174447, -172157.5837919216, -174172.03476095616, -174230.97631108479, -172271.8682613216, -0.158, 0.9380000000000001, 0.40800000000000003, 192.0, 0.0, 0.0, 0.0, 0.0, 0.0, 0.0, 0.0, 0.0, 0.0, 1.7307470383968368E9, 0.0, 2024-11-04 16:03:58.396
74.0, -171143.8427738956, -171639.8503351033, -187500.02235174447, -187500.02235174447, -172146.4302714384, -174168.95022022133, -174230.3728139845, -172265.74388334082, -0.158, 0.9380000000000001, 0.40800000000000003, 192.0, 0.0, 0.0, 0.0, 0.0, 0.0, 0.0, 0.0, 0.0, 0.0, 1.730747038399926E9, 0.0, 2024-11-04 16:03:58.399
75.0, -171090.64562209198, -171629.79205009845, -187500.02235174447, -187500.02235174447, -172164.51283270275, -174193.2689181887, -174102.81140837807, -172273.67875262248, -0.158, 0.9380000000000001, 0.40800000000000003, 192.0, 0.0, 0.0, 0.0, 0.0, 0.0, 0.0, 0.0, 0.0, 0.0, 1.7307470384028795E9, 0.0, 2024-11-04 16:03:58.402
76.0, -171076.69813355186, -171613.31881443487, -187500.02235174447, -187500.02235174447, -172161.94238209038, -174199.1697787249, -174108.0417165806, -172267.12969149707, -0.158, 0.9380000000000001, 0.40800000000000003, 192.0, 0.0, 0.0, 0.0, 0.0, 0.0, 0.0, 0.0, 0.0, 0.0, 1.7307470384079587E9, 0.0, 2024-11-04 16:03:58.407
77.0, -171092.0314302482, -171604.44517188612, -187500.02235174447, -187500.02235174447, -172140.9764457913, -174192.12897922148, -174168.16790916538, -172256.26674369178, -0.158, 0.9380000000000001, 0.40800000000000003, 192.0, 0.0, 0.0, 0.0, 0.0, 0.0, 0.0, 0.0, 0.0, 0.0, 1.730747038411937E9, 0.0, 2024-11-04 16:03:58.411
78.0, -171095.76417157223, -171603.19347419663, -187500.02235174447, -187500.02235174447, -172132.8404108096, -174194.7664850672, -174167.2067841538, -172255.6632465915, -0.158, 0.9380000000000001, 0.40800000000000003, 192.0, 0.0, 0.0, 0.0, 0.0, 0.0, 0.0, 0.0, 0.0, 0.0, 1.7307470384158947E9, 0.0, 2024-11-04 16:03:58.415
79.0, -171044.48926979175, -171594.14101769222, -187500.02235174447, -187500.02235174447, -172153.64988489746, -174223.71199413683, -174036.2255616457, -172268.49314790883, -0.158, 0.9380000000000001, 0.40800000000000003, 192.0, 0.0, 0.0, 0.0, 0.0, 0.0, 0.0, 0.0, 0.0, 0.0, 1.7307470384199035E9, 0.0, 2024-11-04 16:03:58.419
80.0, -171008.30179551864, -171574.56088954938, -187500.02235174447, -187500.02235174447, -172163.39524547997, -174243.53799146868, -173996.327697793, -172272.24824097732, -0.158, 0.9380000000000001, 0.40800000000000003, 192.0, 0.0, 0.0, 0.0, 0.0, 0.0, 0.0, 0.0, 0.0, 0.0, 1.7307470384228196E9, 0.0, 2024-11-04 16:03:58.422
81.0, -171014.44852524385, -171564.77082547796, -187500.02235174447, -187500.02235174447, -172147.12317551652, -174242.93449436838, -174053.65992232083, -172265.2074414739, -0.158, 0.9380000000000001, 0.40800000000000003, 192.0, 0.0, 0.0, 0.0, 0.0, 0.0, 0.0, 0.0, 0.0, 0.0, 1.730747038426891E9, 0.0, 2024-11-04 16:03:58.426
82.0, -171008.36885075198, -171559.07113064185, -187500.02235174447, -187500.02235174447, -172138.2271812233, -174248.58948571558, -174049.05546296306, -172266.6156013746, -0.138, 0.91, 0.41400000000000003, 192.0, 251.0, 176.0, 28.0, 112.0, 12.0, 240.0, 0.0, 0.0, 0.0, 1.730747038430929E9, 0.0, 2024-11-04 16:03:58.430
83.0, -170956.33398966002, -171544.27427581244, -187500.02235174447, -187500.02235174447, -172156.55561167665, -174277.87027095203, -173926.23262718113, -172280.1160550256, -0.138, 0.91, 0.41400000000000003, 192.0, 0.0, 0.0, 0.0, 0.0, 0.0, 0.0, 0.0, 0.0, 0.0, 1.7307470384347684E9, 0.0, 2024-11-04 16:03:58.434
84.0, -170893.9949743742, -171508.19856026158, -187500.02235174447, -187500.02235174447, -172171.62068743954, -174305.47467535434, -173837.25033250457, -172287.98386907385, -0.138, 0.91, 0.41400000000000003, 192.0, 0.0, 0.0, 0.0, 0.0, 0.0, 0.0, 0.0, 0.0, 0.0, 1.7307470384397795E9, 0.0, 2024-11-04 16:03:58.439
85.0, -170889.9940121167, -171483.45517914955, -187500.02235174447, -187500.02235174447, -172154.96863782033, -174306.86048351057, -173887.83233020693, -172279.9595928144, -0.138, 0.91, 0.41400000000000003, 192.0, 0.0, 0.0, 0.0, 0.0, 0.0, 0.0, 0.0, 0.0, 0.0, 1.7307470384439485E9, 0.0, 2024-11-04 16:03:58.443
86.0, -170878.19229104428, -171463.76329228442, -187500.02235174447, -187500.02235174447, -172144.35155920405, -174315.26473942577, -173891.69918199768, -172282.75356087132, -0.138, 0.91, 0.41400000000000003, 192.0, 0.0, 0.0, 0.0, 0.0, 0.0, 0.0, 0.0, 0.0, 0.0, 1.7307470384479337E9, 0.0, 2024-11-04 16:03:58.447
87.0, -170832.30415967753, -171440.98686468447, -187500.02235174447, -187500.02235174447, -172155.75094887626, -174341.19276299392, -173790.60224182633, -172293.77297088777, -0.138, 0.91, 0.41400000000000003, 192.0, 0.0, 0.0, 0.0, 0.0, 0.0, 0.0, 0.0, 0.0, 0.0, 1.73074703845097E9, 0.0, 2024-11-04 16:03:58.450
88.0, -170758.4539959972, -171398.67501243055, -187500.02235174447, -187500.02235174447, -172176.7392369198, -174377.8496239006, -173670.90865026816, -172307.94397687246, -0.138, 0.91, 0.41400000000000003, 192.0, 0.0, 0.0, 0.0, 0.0, 0.0, 0.0, 0.0, 0.0, 0.0, 1.7307470384548416E9, 0.0, 2024-11-04 16:03:58.454
89.0, -170745.8476121244, -171366.46614867047, -187500.02235174447, -187500.02235174447, -172161.85297511256, -174383.68342920346, -173712.6617089107, -172301.19375004695, -0.138, 0.91, 0.41400000000000003, 192.0, 0.0, 0.0, 0.0, 0.0, 0.0, 0.0, 0.0, 0.0, 0.0, 1.7307470384587464E9, 0.0, 2024-11-04 16:03:58.458
90.0, -170732.1012892844, -171342.92976175903, -187500.02235174447, -187500.02235174447, -172151.92880057442, -174397.22858634338, -173719.12136305828, -172307.16166581653, -0.138, 0.91, 0.41400000000000003, 192.0, 0.0, 0.0, 0.0, 0.0, 0.0, 0.0, 0.0, 0.0, 0.0, 1.7307470384629807E9, 0.0, 2024-11-04 16:03:58.462
91.0, -170702.038192992, -171323.4837440829, -187500.02235174447, -187500.02235174447, -172159.70720764485, -174423.24601688934, -173652.66962679263, -172319.58923573367, -0.138, 0.91, 0.41400000000000003, 192.0, 0.0, 0.0, 0.0, 0.0, 0.0, 0.0, 0.0, 0.0, 0.0, 1.7307470384678962E9, 0.0, 2024-11-04 16:03:58.467
92.0, -170638.76040443903, -171287.94447039897, -187500.02235174447, -187500.02235174447, -172180.6954956884, -174461.8251278192, -173539.27922717086, -172335.05664289673, -0.132, 0.906, 0.436, 192.0, 251.0, 224.0, 28.0, 80.0, 13.0, 160.0, 0.0, 0.0, 0.0, 1.7307470384721396E9, 0.0, 2024-11-04 16:03:58.472
93.0, -170638.96157013913, -171259.75892064083, -187500.02235174447, -187500.02235174447, -172158.58962042208, -174460.4169679185, -173595.24799528695, -172320.03627062278, -0.132, 0.906, 0.436, 192.0, 0.0, 0.0, 0.0, 0.0, 0.0, 0.0, 0.0, 0.0, 0.0, 1.7307470384758146E9, 0.0, 2024-11-04 16:03:58.475
94.0, -170640.97322714012, -171239.93292330898, -187500.02235174447, -187500.02235174447, -172130.31466368612, -174456.70657833896, -173639.727966753, -172308.86039839513, -0.132, 0.906, 0.436, 192.0, 0.0, 0.0, 0.0, 0.0, 0.0, 0.0, 0.0, 0.0, 0.0, 1.730747038478964E9, 0.0, 2024-11-04 16:03:58.478
95.0, -170632.39015726926, -171229.4723069039, -187500.02235174447, -187500.02235174447, -172120.5245996147, -174466.00490403236, -173623.232379345, -172307.49694198335, -0.132, 0.906, 0.436, 192.0, 0.0, 0.0, 0.0, 0.0, 0.0, 0.0, 0.0, 0.0, 0.0, 1.7307470384830806E9, 0.0, 2024-11-04 16:03:58.483
96.0, -170579.2153572101, -171204.55011183623, -187500.02235174447, -187500.02235174447, -172133.6897770989, -174496.20211079146, -173513.0159274359, -172315.18594207597, -0.132, 0.906, 0.436, 192.0, 0.0, 0.0, 0.0, 0.0, 0.0, 0.0, 0.0, 0.0, 0.0, 1.7307470384869053E9, 0.0, 2024-11-04 16:03:58.486
97.0, -170582.41165666722, -171183.22654762585, -187500.02235174447, -187500.02235174447, -172112.63443382198, -174493.92223285703, -173561.8097855818, -172297.72922965637, -0.132, 0.906, 0.436, 192.0, 0.0, 0.0, 0.0, 0.0, 0.0, 0.0, 0.0, 0.0, 0.0, 1.730747038491005E9, 0.0, 2024-11-04 16:03:58.491
98.0, -170605.99274706756, -171177.0574661562, -187500.02235174447, -187500.02235174447, -172081.63256426246, -174486.12147404213, -173631.94955968257, -172282.64180214904, -0.132, 0.906, 0.436, 192.0, 0.0, 0.0, 0.0, 0.0, 0.0, 0.0, 0.0, 0.0, 0.0, 1.730747038495918E9, 0.0, 2024-11-04 16:03:58.495
99.0, -170622.19776179764, -171181.63957376953, -187500.02235174447, -187500.02235174447, -172067.7074274668, -174490.36830548864, -173645.6958825226, -172278.95376431392, -0.132, 0.906, 0.436, 192.0, 0.0, 0.0, 0.0, 0.0, 0.0, 0.0, 0.0, 0.0, 0.0, 1.7307470384998505E9, 0.0, 2024-11-04 16:03:58.499
100.0, -170587.77607533647, -171173.32472483214, -187500.02235174447, -187500.02235174447, -172077.6763054939, -174515.20109357848, -173546.90117203014, -172283.424113205, -0.132, 0.906, 0.436, 192.0, 0.0, 0.0, 0.0, 0.0, 0.0, 0.0, 0.0, 0.0, 0.0, 1.7307470385043728E9, 0.0, 2024-11-04 16:03:58.504
101.0, -170590.2124154821, -171161.67946597096, -187500.02235174447, -187500.02235174447, -172062.7676919422, -174516.2963290568, -173580.1158642907, -172268.157871742, -0.132, 0.906, 0.436, 192.0, 0.0, 0.0, 0.0, 0.0, 0.0, 0.0, 0.0, 0.0, 0.0, 1.7307470385070763E9, 0.0, 2024-11-04 16:03:58.507
102.0, -170624.4329362432, -171164.4510822834, -187500.02235174447, -187500.02235174447, -172029.57535142606, -174503.60053820617, -173670.30515316786, -172248.3095226657, -0.11800000000000001, 0.898, 0.45, 192.0, 252.0, 80.0, 28.0, 16.0, 14.0, 16.0, 0.0, 0.0, 0.0, 1.7307470385110624E9, 0.0, 2024-11-04 16:03:58.511
103.0, -170645.64474173126, -171173.77175972128, -187500.02235174447, -187500.02235174447, -172009.6599471164, -174500.91832887154, -173697.08254302535, -172239.43588011694, -0.11800000000000001, 0.898, 0.45, 192.0, 0.0, 0.0, 0.0, 0.0, 0.0, 0.0, 0.0, 0.0, 0.0, 1.7307470385149772E9, 0.0, 2024-11-04 16:03:58.514
104.0, -170618.71088966262, -171172.78828296522, -187500.02235174447, -187500.02235174447, -172014.46557217426, -174518.6879657135, -173604.36750702473, -172239.12295569456, -0.11800000000000001, 0.898, 0.45, 192.0, 0.0, 0.0, 0.0, 0.0, 0.0, 0.0, 0.0, 0.0, 0.0, 1.730747038518981E9, 0.0, 2024-11-04 16:03:58.518
105.0, -170605.79158136746, -171161.2547828263, -187500.02235174447, -187500.02235174447, -172005.77074358115, -174523.40418379358, -173600.85828314524, -172226.04718518822, -0.11800000000000001, 0.898, 0.45, 192.0, 0.0, 0.0, 0.0, 0.0, 0.0, 0.0, 0.0, 0.0, 0.0, 1.730747038524017E9, 0.0, 2024-11-04 16:03:58.524
106.0, -170640.95087539565, -171168.31793407418, -187500.02235174447, -187500.02235174447, -171975.4841298442, -174511.4907039989, -173700.9046913272, -172206.154132623, -0.11800000000000001, 0.898, 0.45, 192.0, 0.0, 0.0, 0.0, 0.0, 0.0, 0.0, 0.0, 0.0, 0.0, 1.7307470385279248E9, 0.0, 2024-11-04 16:03:58.527
107.0, -170660.06161690495, -171178.3538673346, -187500.02235174447, -187500.02235174447, -171955.16639413434, -174508.11559058615, -173734.83463941034, -172197.21343484087, -0.11800000000000001, 0.898, 0.45, 192.0, 0.0, 0.0, 0.0, 0.0, 0.0, 0.0, 0.0, 0.0, 0.0, 1.730747038532292E9, 0.0, 2024-11-04 16:03:58.532
108.0, -170639.85563991734, -171181.0137249248, -187500.02235174447, -187500.02235174447, -171958.09447265798, -174522.3313000597, -173655.8435745053, -172195.76057145128, -0.11800000000000001, 0.898, 0.45, 192.0, 0.0, 0.0, 0.0, 0.0, 0.0, 0.0, 0.0, 0.0, 0.0, 1.7307470385349834E9, 0.0, 2024-11-04 16:03:58.534
109.0, -170614.017023327, -171170.1060736306, -187500.02235174447, -187500.02235174447, -171961.15666164836, -174536.97169267794, -173617.15270485316, -172191.02200162676, -0.11800000000000001, 0.898, 0.45, 192.0, 0.0, 0.0, 0.0, 0.0, 0.0, 0.0, 0.0, 0.0, 0.0, 1.7307470385390315E9, 0.0, 2024-11-04 16:03:58.539
110.0, -170641.3755585403, -171169.83785269712, -187500.02235174447, -187500.02235174447, -171927.40552752084, -174519.47027676945, -173715.88036011223, -172164.84810886957, -0.11800000000000001, 0.898, 0.45, 192.0, 0.0, 0.0, 0.0, 0.0, 0.0, 0.0, 0.0, 0.0, 0.0, 1.730747038543094E9, 0.0, 2024-11-04 16:03:58.543
111.0, -170662.92264019523, -171178.5103295458, -187500.02235174447, -187500.02235174447, -171904.60674817645, -174513.12238134415, -173760.02505541148, -172153.9404575754, -0.11800000000000001, 0.898, 0.45, 192.0, 0.0, 0.0, 0.0, 0.0, 0.0, 0.0, 0.0, 0.0, 0.0, 1.7307470385471594E9, 0.0, 2024-11-04 16:03:58.547
112.0, -170657.98290467059, -171186.37814359405, -187500.02235174447, -187500.02235174447, -171903.28799525357, -174521.92896865951, -173707.0514210524, -172150.45358544035, -0.106, 0.884, 0.468, 192.0, 252.0, 176.0, 27.0, 160.0, 14.0, 160.0, 0.0, 0.0, 0.0, 1.7307470385521915E9, 0.0, 2024-11-04 16:03:58.552
113.0, -170630.28909329048, -171179.78437897973, -187500.02235174447, -187500.02235174447, -171913.99448084767, -174542.0455386693, -173641.44905107608, -172151.07943428511, -0.106, 0.884, 0.468, 192.0, 0.0, 0.0, 0.0, 0.0, 0.0, 0.0, 0.0, 0.0, 0.0, 1.73074703855604E9, 0.0, 2024-11-04 16:03:58.556
114.0, -170660.91098319425, -171183.07008541466, -187500.02235174447, -187500.02235174447, -171885.54071015606, -174526.66753848406, -173742.65774996972, -172126.49251538428, -0.106, 0.884, 0.468, 192.0, 0.0, 0.0, 0.0, 0.0, 0.0, 0.0, 0.0, 0.0, 0.0, 1.7307470385590856E9, 0.0, 2024-11-04 16:03:58.559
115.0, -170688.78360853, -171194.9612134649, -187500.02235174447, -187500.02235174447, -171860.32794241048, -174516.51984650135, -173800.39230589775, -172112.50032335526, -0.106, 0.884, 0.468, 192.0, 0.0, 0.0, 0.0, 0.0, 0.0, 0.0, 0.0, 0.0, 0.0, 1.7307470385629635E9, 0.0, 2024-11-04 16:03:58.562
116.0, -170697.7466580566, -171209.7580682943, -187500.02235174447, -187500.02235174447, -171854.5164888521, -174519.31381455826, -173776.02890444148, -172106.26418665223, -0.106, 0.884, 0.468, 192.0, 0.0, 0.0, 0.0, 0.0, 0.0, 0.0, 0.0, 0.0, 0.0, 1.7307470385670583E9, 0.0, 2024-11-04 16:03:58.567
117.0, -170667.95178269767, -171207.45583861542, -187500.02235174447, -187500.02235174447, -171867.5252041251, -174539.27392235684, -173689.86292956627, -172107.44882910835, -0.106, 0.884, 0.468, 192.0, 0.0, 0.0, 0.0, 0.0, 0.0, 0.0, 0.0, 0.0, 0.0, 1.730747038570934E9, 0.0, 2024-11-04 16:03:58.570
118.0, -170695.95851850015, -171212.21676018438, -187500.02235174447, -187500.02235174447, -171844.9052387363, -174526.2428553394, -173782.80148301143, -172084.60534627503, -0.106, 0.884, 0.468, 192.0, 0.0, 0.0, 0.0, 0.0, 0.0, 0.0, 0.0, 0.0, 0.0, 1.7307470385749493E9, 0.0, 2024-11-04 16:03:58.574
119.0, -170732.12364102885, -171227.79592606975, -187500.02235174447, -187500.02235174447, -171818.82075295696, -174512.9435673885, -173858.7974141595, -172068.4673867783, -0.106, 0.884, 0.468, 192.0, 0.0, 0.0, 0.0, 0.0, 0.0, 0.0, 0.0, 0.0, 0.0, 1.7307470385791273E9, 0.0, 2024-11-04 16:03:58.579
120.0, -170752.061397083, -171245.4761559339, -187500.02235174447, -187500.02235174447, -171806.12496210635, -174506.86389289665, -173860.3396845269, -172056.93388663937, -0.106, 0.884, 0.468, 192.0, 0.0, 0.0, 0.0, 0.0, 0.0, 0.0, 0.0, 0.0, 0.0, 1.7307470385840843E9, 0.0, 2024-11-04 16:03:58.584
121.0, -170726.8486293374, -171250.39353971404, -187500.02235174447, -187500.02235174447, -171820.92181693576, -174525.66170998357, -173764.1154246468, -172058.6549709624, -0.106, 0.884, 0.468, 192.0, 0.0, 0.0, 0.0, 0.0, 0.0, 0.0, 0.0, 0.0, 0.0, 1.7307470385871372E9, 0.0, 2024-11-04 16:03:58.587
122.0, -170745.7582051466, -171256.09323455015, -187500.02235174447, -187500.02235174447, -171805.18618883923, -174515.84929416768, -173831.01419580154, -172038.29253176364, -0.122, 0.864, 0.47800000000000004, 192.0, 252.0, 48.0, 27.0, 0.0, 14.0, 240.0, 0.0, 0.0, 0.0, 1.7307470385909853E9, 0.0, 2024-11-04 16:03:58.590
123.0, -170783.57735676496, -171273.46053999194, -187500.02235174447, -187500.02235174447, -171776.1959762807, -174497.09618056967, -173916.28610089852, -172017.01367104216, -0.122, 0.864, 0.47800000000000004, 192.0, 0.0, 0.0, 0.0, 0.0, 0.0, 0.0, 0.0, 0.0, 0.0, 1.7307470385950017E9, 0.0, 2024-11-04 16:03:58.595
124.0, -170808.6113105549, -171295.90169142507, -187500.02235174447, -187500.02235174447, -171761.4885284291, -174487.57433743172, -173931.41823189476, -172004.72021159175, -0.122, 0.864, 0.47800000000000004, 192.0, 0.0, 0.0, 0.0, 0.0, 0.0, 0.0, 0.0, 0.0, 0.0, 1.7307470385990655E9, 0.0, 2024-11-04 16:03:58.599
125.0, -170784.40437130982, -171304.4847612959, -187500.02235174447, -187500.02235174447, -171774.541947191, -174502.39354400558, -173830.2765882345, -172004.4519906583, -0.122, 0.864, 0.47800000000000004, 192.0, 0.0, 0.0, 0.0, 0.0, 0.0, 0.0, 0.0, 0.0, 0.0, 1.7307470386030664E9, 0.0, 2024-11-04 16:03:58.603
126.0, -170786.48308354415, -171305.9823281744, -187500.02235174447, -187500.02235174447, -171766.16004302027, -174497.49851196987, -173860.67496069372, -171987.6434788279, -0.122, 0.864, 0.47800000000000004, 192.0, 0.0, 0.0, 0.0, 0.0, 0.0, 0.0, 0.0, 0.0, 0.0, 1.7307470386071718E9, 0.0, 2024-11-04 16:03:58.607
127.0, -170826.2691886746, -171324.6907382835, -187500.02235174447, -187500.02235174447, -171740.27672294102, -174479.86298559463, -173960.69901713124, -171967.57161230705, -0.122, 0.864, 0.47800000000000004, 192.0, 0.0, 0.0, 0.0, 0.0, 0.0, 0.0, 0.0, 0.0, 0.0, 1.730747038612152E9, 0.0, 2024-11-04 16:03:58.612
128.0, -170852.15250875385, -171346.5954478497, -187500.02235174447, -187500.02235174447, -171726.10571695634, -174470.85523257914, -173992.9302326358, -171957.42392032433, -0.122, 0.864, 0.47800000000000004, 192.0, 0.0, 0.0, 0.0, 0.0, 0.0, 0.0, 0.0, 0.0, 0.0, 1.7307470386150432E9, 0.0, 2024-11-04 16:03:58.615
129.0, -170833.68996783378, -171356.56432587677, -187500.02235174447, -187500.02235174447, -171738.26506594004, -174483.6851338965, -173901.1986733912, -171957.62508602443, -0.122, 0.864, 0.47800000000000004, 192.0, 0.0, 0.0, 0.0, 0.0, 0.0, 0.0, 0.0, 0.0, 0.0, 1.7307470386189995E9, 0.0, 2024-11-04 16:03:58.618
130.0, -170823.0728892175, -171354.86559329816, -187500.02235174447, -187500.02235174447, -171742.78011832002, -174489.85421536615, -173888.12290288485, -171950.49487954317, -0.122, 0.864, 0.47800000000000004, 192.0, 0.0, 0.0, 0.0, 0.0, 0.0, 0.0, 0.0, 0.0, 0.0, 1.7307470386231148E9, 0.0, 2024-11-04 16:03:58.623
131.0, -170858.76862511263, -171366.93553530402, -187500.02235174447, -187500.02235174447, -171718.59553081938, -174472.39750294658, -173989.2198430562, -171929.86421941093, -0.122, 0.864, 0.47800000000000004, 192.0, 0.0, 0.0, 0.0, 0.0, 0.0, 0.0, 0.0, 0.0, 0.0, 1.730747038627025E9, 0.0, 2024-11-04 16:03:58.627
132.0, -170880.76274165665, -171382.69351514502, -187500.02235174447, -187500.02235174447, -171702.99401318957, -174462.5850871307, -174027.1284016524, -171919.71652742822, -0.14, 0.88, 0.48, 192.0, 251.0, 160.0, 27.0, 128.0, 15.0, 0.0, 0.0, 0.0, 0.0, 1.7307470386310463E9, 0.0, 2024-11-04 16:03:58.631
133.0, -170867.575212428, -171393.9587943505, -187500.02235174447, -187500.02235174447, -171714.50516158406, -174474.52091866982, -173953.61351413888, -171921.41526000682, -0.14, 0.88, 0.48, 192.0, 0.0, 0.0, 0.0, 0.0, 0.0, 0.0, 0.0, 0.0, 0.0, 1.7307470386349835E9, 0.0, 2024-11-04 16:03:58.634
134.0, -170840.70841559273, -171388.03558206983, -187500.02235174447, -187500.02235174447, -171730.3301966584, -174491.35178224466, -173906.0042984491, -171923.29280654108, -0.14, 0.88, 0.48, 192.0, 0.0, 0.0, 0.0, 0.0, 0.0, 0.0, 0.0, 0.0, 0.0, 1.7307470386401298E9, 0.0, 2024-11-04 16:03:58.640
135.0, -170869.4751107067, -171392.81885538326, -187500.02235174447, -187500.02235174447, -171708.9842807036, -174475.7949681038, -174008.79997119904, -171903.33269874248, -0.14, 0.88, 0.48, 192.0, 0.0, 0.0, 0.0, 0.0, 0.0, 0.0, 0.0, 0.0, 0.0, 1.7307470386430428E9, 0.0, 2024-11-04 16:03:58.643
136.0, -170896.3866110309, -171407.57100672377, -187500.02235174447, -187500.02235174447, -171695.23795786357, -174468.64240987808, -174056.6327043334, -171896.15778877234, -0.14, 0.88, 0.48, 192.0, 0.0, 0.0, 0.0, 0.0, 0.0, 0.0, 0.0, 0.0, 0.0, 1.7307470386470263E9, 0.0, 2024-11-04 16:03:58.647
