%OpenBCI Raw EXG Data
%Number of channels = 8
%Sample Rate = 250 Hz
%Board = OpenBCI_GUI$BoardCytonSerial
Sample Index, EXG Channel 0, EXG Channel 1, EXG Channel 2, EXG Channel 3, EXG Channel 4, EXG Channel 5, EXG Channel 6, EXG Channel 7, Accel Channel 0, Accel Channel 1, Accel Channel 2, Not Used, Digital Channel 0 (D11), Digital Channel 1 (D12), Digital Channel 2 (D13), Digital Channel 3 (D17), Not Used, Digital Channel 4 (D18), Analog Channel 0, Analog Channel 1, Analog Channel 2, Timestamp, Marker Channel, Timestamp (Formatted)
169.0, -46195.28903905023, -46752.67449053222, -50512.729646292886, -34379.37460891898, -51517.5076147923, -48715.51528161947, -48746.83007560135, -47678.37198714876, 0.0, 0.0, 0.0, 192.0, 0.0, 0.0, 0.0, 0.0, 0.0, 0.0, 0.0, 0.0, 0.0, 1.7309209922357476E9, 0.0, 2024-11-06 16:23:12.235
170.0, -46194.059693105184, -46751.176923653715, -50511.94733523695, -34377.98880076275, -51513.819576957176, -48709.52501410544, -48744.438438944635, -47676.516792358976, 0.0, 0.0, 0.0, 192.0, 0.0, 0.0, 0.0, 0.0, 0.0, 0.0, 0.0, 0.0, 0.0, 1.730920992235779E9, 0.0, 2024-11-06 16:23:12.235
171.0, -46205.0567513772, -46761.8387057589, -50494.73649200636, -34362.409634877404, -51524.0119724288, -48702.86419425776, -48755.23433151655, -47687.469147142074, 0.0, 0.0, 0.0, 192.0, 0.0, 0.0, 0.0, 0.0, 0.0, 0.0, 0.0, 0.0, 0.0, 1.7309209922358189E9, 0.0, 2024-11-06 16:23:12.235
172.0, -46204.54266125472, -46761.21285691415, -50490.064977415204, -34354.6088760625, -51526.15773989651, -48705.65816231468, -48756.0613460614, -47688.27380994247, 0.0, 0.0, 0.0, 192.0, 0.0, 0.0, 0.0, 0.0, 0.0, 0.0, 0.0, 0.0, 0.0, 1.7309209922358792E9, 0.0, 2024-11-06 16:23:12.235
0.0, 0.0, 0.0, 0.0, 0.0, 0.0, 0.0, 0.0, 0.0, 0.0, 0.0, 0.0, 192.0, 0.0, 0.0, 0.0, 0.0, 0.0, 0.0, 0.0, 0.0, 0.0, 1.7309209923070993E9, 0.0, 2024-11-06 16:23:12.307
1.0, -45567.74146172303, -46166.20941951388, -49769.4000326872, -33036.3476915774, -50914.45754938812, -48115.0580185721, -48155.022937658185, -47081.08867181405, 0.0, 0.0, 0.0, 192.0, 0.0, 0.0, 28.0, 144.0, 13.0, 0.0, 0.0, 0.0, 0.0, 1.730920992323988E9, 0.0, 2024-11-06 16:23:12.323
2.0, -45580.81723222938, -46179.531059209236, -49755.385488913715, -33024.32245306044, -50925.968697782606, -48110.14063479193, -48167.606969786524, -47093.65035219793, 0.0, 0.0, 0.0, 192.0, 0.0, 0.0, 0.0, 0.0, 0.0, 0.0, 0.0, 0.0, 0.0, 1.7309209923281977E9, 0.0, 2024-11-06 16:23:12.328
3.0, -45583.87942121976, -46182.883820877534, -49747.629433587725, -33014.2418163111, -50932.00366878554, -48111.32527724806, -48171.96555995531, -47097.874831899986, 0.0, 0.0, 0.0, 192.0, 0.0, 0.0, 0.0, 0.0, 0.0, 0.0, 0.0, 0.0, 0.0, 1.7309209923310633E9, 0.0, 2024-11-06 16:23:12.331
4.0, -45569.998987913015, -46169.249256759795, -49757.95593952608, -33019.0921448579, -50920.157244224225, -48114.92390810537, -48158.91214119341, -47084.48613697125, 0.0, 0.0, 0.0, 192.0, 0.0, 0.0, 0.0, 0.0, 0.0, 0.0, 0.0, 0.0, 0.0, 1.7309209923341937E9, 0.0, 2024-11-06 16:23:12.334
5.0, -45564.29929307691, -46163.54956192369, -49765.62258787425, -33024.836543182915, -50912.177671453675, -48113.359285993494, -48152.5642457681, -47078.18294503486, 0.0, 0.0, 0.0, 192.0, 0.0, 0.0, 0.0, 0.0, 0.0, 0.0, 0.0, 0.0, 0.0, 1.7309209923382485E9, 0.0, 2024-11-06 16:23:12.338
6.0, -45573.68702574814, -46173.13846029502, -49751.65274758968, -33012.900711643786, -50919.35258142383, -48106.18437602334, -48161.54964703914, -47087.25775328371, 0.0, 0.0, 0.0, 192.0, 0.0, 0.0, 0.0, 0.0, 0.0, 0.0, 0.0, 0.0, 0.0, 1.7309209923421707E9, 0.0, 2024-11-06 16:23:12.342
7.0, -45575.229296115554, -46175.10541380709, -49735.89476774869, -32996.025144580024, -50923.04061925896, -48102.317524232574, -48164.3659668405, -47089.98466610726, 0.0, 0.0, 0.0, 192.0, 0.0, 0.0, 0.0, 0.0, 0.0, 0.0, 0.0, 0.0, 0.0, 1.7309209923462336E9, 0.0, 2024-11-06 16:23:12.346
8.0, -45560.61125524178, -46160.55442816668, -49741.92973875162, -32996.36042074685, -50910.83656678636, -48105.44676845631, -48150.93256842287, -47075.81366012259, 0.0, 0.0, 0.0, 192.0, 0.0, 0.0, 28.0, 192.0, 12.0, 240.0, 0.0, 0.0, 0.0, 1.7309209923512864E9, 0.0, 2024-11-06 16:23:12.351
9.0, -45550.03888011442, -46149.84794257259, -49750.75867781147, -33002.2389295386, -50898.74427303604, -48104.44093995583, -48139.309661306106, -47064.41427045039, 0.0, 0.0, 0.0, 192.0, 0.0, 0.0, 0.0, 0.0, 0.0, 0.0, 0.0, 0.0, 0.0, 1.7309209923542116E9, 0.0, 2024-11-06 16:23:12.354
10.0, -45556.67734821765, -46156.37465195354, -49738.487570105506, -32991.89007185579, -50902.946400993635, -48095.880221829444, -48145.12111486449, -47070.113965286495, 0.0, 0.0, 0.0, 192.0, 0.0, 0.0, 0.0, 0.0, 0.0, 0.0, 0.0, 0.0, 0.0, 1.7309209923581884E9, 0.0, 2024-11-06 16:23:12.358
11.0, -45561.885304675736, -46161.80612585618, -49721.09791291928, -32974.299248969466, -50909.674276074686, -48090.44874792681, -48151.469010289795, -47076.12658454497, 0.0, 0.0, 0.0, 192.0, 0.0, 0.0, 0.0, 0.0, 0.0, 0.0, 0.0, 0.0, 0.0, 1.730920992362285E9, 0.0, 2024-11-06 16:23:12.362
12.0, -45551.26822605947, -46151.300805962186, -49725.210633899056, -32973.09225476888, -50901.44883411513, -48093.443881683816, -48141.8130566851, -47066.49298268473, 0.0, 0.0, 0.0, 192.0, 0.0, 0.0, 0.0, 0.0, 0.0, 0.0, 0.0, 0.0, 0.0, 1.7309209923661776E9, 0.0, 2024-11-06 16:23:12.366
13.0, -45540.09235383182, -46140.30374769017, -49737.81701777184, -32981.65297289527, -50889.378892109264, -48094.91909681787, -48129.63135595696, -47054.7583168457, 0.0, 0.0, 0.0, 192.0, 0.0, 0.0, 0.0, 0.0, 0.0, 0.0, 0.0, 0.0, 0.0, 1.7309209923701391E9, 0.0, 2024-11-06 16:23:12.370
14.0, -45545.00973761198, -46145.39994542598, -49730.284479890404, -32975.349780958866, -50891.837583999346, -48087.67713161435, -48133.498207747725, -47058.49105816973, 0.0, 0.0, 0.0, 192.0, 0.0, 0.0, 0.0, 0.0, 0.0, 0.0, 0.0, 0.0, 0.0, 1.7309209923761244E9, 0.0, 2024-11-06 16:23:12.376
15.0, -45555.2021330836, -46155.61469264206, -49713.69948550457, -32959.547097628965, -50902.20879342661, -48083.38559667893, -48144.00352764172, -47068.95167457482, 0.0, 0.0, 0.0, 192.0, 0.0, 0.0, 0.0, 0.0, 0.0, 0.0, 0.0, 0.0, 0.0, 1.7309209923794177E9, 0.0, 2024-11-06 16:23:12.379
16.0, -45548.183685324635, -46148.842114072104, -49714.79472098288, -32956.06022549394, -50898.140775935746, -48086.69365485831, -48138.10266710552, -47063.09551752752, 0.0, 0.0, 0.0, 192.0, 0.0, 0.0, 0.0, 0.0, 0.0, 0.0, 0.0, 0.0, 0.0, 1.7309209923822992E9, 0.0, 2024-11-06 16:23:12.382
17.0, -45534.50441771799, -46135.11814297654, -49727.95989846705, -32964.48683315359, -50884.50621181801, -48088.88412581493, -48124.62456519897, -47049.192732476324, 0.0, 0.0, 0.0, 192.0, 0.0, 0.0, 0.0, 0.0, 0.0, 0.0, 0.0, 0.0, 0.0, 1.7309209923862526E9, 0.0, 2024-11-06 16:23:12.386
18.0, -45535.68906017412, -46136.258081943764, -49723.42249434263, -32960.50822264054, -50882.94158970613, -48081.75391933369, -48125.20571055481, -47049.282139454146, 0.002, 0.92, 0.41000000000000003, 192.0, 0.0, 16.0, 28.0, 192.0, 12.0, 208.0, 0.0, 0.0, 0.0, 1.7309209923901272E9, 0.0, 2024-11-06 16:23:12.390
19.0, -45545.389717267724, -46146.115201248555, -49704.82584295581, -32943.31973115441, -50892.485784588556, -48074.37784366344, -48135.2639955597, -47059.11690701448, 0.002, 0.92, 0.41000000000000003, 192.0, 0.0, 0.0, 0.0, 0.0, 0.0, 0.0, 0.0, 0.0, 0.0, 1.7309209923941972E9, 0.0, 2024-11-06 16:23:12.394
20.0, -45541.612272454775, -46142.36010818006, -49701.987171409986, -32936.65891130673, -50891.412900854695, -48076.456555897785, -48132.40297226942, -47056.52410465766, 0.002, 0.92, 0.41000000000000003, 192.0, 0.0, 0.0, 0.0, 0.0, 0.0, 0.0, 0.0, 0.0, 0.0, 1.7309209923981838E9, 0.0, 2024-11-06 16:23:12.398
21.0, -45527.351859492286, -46128.010288239755, -49715.04059017189, -32944.370263143814, -50878.001854181515, -48079.809317566076, -48117.53906220663, -47042.710726584286, 0.002, 0.92, 0.41000000000000003, 192.0, 0.0, 0.0, 0.0, 0.0, 0.0, 0.0, 0.0, 0.0, 0.0, 1.7309209924021745E9, 0.0, 2024-11-06 16:23:12.402
22.0, -45526.1448652917, -46126.78094229471, -49715.688790761094, -32944.75024279955, -50874.224409368566, -48075.76365181967, -48114.856852872, -47040.29673818311, 0.002, 0.92, 0.41000000000000003, 192.0, 0.0, 0.0, 0.0, 0.0, 0.0, 0.0, 0.0, 0.0, 0.0, 1.7309209924060512E9, 0.0, 2024-11-06 16:23:12.406
23.0, -45536.53842646342, -46137.241558699796, -49697.96385740803, -32928.99226295856, -50883.90271471772, -48068.56639010506, -48125.20571055481, -47050.399726676915, 0.002, 0.92, 0.41000000000000003, 192.0, 0.0, 0.0, 0.0, 0.0, 0.0, 0.0, 0.0, 0.0, 0.0, 1.7309209924102316E9, 0.0, 2024-11-06 16:23:12.410
24.0, -45535.64435668521, -46136.70511683287, -49690.56542999332, -32918.777515742484, -50886.29435137443, -48068.61109359397, -48126.18918731084, -47050.93616854384, 0.002, 0.92, 0.41000000000000003, 192.0, 0.0, 0.0, 0.0, 0.0, 0.0, 0.0, 0.0, 0.0, 0.0, 1.7309209924142697E9, 0.0, 2024-11-06 16:23:12.414
25.0, -45521.272185000445, -46122.37764863702, -49702.83653769929, -32925.39363210126, -50873.75502273501, -48072.58970410701, -48112.599326682015, -47037.458066637286, 0.002, 0.92, 0.41000000000000003, 192.0, 0.0, 0.0, 0.0, 0.0, 0.0, 0.0, 0.0, 0.0, 0.0, 1.7309209924185555E9, 0.0, 2024-11-06 16:23:12.418
26.0, -45517.2935744874, -46118.48844510179, -49708.26801160193, -32929.5734083144, -50867.518886031976, -48070.309826172575, -48107.41372196838, -47033.345345657515, 0.002, 0.92, 0.41000000000000003, 192.0, 0.0, 0.0, 0.0, 0.0, 0.0, 0.0, 0.0, 0.0, 0.0, 1.7309209924222329E9, 0.0, 2024-11-06 16:23:12.422
27.0, -45526.48014145853, -46127.42914288392, -49691.079520115796, -32914.396573829246, -50874.93966519114, -48061.23501792372, -48115.86268137249, -47041.97311901726, 0.002, 0.92, 0.41000000000000003, 192.0, 0.0, 0.0, 0.0, 0.0, 0.0, 0.0, 0.0, 0.0, 0.0, 1.7309209924264379E9, 0.0, 2024-11-06 16:23:12.426
28.0, -45530.10112406029, -46131.11718071904, -49680.93182813309, -32902.483094034564, -50880.4605460716, -48061.32442490154, -48120.511844219196, -47045.437639407835, 0.002, 0.92, 0.41000000000000003, 192.0, 0.0, 0.0, 28.0, 176.0, 12.0, 240.0, 0.0, 0.0, 0.0, 1.730920992431164E9, 0.0, 2024-11-06 16:23:12.431
29.0, -45519.238176255014, -46120.522453847225, -49693.538212005886, -32909.32272783789, -50871.81042096739, -48068.544038360604, -48110.58766968104, -47035.53581661413, 0.002, 0.92, 0.41000000000000003, 192.0, 0.0, 0.0, 0.0, 0.0, 0.0, 0.0, 0.0, 0.0, 0.0, 1.7309209924342377E9, 0.0, 2024-11-06 16:23:12.434
30.0, -45510.81156859536, -46112.09584618758, -49700.579011509304, -32914.15070464023, -50861.282749328944, -48065.52655285914, -48101.37875096545, -47026.37160138746, 0.002, 0.92, 0.41000000000000003, 192.0, 0.0, 0.0, 0.0, 0.0, 0.0, 0.0, 0.0, 0.0, 0.0, 1.7309209924372952E9, 0.0, 2024-11-06 16:23:12.437
31.0, -45518.58997566581, -46120.03071546921, -49686.11743284672, -32901.74548646754, -50866.960092420595, -48056.04941321009, -48108.48660570224, -47033.36769740197, 0.002, 0.92, 0.41000000000000003, 192.0, 0.0, 0.0, 0.0, 0.0, 0.0, 0.0, 0.0, 0.0, 0.0, 1.7309209924422426E9, 0.0, 2024-11-06 16:23:12.442
32.0, -45526.18956878061, -46127.85382602857, -49674.24865654095, -32889.09439910584, -50876.526639047464, -48055.960006232264, -48116.73439940625, -47041.995470761714, 0.002, 0.92, 0.41000000000000003, 192.0, 0.0, 0.0, 0.0, 0.0, 0.0, 0.0, 0.0, 0.0, 0.0, 1.7309209924463832E9, 0.0, 2024-11-06 16:23:12.446
33.0, -45512.331487218325, -46114.15220667746, -49679.0766333433, -32888.49090200554, -50864.97078716407, -48058.57516033354, -48103.61392541098, -47029.05381072209, 0.002, 0.92, 0.41000000000000003, 192.0, 0.0, 0.0, 0.0, 0.0, 0.0, 0.0, 0.0, 0.0, 0.0, 1.7309209924503765E9, 0.0, 2024-11-06 16:23:12.450
34.0, -45500.0380277679, -46101.83639548259, -49687.95027589206, -32893.967079397094, -50851.15740909069, -48056.675262054836, -48090.06876827106, -47015.82157800455, 0.002, 0.92, 0.41000000000000003, 192.0, 0.0, 0.0, 0.0, 0.0, 0.0, 0.0, 0.0, 0.0, 0.0, 1.730920992454378E9, 0.0, 2024-11-06 16:23:12.454
35.0, -45508.30817321637, -46110.106540931054, -49679.41190951013, -32887.17214908268, -50857.01356613798, -48050.90851198537, -48097.31073347459, -47023.912909497376, 0.002, 0.92, 0.41000000000000003, 192.0, 0.0, 0.0, 0.0, 0.0, 0.0, 0.0, 0.0, 0.0, 0.0, 1.730920992458316E9, 0.0, 2024-11-06 16:23:12.458
36.0, -45515.77365586444, -46117.8849480015, -49662.49163895746, -32870.45304423011, -50865.3060633309, -48046.30405262757, -48105.603230667504, -47031.82542703455, 0.002, 0.92, 0.41000000000000003, 192.0, 0.0, 0.0, 0.0, 0.0, 0.0, 0.0, 0.0, 0.0, 0.0, 1.730920992462221E9, 0.0, 2024-11-06 16:23:12.462
37.0, -45508.73285636102, -46111.06766594263, -49668.1242785602, -32870.98948609704, -50860.85806618429, -48052.00374746368, -48099.56825966457, -47025.365772886966, 0.002, 0.92, 0.41000000000000003, 192.0, 0.0, 0.0, 0.0, 0.0, 0.0, 0.0, 0.0, 0.0, 0.0, 1.7309209924654033E9, 0.0, 2024-11-06 16:23:12.465
38.0, -45496.90878354416, -46099.333000103594, -49681.289456044375, -32879.88548039025, -50848.31873754487, -48054.015404464655, -48087.02893102514, -47013.02760994764, 0.002, 0.92, 0.41600000000000004, 192.0, 0.0, 16.0, 28.0, 192.0, 13.0, 0.0, 0.0, 0.0, 0.0, 1.7309209924702976E9, 0.0, 2024-11-06 16:23:12.470
39.0, -45501.4908911575, -46103.892755972476, -49675.634464697185, -32875.370428010276, -50850.21863582357, -48047.84632299499, -48090.31463746007, -47017.00622046068, 0.002, 0.92, 0.41600000000000004, 192.0, 0.0, 0.0, 0.0, 0.0, 0.0, 0.0, 0.0, 0.0, 0.0, 1.7309209924742877E9, 0.0, 2024-11-06 16:23:12.474
40.0, -45509.33635346131, -46111.76057002075, -49656.121391787696, -32856.81848011237, -50858.60053999431, -48040.40319209137, -48098.540079419625, -47024.98579323123, 0.002, 0.92, 0.41600000000000004, 192.0, 0.0, 0.0, 0.0, 0.0, 0.0, 0.0, 0.0, 0.0, 0.0, 1.7309209924783237E9, 0.0, 2024-11-06 16:23:12.478
41.0, -45502.65318186917, -46104.96563970633, -49654.869694098204, -32851.27524748746, -50854.5548742479, -48041.96781420324, -48093.08625377253, -47019.17433967285, 0.002, 0.92, 0.41600000000000004, 192.0, 0.0, 0.0, 0.0, 0.0, 0.0, 0.0, 0.0, 0.0, 0.0, 1.7309209924822624E9, 0.0, 2024-11-06 16:23:12.482
42.0, -45489.599763107275, -46091.91222094443, -49669.01834833841, -32860.3053522474, -50841.434400252634, -48044.67237528234, -48079.809317566076, -47005.852699977484, 0.002, 0.92, 0.41600000000000004, 192.0, 0.0, 0.0, 0.0, 0.0, 0.0, 0.0, 0.0, 0.0, 0.0, 1.7309209924853373E9, 0.0, 2024-11-06 16:23:12.485
43.0, -45491.209088708056, -46093.678008756404, -49667.18550529308, -32858.8524888578, -50839.95918511858, -48038.615052534944, -48079.94342803281, -47006.411493588865, 0.002, 0.92, 0.41600000000000004, 192.0, 0.0, 0.0, 0.0, 0.0, 0.0, 0.0, 0.0, 0.0, 0.0, 1.730920992489444E9, 0.0, 2024-11-06 16:23:12.489
44.0, -45502.943754547094, -46105.4797298288, -49650.13112427368, -32843.429785183645, -50851.13505734623, -48032.15539838737, -48091.61103863848, -47018.50378733919, 0.002, 0.92, 0.41600000000000004, 192.0, 0.0, 0.0, 0.0, 0.0, 0.0, 0.0, 0.0, 0.0, 0.0, 1.730920992493482E9, 0.0, 2024-11-06 16:23:12.493
45.0, -45501.71440860205, -46104.4291978394, -49647.49361842795, -32837.21600022507, -50852.94554864711, -48034.859959466456, -48091.834556083035, -47018.21321466127, 0.002, 0.92, 0.41600000000000004, 192.0, 0.0, 0.0, 0.0, 0.0, 0.0, 0.0, 0.0, 0.0, 0.0, 1.7309209924973996E9, 0.0, 2024-11-06 16:23:12.497
46.0, -45485.129414216215, -46087.7771482202, -49658.13304878867, -32842.42395668315, -50837.34403101731, -48036.379878089414, -48075.31661693056, -47001.78468248662, 0.002, 0.92, 0.41600000000000004, 192.0, 0.0, 0.0, 0.0, 0.0, 0.0, 0.0, 0.0, 0.0, 0.0, 1.7309209925025284E9, 0.0, 2024-11-06 16:23:12.502
47.0, -45480.234382180504, -46082.770357462214, -49657.55190343284, -32841.21696248257, -50829.45386522459, -48030.233148364205, -48068.678148827334, -46995.861470205964, 0.002, 0.92, 0.41600000000000004, 192.0, 0.0, 0.0, 0.0, 0.0, 0.0, 0.0, 0.0, 0.0, 0.0, 1.7309209925062325E9, 0.0, 2024-11-06 16:23:12.506
48.0, -45490.87381254123, -46093.476843056305, -49640.78809509136, -32826.35305241979, -50838.90865312918, -48023.30410758306, -48079.20582046579, -47006.18797614431, 0.002, 0.92, 0.41600000000000004, 192.0, 0.0, 0.0, 28.0, 160.0, 13.0, 32.0, 0.0, 0.0, 0.0, 1.730920992510394E9, 0.0, 2024-11-06 16:23:12.510
49.0, -45492.125510230726, -46094.817947723626, -49632.80852232081, -32815.89243601471, -50842.73080143104, -48023.70643898326, -48082.06684375607, -47008.15492965638, 0.002, 0.92, 0.41600000000000004, 192.0, 0.0, 0.0, 0.0, 0.0, 0.0, 0.0, 0.0, 0.0, 0.0, 1.7309209925134206E9, 0.0, 2024-11-06 16:23:12.513
50.0, -45479.13914670219, -46081.85393593954, -49645.19138874905, -32822.64266284021, -50831.5996326923, -48028.64617450788, -48069.393404649905, -46995.168566127846, 0.002, 0.92, 0.41600000000000004, 192.0, 0.0, 0.0, 0.0, 0.0, 0.0, 0.0, 0.0, 0.0, 0.0, 1.7309209925173647E9, 0.0, 2024-11-06 16:23:12.517
51.0, -45470.91370474264, -46073.628493979995, -49648.700612628534, -32824.58726460782, -50821.18371977613, -48023.43821804979, -48059.75980278967, -46986.47373753473, 0.002, 0.92, 0.41600000000000004, 192.0, 0.0, 0.0, 0.0, 0.0, 0.0, 0.0, 0.0, 0.0, 0.0, 1.73092099252133E9, 0.0, 2024-11-06 16:23:12.521
52.0, -45481.01669323644, -46083.7761859627, -49633.3673159322, -32811.31032840137, -50828.93977510212, -48014.89985166787, -48068.7452040607, -46995.81676671705, 0.002, 0.92, 0.41600000000000004, 192.0, 0.0, 0.0, 0.0, 0.0, 0.0, 0.0, 0.0, 0.0, 0.0, 1.730920992525236E9, 0.0, 2024-11-06 16:23:12.525
53.0, -45483.3859781487, -46086.25722959724, -49620.112731470195, -32796.53582531641, -50833.54423445991, -48011.8823661664, -48072.43324189583, -46999.05776966307, 0.002, 0.92, 0.41600000000000004, 192.0, 0.0, 0.0, 0.0, 0.0, 0.0, 0.0, 0.0, 0.0, 0.0, 1.730920992530414E9, 0.0, 2024-11-06 16:23:12.530
54.0, -45470.176097175616, -46072.98029339079, -49629.18753971905, -32799.82153175134, -50822.59187967681, -48016.039790635085, -48060.56446559006, -46986.89842067938, 0.002, 0.92, 0.41600000000000004, 192.0, 0.0, 0.0, 0.0, 0.0, 0.0, 0.0, 0.0, 0.0, 0.0, 1.7309209925354207E9, 0.0, 2024-11-06 16:23:12.535
55.0, -45463.738794772486, -46066.45358400984, -49640.22930147997, -32808.27049115545, -50814.38878946171, -48017.42559879131, -48053.30014864208, -46979.67880722032, 0.002, 0.92, 0.41600000000000004, 192.0, 0.0, 0.0, 0.0, 0.0, 0.0, 0.0, 0.0, 0.0, 0.0, 1.7309209925385468E9, 0.0, 2024-11-06 16:23:12.538
56.0, -45472.0312919654, -46074.79078469167, -49627.958193774015, -32798.10044742828, -50820.28964999791, -48010.6306684769, -48060.095078956496, -46987.412510801856, 0.002, 0.92, 0.41600000000000004, 192.0, 0.0, 0.0, 0.0, 0.0, 0.0, 0.0, 0.0, 0.0, 0.0, 1.730920992542472E9, 0.0, 2024-11-06 16:23:12.542
57.0, -45477.75333854596, -46080.57988650559, -49612.53549009985, -32782.27541235393, -50827.53161520143, -48007.724941697714, -48066.71119531527, -46993.73805448271, 0.002, 0.92, 0.41600000000000004, 192.0, 0.0, 0.0, 0.0, 0.0, 0.0, 0.0, 0.0, 0.0, 0.0, 1.7309209925454547E9, 0.0, 2024-11-06 16:23:12.545
58.0, -45468.16444017464, -46070.87922941199, -49619.75510355891, -32784.085903654806, -50820.468463953555, -48013.469340022726, -48058.17282893334, -46984.55148751158, 0.002, 0.916, 0.418, 192.0, 0.0, 16.0, 28.0, 160.0, 13.0, 16.0, 0.0, 0.0, 0.0, 1.7309209925497124E9, 0.0, 2024-11-06 16:23:12.549
59.0, -45457.32384411381, -46059.859819395526, -49631.646231609135, -32792.333697358816, -50808.510280669965, -48014.162244100844, -48046.50521832767, -46973.06269086155, 0.002, 0.916, 0.418, 192.0, 0.0, 0.0, 0.0, 0.0, 0.0, 0.0, 0.0, 0.0, 0.0, 1.7309209925533934E9, 0.0, 2024-11-06 16:23:12.553
60.0, -45461.54832381586, -46063.905485141935, -49621.00680124841, -32783.303592598866, -50809.89608882619, -48004.64040096288, -48049.88033174042, -46976.90719090786, 0.002, 0.916, 0.418, 192.0, 0.0, 0.0, 0.0, 0.0, 0.0, 0.0, 0.0, 0.0, 0.0, 1.7309209925586016E9, 0.0, 2024-11-06 16:23:12.558
61.0, -45471.226629165016, -46073.44968002435, -49604.801786518314, -32767.567964502334, -50820.49081569801, -48000.460624749736, -48060.36329988996, -46986.60784800146, 0.002, 0.916, 0.418, 192.0, 0.0, 0.0, 0.0, 0.0, 0.0, 0.0, 0.0, 0.0, 0.0, 1.7309209925623715E9, 0.0, 2024-11-06 16:23:12.562
62.0, -45464.990492461984, -46067.21354332132, -49609.003914475914, -32766.852708679762, -50817.316867985355, -48005.154491085355, -48055.37886087643, -46980.908153165365, 0.002, 0.916, 0.418, 192.0, 0.0, 0.0, 0.0, 0.0, 0.0, 0.0, 0.0, 0.0, 0.0, 1.73092099256632E9, 0.0, 2024-11-06 16:23:12.566
63.0, -45451.981777188994, -46054.42834549288, -49622.19144370454, -32775.39107506169, -50804.21874573454, -48007.16614808633, -48042.41484909235, -46967.65356870337, 0.002, 0.916, 0.418, 192.0, 0.0, 0.0, 0.0, 0.0, 0.0, 0.0, 0.0, 0.0, 0.0, 1.7309209925694008E9, 0.0, 2024-11-06 16:23:12.569
64.0, -45453.90402721215, -46056.3729472605, -49616.44704537953, -32770.54074651489, -50803.70465561208, -47999.85712764945, -48043.42067759284, -46969.218190815234, 0.002, 0.916, 0.418, 192.0, 0.0, 0.0, 0.0, 0.0, 0.0, 0.0, 0.0, 0.0, 0.0, 1.7309209925732856E9, 0.0, 2024-11-06 16:23:12.573
65.0, -45464.163477917136, -46066.81121192112, -49599.01268470439, -32754.380435273702, -50814.187623761616, -47994.224488046704, -48054.39538412039, -46980.10349036497, 0.002, 0.916, 0.418, 192.0, 0.0, 0.0, 0.0, 0.0, 0.0, 0.0, 0.0, 0.0, 0.0, 1.730920992577308E9, 0.0, 2024-11-06 16:23:12.577
66.0, -45459.91664647063, -46062.34086303006, -49597.58217305925, -32748.837202648785, -50812.064208038355, -47997.39843575936, -48051.0426224521, -46976.01312112965, 0.002, 0.916, 0.418, 192.0, 0.0, 0.0, 0.0, 0.0, 0.0, 0.0, 0.0, 0.0, 0.0, 1.730920992581474E9, 0.0, 2024-11-06 16:23:12.581
67.0, -45444.76216372993, -46047.20873203382, -49610.09914995422, -32756.213278319035, -50797.177946231124, -48000.14770032736, -48035.754029244665, -46960.81393490004, 0.002, 0.916, 0.418, 192.0, 0.0, 0.0, 0.0, 0.0, 0.0, 0.0, 0.0, 0.0, 0.0, 1.7309209925863488E9, 0.0, 2024-11-06 16:23:12.586
68.0, -45443.68927999608, -46046.426420977885, -49609.04861796482, -32755.185098074093, -50794.40632991867, -47994.582115957994, -48034.010593177154, -46959.89751337737, 0.002, 0.914, 0.418, 192.0, 0.0, 16.0, 28.0, 144.0, 13.0, 16.0, 0.0, 0.0, 0.0, 1.7309209925902798E9, 0.0, 2024-11-06 16:23:12.590
69.0, -45456.13920165768, -46058.78693566167, -49592.776548001355, -32740.634112433687, -50806.49862366899, -47989.418862988816, -48046.37110786094, -46972.39213852789, 0.002, 0.914, 0.418, 192.0, 0.0, 0.0, 0.0, 0.0, 0.0, 0.0, 0.0, 0.0, 0.0, 1.7309209925943573E9, 0.0, 2024-11-06 16:23:12.594
70.0, -45454.149896401155, -46056.75292691623, -49586.987446187435, -32731.648711162656, -50807.41504519166, -47990.178822300295, -48045.834665994014, -46971.7886414276, 0.002, 0.914, 0.418, 192.0, 0.0, 0.0, 0.0, 0.0, 0.0, 0.0, 0.0, 0.0, 0.0, 1.7309209925973673E9, 0.0, 2024-11-06 16:23:12.597
71.0, -45439.35304157175, -46041.97842383128, -49599.72794052696, -32738.644807177167, -50794.27221945194, -47993.68804617978, -48032.088343154, -46958.26583603214, 0.002, 0.914, 0.418, 192.0, 0.0, 0.0, 0.0, 0.0, 0.0, 0.0, 0.0, 0.0, 0.0, 1.7309209926013377E9, 0.0, 2024-11-06 16:23:12.601
72.0, -45435.10621012524, -46037.59748191804, -49602.29839113932, -32740.455298478046, -50787.90197228217, -47989.82119438901, -48027.01449716264, -46953.41550748533, 0.002, 0.914, 0.418, 192.0, 0.0, 0.0, 0.0, 0.0, 0.0, 0.0, 0.0, 0.0, 0.0, 1.730920992605265E9, 0.0, 2024-11-06 16:23:12.605
73.0, -45444.04690790736, -46046.40406923343, -49584.08171940824, -32724.33969072577, -50795.05453050787, -47980.79108962907, -48035.37404958893, -46961.193914555784, 0.002, 0.914, 0.418, 192.0, 0.0, 0.0, 0.0, 0.0, 0.0, 0.0, 0.0, 0.0, 0.0, 1.7309209926093721E9, 0.0, 2024-11-06 16:23:12.609
74.0, -45446.05856490834, -46048.63924367896, -49574.49282103692, -32712.605024886732, -50799.01078927646, -47980.5228686956, -48038.279776368116, -46963.831420401504, 0.002, 0.914, 0.418, 192.0, 0.0, 0.0, 0.0, 0.0, 0.0, 0.0, 0.0, 0.0, 0.0, 1.7309209926153624E9, 0.0, 2024-11-06 16:23:12.615
75.0, -45431.88755892367, -46034.64705164994, -49584.68521650854, -32717.09772552225, -50786.47146063703, -47983.8756303639, -48024.376991316916, -46950.37567023941, 0.002, 0.914, 0.418, 192.0, 0.0, 0.0, 0.0, 0.0, 0.0, 0.0, 0.0, 0.0, 0.0, 1.7309209926184647E9, 0.0, 2024-11-06 16:23:12.618
76.0, -45423.84093091976, -46026.62277539048, -49590.63078053365, -32720.919873824107, -50776.703748310065, -47980.2769995066, -48014.989258645684, -46941.99376606867, 0.002, 0.914, 0.418, 192.0, 0.0, 0.0, 0.0, 0.0, 0.0, 0.0, 0.0, 0.0, 0.0, 1.7309209926212933E9, 0.0, 2024-11-06 16:23:12.621
77.0, -45433.76510545792, -46036.368135972996, -49576.48212629344, -32708.89463530715, -50784.52685886942, -47972.47624069169, -48024.153473872364, -46950.80035338406, 0.002, 0.914, 0.418, 192.0, 0.0, 0.0, 0.0, 0.0, 0.0, 0.0, 0.0, 0.0, 0.0, 1.7309209926253724E9, 0.0, 2024-11-06 16:23:12.625
78.0, -45438.95071017155, -46041.55374068663, -49563.40635578708, -32694.813036300307, -50791.25473395047, -47970.77750811309, -48029.897872197376, -46956.25417903116, 0.002, 0.916, 0.418, 192.0, 0.0, 16.0, 28.0, 160.0, 13.0, 16.0, 0.0, 0.0, 0.0, 1.7309209926294315E9, 0.0, 2024-11-06 16:23:12.629
79.0, -45427.50661701043, -46030.31081322561, -49572.302350080296, -32697.94228052405, -50781.84464953478, -47975.69489189326, -48018.721999969726, -46945.2794725036, 0.002, 0.916, 0.418, 192.0, 0.0, 0.0, 0.0, 0.0, 0.0, 0.0, 0.0, 0.0, 0.0, 1.7309209926333191E9, 0.0, 2024-11-06 16:23:12.633
80.0, -45419.43763726207, -46022.44299917734, -49583.81349847478, -32706.324184694793, -50772.166344185636, -47976.45485120474, -48009.624839976415, -46936.85286484395, 0.002, 0.916, 0.418, 192.0, 0.0, 0.0, 0.0, 0.0, 0.0, 0.0, 0.0, 0.0, 0.0, 1.7309209926373198E9, 0.0, 2024-11-06 16:23:12.637
81.0, -45425.96434664301, -46028.90265332493, -49571.40828030209, -32695.90827177862, -50776.212009932045, -47967.20122900024, -48015.32453481252, -46942.731373635695, 0.002, 0.916, 0.418, 192.0, 0.0, 0.0, 0.0, 0.0, 0.0, 0.0, 0.0, 0.0, 0.0, 1.7309209926424873E9, 0.0, 2024-11-06 16:23:12.642
82.0, -45432.200483346045, -46035.07173479459, -49554.46565800496, -32678.965649481495, -50783.65514083566, -47962.06032777552, -48022.342982571485, -46949.61571092793, 0.002, 0.916, 0.418, 192.0, 0.0, 0.0, 0.0, 0.0, 0.0, 0.0, 0.0, 0.0, 0.0, 1.7309209926464717E9, 0.0, 2024-11-06 16:23:12.646
83.0, -45422.23160531898, -46025.19226374534, -49559.33833829622, -32678.540966336845, -50776.703748310065, -47965.7707173551, -48013.201119089266, -46940.18327476779, 0.002, 0.916, 0.418, 192.0, 0.0, 0.0, 0.0, 0.0, 0.0, 0.0, 0.0, 0.0, 0.0, 1.7309209926494384E9, 0.0, 2024-11-06 16:23:12.649
84.0, -45409.2675935349, -46012.34001068354, -49570.827134946245, -32685.984097240464, -50763.24799814797, -47965.88247607738, -47999.94653462726, -46927.19691123926, 0.002, 0.916, 0.418, 192.0, 0.0, 0.0, 0.0, 0.0, 0.0, 0.0, 0.0, 0.0, 0.0, 1.7309209926533346E9, 0.0, 2024-11-06 16:23:12.653
85.0, -45413.33561102577, -46016.40802817441, -49562.24406507541, -32678.764483781397, -50764.611454559745, -47957.70173760674, -48003.0310753621, -46930.5273211631, 0.002, 0.916, 0.418, 192.0, 0.0, 0.0, 0.0, 0.0, 0.0, 0.0, 0.0, 0.0, 0.0, 1.7309209926575284E9, 0.0, 2024-11-06 16:23:12.657
86.0, -45423.5727099863, -46026.75688585721, -49545.56966371175, -32662.961800451496, -50775.094422709284, -47953.767830582605, -48013.93872665629, -46941.122048034915, 0.002, 0.916, 0.418, 192.0, 0.0, 0.0, 0.0, 0.0, 0.0, 0.0, 0.0, 0.0, 0.0, 1.7309209926615353E9, 0.0, 2024-11-06 16:23:12.661
87.0, -45417.78360817237, -46020.833673576555, -49548.14011432411, -32660.838384728242, -50772.12164069672, -47958.43934517376, -48009.468377765224, -46936.227015999204, 0.002, 0.916, 0.418, 192.0, 0.0, 0.0, 0.0, 0.0, 0.0, 0.0, 0.0, 0.0, 0.0, 1.7309209926654785E9, 0.0, 2024-11-06 16:23:12.665
88.0, -45402.338552753754, -46005.50037688022, -49559.494800507404, -32667.342742364737, -50756.698937022564, -47958.32758645149, -47993.956267113244, -46920.849015813954, 0.002, 0.914, 0.422, 192.0, 0.0, 16.0, 28.0, 144.0, 13.0, 48.0, 0.0, 0.0, 0.0, 1.730920992669802E9, 0.0, 2024-11-06 16:23:12.669
89.0, -45404.46196847701, -46007.48968213674, -49555.80676267228, -32664.41466384109, -50755.871922477716, -47951.57735962598, -47994.49270898017, -46922.391286181366, 0.002, 0.914, 0.422, 192.0, 0.0, 0.0, 0.0, 0.0, 0.0, 0.0, 0.0, 0.0, 0.0, 1.7309209926745536E9, 0.0, 2024-11-06 16:23:12.674
90.0, -45415.25786104892, -46018.35262994202, -49538.01477408586, -32648.008483410897, -50766.064317949335, -47945.095353733945, -48005.10978759644, -46932.91895781982, 0.002, 0.914, 0.422, 192.0, 0.0, 0.0, 0.0, 0.0, 0.0, 0.0, 0.0, 0.0, 0.0, 1.7309209926784039E9, 0.0, 2024-11-06 16:23:12.678
91.0, -45411.592174958256, -46014.64224036244, -49534.95258509548, -32641.101794374204, -50764.99143421548, -47946.63762410136, -48002.60639221745, -46930.23674848518, 0.002, 0.914, 0.422, 192.0, 0.0, 0.0, 0.0, 0.0, 0.0, 0.0, 0.0, 0.0, 0.0, 1.7309209926813316E9, 0.0, 2024-11-06 16:23:12.681
92.0, -45397.30941025131, -46000.40417914441, -49548.318928279754, -32649.237829355938, -50751.33451835329, -47950.1691997253, -47988.03305483259, -46916.71394308972, 0.002, 0.914, 0.422, 192.0, 0.0, 0.0, 0.0, 0.0, 0.0, 0.0, 0.0, 0.0, 0.0, 1.730920992685433E9, 0.0, 2024-11-06 16:23:12.685
93.0, -45397.15294804012, -46000.04655123312, -49550.33058528073, -32650.914210190083, -50748.49584680746, -47946.88349329037, -47986.51313620963, -46916.177501222795, 0.002, 0.914, 0.422, 192.0, 0.0, 0.0, 0.0, 0.0, 0.0, 0.0, 0.0, 0.0, 0.0, 1.7309209926894572E9, 0.0, 2024-11-06 16:23:12.689
94.0, -45409.11113132371, -46012.04943800562, -49533.633832172614, -32636.184410594036, -50759.53760856839, -47940.64735658734, -47998.33720902648, -46927.979222295195, 0.002, 0.914, 0.422, 192.0, 0.0, 0.0, 0.0, 0.0, 0.0, 0.0, 0.0, 0.0, 0.0, 1.7309209926933515E9, 0.0, 2024-11-06 16:23:12.693
95.0, -45407.1665295561, -46010.37305717148, -49525.318983235244, -32625.07559359975, -50760.31991962432, -47940.200321698234, -47997.800767159555, -46927.26396647262, 0.002, 0.914, 0.422, 192.0, 0.0, 0.0, 0.0, 0.0, 0.0, 0.0, 0.0, 0.0, 0.0, 1.730920992697501E9, 0.0, 2024-11-06 16:23:12.697
96.0, -45390.76034912591, -45993.989228485734, -49535.64548917359, -32629.635349468634, -50745.18778862808, -47942.34608916594, -47981.95338034075, -46911.30482093154, 0.002, 0.914, 0.422, 192.0, 0.0, 0.0, 0.0, 0.0, 0.0, 0.0, 0.0, 0.0, 0.0, 1.7309209927025285E9, 0.0, 2024-11-06 16:23:12.702
97.0, -45387.876974091174, -45991.061149962086, -49541.7922188988, -32634.530381504344, -50739.778666469894, -47940.893225776344, -47977.661845405324, -46907.46032088522, 0.002, 0.914, 0.422, 192.0, 0.0, 0.0, 0.0, 0.0, 0.0, 0.0, 0.0, 0.0, 0.0, 1.7309209927054625E9, 0.0, 2024-11-06 16:23:12.705
98.0, -45397.532927695866, -46001.0076762447, -49525.3413349797, -32620.26996854186, -50747.7805909849, -47932.60072858343, -47986.58019144299, -46916.91510878982, 0.008, 0.91, 0.422, 192.0, 0.0, 64.0, 28.0, 112.0, 13.0, 48.0, 0.0, 0.0, 0.0, 1.7309209927094293E9, 0.0, 2024-11-06 16:23:12.709
99.0, -45400.43865447505, -46004.09221697953, -49514.836015085704, -32607.93180560253, -50753.32382360981, -47932.15369369432, -47990.69291242277, -46921.117236747414, 0.008, 0.91, 0.422, 192.0, 0.0, 0.0, 0.0, 0.0, 0.0, 0.0, 0.0, 0.0, 0.0, 1.7309209927134023E9, 0.0, 2024-11-06 16:23:12.713
100.0, -45385.48533743445, -45988.87067900547, -49523.21791925644, -32610.50225621489, -50740.27040484791, -47934.70179256223, -47976.477202949194, -46907.080341229484, 0.008, 0.91, 0.422, 192.0, 0.0, 0.0, 0.0, 0.0, 0.0, 0.0, 0.0, 0.0, 0.0, 1.7309209927176487E9, 0.0, 2024-11-06 16:23:12.717
101.0, -45375.06942451828, -45978.253600389195, -49528.694096647996, -32613.586796949723, -50727.59696574175, -47930.65612681581, -47965.25662723263, -46895.45743411272, 0.008, 0.91, 0.422, 192.0, 0.0, 0.0, 0.0, 0.0, 0.0, 0.0, 0.0, 0.0, 0.0, 1.7309209927214072E9, 0.0, 2024-11-06 16:23:12.721
102.0, -45383.674846133574, -45987.01548421568, -49515.05953253026, -32602.075648555237, -50734.36954431171, -47923.19064416774, -47973.23620000317, -46902.49823361615, 0.008, 0.91, 0.422, 192.0, 0.0, 0.0, 0.0, 0.0, 0.0, 0.0, 0.0, 0.0, 0.0, 1.7309209927255464E9, 0.0, 2024-11-06 16:23:12.725
103.0, -45390.73799738145, -45994.279801163655, -49502.16257597954, -32588.463436181955, -50742.95261418255, -47922.74360927864, -47980.90284835135, -46909.53903311957, 0.008, 0.91, 0.422, 192.0, 0.0, 0.0, 0.0, 0.0, 0.0, 0.0, 0.0, 0.0, 0.0, 1.7309209927306416E9, 0.0, 2024-11-06 16:23:12.730
104.0, -45377.70693036401, -45981.36049286849, -49508.30930570475, -32589.044581537793, -50732.40259079965, -47926.364591880396, -47968.94466506776, -46897.33498064697, 0.008, 0.91, 0.422, 192.0, 0.0, 0.0, 0.0, 0.0, 0.0, 0.0, 0.0, 0.0, 0.0, 1.7309209927335746E9, 0.0, 2024-11-06 16:23:12.733
105.0, -45365.927561036064, -45969.53642005163, -49517.96525930944, -32595.303069985282, -50719.48328250448, -47924.9117284908, -47956.47239166169, -46885.37679736338, 0.008, 0.91, 0.422, 192.0, 0.0, 0.0, 0.0, 0.0, 0.0, 0.0, 0.0, 0.0, 0.0, 1.7309209927374616E9, 0.0, 2024-11-06 16:23:12.737
106.0, -45373.2589332174, -45976.89014397743, -49508.46576791594, -32587.479959425924, -50724.46772151801, -47917.49094933164, -47962.999101042646, -46892.64111431135, 0.008, 0.91, 0.422, 192.0, 0.0, 0.0, 0.0, 0.0, 0.0, 0.0, 0.0, 0.0, 0.0, 1.7309209927417016E9, 0.0, 2024-11-06 16:23:12.741
107.0, -45380.56795365429, -45983.997998714214, -49491.12081421862, -32570.49263363989, -50733.16255011113, -47911.6571440288, -47971.33630172447, -46900.37481789289, 0.008, 0.91, 0.422, 192.0, 0.0, 0.0, 0.0, 0.0, 0.0, 0.0, 0.0, 0.0, 0.0, 1.7309209927455907E9, 0.0, 2024-11-06 16:23:12.745
108.0, -45370.80024132732, -45974.31969336506, -49493.95948576445, -32568.279810938813, -50725.9205849076, -47914.272298130076, -47962.39560394235, -46891.32236138849, 0.006, 0.908, 0.426, 192.0, 0.0, 48.0, 28.0, 96.0, 13.0, 80.0, 0.0, 0.0, 0.0, 1.730920992749624E9, 0.0, 2024-11-06 16:23:12.749
109.0, -45358.663244088086, -45962.272103103656, -49507.52699464882, -32577.421674421035, -50713.0683318458, -47917.15567316481, -47949.833923558464, -46879.408881593816, 0.006, 0.908, 0.426, 192.0, 0.0, 0.0, 0.0, 0.0, 0.0, 0.0, 0.0, 0.0, 0.0, 1.7309209927534573E9, 0.0, 2024-11-06 16:23:12.753
110.0, -45364.117069735184, -45967.7482804952, -49502.96723877994, -32573.934802286007, -50715.63878245816, -47912.28299287355, -47954.34897593844, -46884.37096886289, 0.006, 0.908, 0.426, 192.0, 0.0, 0.0, 0.0, 0.0, 0.0, 0.0, 0.0, 0.0, 0.0, 1.7309209927575204E9, 0.0, 2024-11-06 16:23:12.757
111.0, -45373.683616362054, -45977.493641077715, -49484.616456582124, -32556.813366033242, -50725.42884652959, -47906.53859454854, -47964.13904000986, -46894.09397770095, 0.006, 0.908, 0.426, 192.0, 0.0, 0.0, 0.0, 0.0, 0.0, 0.0, 0.0, 0.0, 0.0, 1.730920992760534E9, 0.0, 2024-11-06 16:23:12.760
112.0, -45366.57576162527, -45970.38578634093, -49483.431814125994, -32551.337188641694, -50721.15966333862, -47908.79612073852, -47958.21582772921, -46887.81313750901, 0.006, 0.908, 0.426, 192.0, 0.0, 0.0, 0.0, 0.0, 0.0, 0.0, 0.0, 0.0, 0.0, 1.7309209927655475E9, 0.0, 2024-11-06 16:23:12.765
113.0, -45353.79056379683, -45957.66764374586, -49497.87104104413, -32560.68021782401, -50708.195651554546, -47911.8583097289, -47945.07300198949, -46874.87147746939, 0.006, 0.908, 0.426, 192.0, 0.0, 0.0, 0.0, 0.0, 0.0, 0.0, 0.0, 0.0, 0.0, 1.7309209927695403E9, 0.0, 2024-11-06 16:23:12.769
114.0, -45353.16471495208, -45956.9970914122, -49493.95948576445, -32557.01453173334, -50704.66407593061, -47903.94579219172, -47942.72606882168, -46873.575076290974, 0.006, 0.908, 0.426, 192.0, 0.0, 0.0, 0.0, 0.0, 0.0, 0.0, 0.0, 0.0, 0.0, 1.7309209927734594E9, 0.0, 2024-11-06 16:23:12.773
115.0, -45362.79831681232, -45966.742451994716, -49475.11696518862, -32539.893095480576, -50713.94004987956, -47896.659123499296, -47952.49378114865, -46883.43219559577, 0.006, 0.908, 0.426, 192.0, 0.0, 0.0, 0.0, 0.0, 0.0, 0.0, 0.0, 0.0, 0.0, 1.7309209927776232E9, 0.0, 2024-11-06 16:23:12.777
116.0, -45361.99365401192, -45966.2507136167, -49472.814735509724, -32534.215752388925, -50716.309334791826, -47900.92830669026, -47953.07492650449, -46883.54395431805, 0.006, 0.908, 0.426, 192.0, 0.0, 0.0, 0.0, 0.0, 0.0, 0.0, 0.0, 0.0, 0.0, 1.7309209927816105E9, 0.0, 2024-11-06 16:23:12.781
117.0, -45348.224979427454, -45952.77261171015, -49486.583410094194, -32542.552953070757, -50703.568840452295, -47905.39865558132, -47939.73093506467, -46870.04350066704, 0.006, 0.908, 0.426, 192.0, 0.0, 0.0, 0.0, 0.0, 0.0, 0.0, 0.0, 0.0, 0.0, 1.730920992785616E9, 0.0, 2024-11-06 16:23:12.785
118.0, -45345.363956137175, -45949.79982969759, -49488.37154965062, -32543.62583680461, -50698.15971829411, -47900.79419622353, -47936.04289722954, -46866.15429713181, 0.004, 0.914, 0.426, 192.0, 0.0, 32.0, 28.0, 144.0, 13.0, 80.0, 0.0, 0.0, 0.0, 1.730920992788571E9, 0.0, 2024-11-06 16:23:12.788
119.0, -45355.28813067533, -45959.79105946911, -49469.93136047499, -32527.39847033006, -50706.76513990941, -47892.27818158605, -47945.788257812055, -46875.206753636216, 0.004, 0.914, 0.426, 192.0, 0.0, 0.0, 0.0, 0.0, 0.0, 0.0, 0.0, 0.0, 0.0, 1.7309209927934158E9, 0.0, 2024-11-06 16:23:12.793
120.0, -45356.18220045355, -45961.02040541416, -49461.59415979316, -32516.66963299151, -50710.05084634434, -47892.56875426397, -47948.0681357465, -46877.17370714828, 0.004, 0.914, 0.426, 192.0, 0.0, 0.0, 0.0, 0.0, 0.0, 0.0, 0.0, 0.0, 0.0, 1.7309209927975516E9, 0.0, 2024-11-06 16:23:12.797
121.0, -45343.08407820274, -45948.16815235235, -49475.00520646635, -32524.224522617405, -50698.91967760559, -47898.22374561116, -47936.46758037419, -46864.8131924645, 0.004, 0.914, 0.426, 192.0, 0.0, 0.0, 0.0, 0.0, 0.0, 0.0, 0.0, 0.0, 0.0, 1.7309209928015468E9, 0.0, 2024-11-06 16:23:12.801
122.0, -45336.24444439941, -45941.28381506012, -49479.58731407968, -32527.242008118872, -50689.48724144545, -47894.111024631384, -47928.7115250482, -46857.32535807197, 0.004, 0.914, 0.426, 192.0, 0.0, 0.0, 0.0, 0.0, 0.0, 0.0, 0.0, 0.0, 0.0, 1.7309209928055449E9, 0.0, 2024-11-06 16:23:12.805
123.0, -45345.69923230401, -45950.73860296472, -49463.672872027506, -32513.58509225668, -50696.79626188234, -47885.63971348283, -47937.58516759696, -46866.266055854096, 0.004, 0.914, 0.426, 192.0, 0.0, 0.0, 0.0, 0.0, 0.0, 0.0, 0.0, 0.0, 0.0, 1.73092099280958E9, 0.0, 2024-11-06 16:23:12.809
124.0, -45349.16375269458, -45954.51604777766, -49451.35706083263, -32499.838769416663, -50702.585363696264, -47884.36566404887, -47942.1672752103, -46870.06585241149, 0.004, 0.914, 0.426, 192.0, 0.0, 0.0, 0.0, 0.0, 0.0, 0.0, 0.0, 0.0, 0.0, 1.730920992813844E9, 0.0, 2024-11-06 16:23:12.813
125.0, -45334.948043221004, -45940.76972493765, -49459.24722662535, -32501.895129906552, -50690.69423564604, -47887.29374257252, -47929.1138564484, -46856.45364003821, 0.004, 0.914, 0.426, 192.0, 0.0, 0.0, 0.0, 0.0, 0.0, 0.0, 0.0, 0.0, 0.0, 1.7309209928166628E9, 0.0, 2024-11-06 16:23:12.816
126.0, -45322.76634249286, -45928.833893398514, -49465.01397669482, -32505.091429363663, -50676.590284894744, -47882.82339368146, -47916.14984466432, -46843.93666314324, 0.004, 0.914, 0.426, 192.0, 0.0, 0.0, 0.0, 0.0, 0.0, 0.0, 0.0, 0.0, 0.0, 1.730920992820665E9, 0.0, 2024-11-06 16:23:12.820
127.0, -45332.10937167518, -45938.42279176984, -49453.70399400044, -32495.815455414708, -50683.65343614262, -47875.76024243358, -47924.41999011279, -46852.81030569199, 0.004, 0.914, 0.426, 192.0, 0.0, 0.0, 0.0, 0.0, 0.0, 0.0, 0.0, 0.0, 0.0, 1.7309209928258028E9, 0.0, 2024-11-06 16:23:12.825
128.0, -45340.67008980156, -45947.07291687404, -49440.58352000517, -32482.315001763705, -50693.577610680775, -47874.821469166454, -47934.14299895084, -46862.22039010768, 0.002, 0.91, 0.428, 192.0, 0.0, 16.0, 28.0, 112.0, 13.0, 96.0, 0.0, 0.0, 0.0, 1.730920992829595E9, 0.0, 2024-11-06 16:23:12.829
129.0, -45330.52239781885, -45937.10403884698, -49447.62431950859, -32483.94667910894, -50685.955665821515, -47879.98472213563, -47925.49287384664, -46853.05617488101, 0.002, 0.91, 0.428, 192.0, 0.0, 0.0, 0.0, 0.0, 0.0, 0.0, 0.0, 0.0, 0.0, 1.730920992833694E9, 0.0, 2024-11-06 16:23:12.833
130.0, -45318.78773197982, -45925.39172475239, -49458.64372952506, -32491.3674582681, -50672.812840081795, -47879.76120469108, -47912.9088417183, -46840.58390147494, 0.002, 0.91, 0.428, 192.0, 0.0, 0.0, 0.0, 0.0, 0.0, 0.0, 0.0, 0.0, 0.0, 1.730920992837698E9, 0.0, 2024-11-06 16:23:12.837
131.0, -45325.91793846106, -45932.61133821146, -49450.798267221246, -32485.176025053985, -50677.10437501722, -47873.65917845478, -47918.76499876559, -46846.954148644705, 0.002, 0.91, 0.428, 192.0, 0.0, 0.0, 0.0, 0.0, 0.0, 0.0, 0.0, 0.0, 0.0, 1.7309209928416195E9, 0.0, 2024-11-06 16:23:12.841
132.0, -45334.948043221004, -45941.99907088269, -49434.28032806877, -32469.28393474626, -50686.96149432201, -47869.97114061966, -47928.75622853712, -46856.94537841623, 0.002, 0.91, 0.428, 192.0, 0.0, 0.0, 0.0, 0.0, 0.0, 0.0, 0.0, 0.0, 0.0, 1.730920992844602E9, 0.0, 2024-11-06 16:23:12.844
133.0, -45328.242519884414, -45935.78528592412, -49438.25893858182, -32468.32280973468, -50683.45227044252, -47874.66500695527, -47923.39180986784, -46851.53625625804, 0.002, 0.91, 0.428, 192.0, 0.0, 0.0, 0.0, 0.0, 0.0, 0.0, 0.0, 0.0, 0.0, 1.7309209928487055E9, 0.0, 2024-11-06 16:23:12.848
134.0, -45315.591432522706, -45923.245957284686, -49451.80409572174, -32477.308211005715, -50670.64472086963, -47876.81077442298, -47909.84665272792, -46838.66165145179, 0.002, 0.91, 0.428, 192.0, 0.0, 0.0, 0.0, 0.0, 0.0, 0.0, 0.0, 0.0, 0.0, 1.7309209928536773E9, 0.0, 2024-11-06 16:23:12.853
135.0, -45316.48550230092, -45924.25178578518, -49444.651537496036, -32471.09442604714, -50668.67776735756, -47868.048890596496, -47909.13139690535, -46838.304023540506, 0.002, 0.91, 0.428, 192.0, 0.0, 0.0, 0.0, 0.0, 0.0, 0.0, 0.0, 0.0, 0.0, 1.7309209928578E9, 0.0, 2024-11-06 16:23:12.857
136.0, -45328.242519884414, -45936.23232081322, -49428.24535706584, -32456.18581249545, -50680.6135988967, -47864.18203880573, -47921.313097633494, -46850.396317290826, 0.002, 0.91, 0.428, 192.0, 0.0, 0.0, 0.0, 0.0, 0.0, 0.0, 0.0, 0.0, 0.0, 1.7309209928617754E9, 0.0, 2024-11-06 16:23:12.861
137.0, -45324.93446170503, -45932.92426263384, -49428.44652276594, -32452.363664193592, -50680.725357618976, -47868.76414641907, -47919.659068543806, -46848.004680634105, 0.002, 0.91, 0.428, 192.0, 0.0, 0.0, 0.0, 0.0, 0.0, 0.0, 0.0, 0.0, 0.0, 1.7309209928655622E9, 0.0, 2024-11-06 16:23:12.865
138.0, -45308.751798719386, -45916.89806185938, -49440.13648511607, -32458.733911363353, -50664.78856382234, -47870.19465806421, -47903.67757125826, -46831.59850020391, 0.006, 0.908, 0.428, 192.0, 0.0, 48.0, 28.0, 96.0, 13.0, 96.0, 0.0, 0.0, 0.0, 1.7309209928689213E9, 0.0, 2024-11-06 16:23:12.868
139.0, -45306.226051595935, -45914.32761124702, -49436.7166682144, -32455.47055667288, -50659.245331197424, -47862.23743703812, -47899.654257256305, -46827.97751760215, 0.006, 0.908, 0.428, 192.0, 0.0, 0.0, 0.0, 0.0, 0.0, 0.0, 0.0, 0.0, 0.0, 1.7309209928725677E9, 0.0, 2024-11-06 16:23:12.872
140.0, -45316.843130212204, -45925.03409684111, -49418.499996483326, -32439.17613496496, -50668.85658131321, -47854.43667822322, -47909.801949239016, -46838.147561329315, 0.006, 0.908, 0.428, 192.0, 0.0, 0.0, 0.0, 0.0, 0.0, 0.0, 0.0, 0.0, 0.0, 1.7309209928766558E9, 0.0, 2024-11-06 16:23:12.876
141.0, -45316.32904008973, -45924.94468986329, -49414.07435108118, -32431.50948661679, -50670.91294180309, -47856.71655615766, -47910.87483297287, -46838.61694796288, 0.006, 0.908, 0.428, 192.0, 0.0, 0.0, 0.0, 0.0, 0.0, 0.0, 0.0, 0.0, 0.0, 1.7309209928816154E9, 0.0, 2024-11-06 16:23:12.881
142.0, -45303.05210388328, -45911.86891935694, -49427.999487876834, -32439.645521598522, -50658.775944563866, -47861.65629168228, -47897.82141421097, -46825.87645362335, 0.006, 0.908, 0.428, 192.0, 0.0, 0.0, 0.0, 0.0, 0.0, 0.0, 0.0, 0.0, 0.0, 1.7309209928857017E9, 0.0, 2024-11-06 16:23:12.885
143.0, -45300.772225948844, -45909.45493095576, -49432.60394723463, -32443.26650420028, -50653.76915380587, -47859.01878583655, -47893.86515544238, -46822.56839544397, 0.006, 0.908, 0.428, 192.0, 0.0, 0.0, 0.0, 0.0, 0.0, 0.0, 0.0, 0.0, 0.0, 1.7309209928896837E9, 0.0, 2024-11-06 16:23:12.889
144.0, -45310.94226967601, -45919.78143689412, -49415.59426970414, -32428.447297626415, -50662.955720777005, -47850.61452992136, -47903.52110904707, -46832.64903219331, 0.006, 0.908, 0.428, 192.0, 0.0, 0.0, 0.0, 0.0, 0.0, 0.0, 0.0, 0.0, 0.0, 1.7309209928926497E9, 0.0, 2024-11-06 16:23:12.892
145.0, -45312.35042957669, -45921.32370726153, -49405.33481899915, -32416.086782942628, -50666.42024116758, -47849.54164618751, -47906.33742884844, -46834.995965361115, 0.006, 0.908, 0.428, 192.0, 0.0, 0.0, 0.0, 0.0, 0.0, 0.0, 0.0, 0.0, 0.0, 1.730920992896622E9, 0.0, 2024-11-06 16:23:12.896
146.0, -45299.11819685915, -45908.24793675518, -49417.40476100502, -32422.36762313457, -50655.22201719547, -47854.66019566777, -47894.111024631384, -46822.59074718842, 0.006, 0.908, 0.428, 192.0, 0.0, 0.0, 0.0, 0.0, 0.0, 0.0, 0.0, 0.0, 0.0, 1.7309209929006343E9, 0.0, 2024-11-06 16:23:12.900
147.0, -45290.60218222168, -45899.620163395426, -49422.836234907656, -32425.698033058412, -50644.49317985692, -47851.12862004383, -47884.61153323788, -46813.02420056155, 0.006, 0.908, 0.428, 192.0, 0.0, 0.0, 0.0, 0.0, 0.0, 0.0, 0.0, 0.0, 0.0, 1.7309209929048076E9, 0.0, 2024-11-06 16:23:12.904
148.0, -45298.02296138084, -45906.83977685449, -49405.93831609945, -32411.057640440184, -50649.29880491481, -47841.65148039478, -47890.95942866319, -46819.21563377567, 0.006, 0.91, 0.428, 192.0, 0.0, 48.0, 28.0, 112.0, 13.0, 96.0, 0.0, 0.0, 0.0, 1.7309209929096208E9, 0.0, 2024-11-06 16:23:12.909
149.0, -45301.42042653805, -45910.28194550061, -49391.4096822035, -32395.634936766022, -50654.35029916171, -47837.851683837376, -47895.51918453207, -46823.61892743337, 0.006, 0.91, 0.428, 192.0, 0.0, 0.0, 0.0, 0.0, 0.0, 0.0, 0.0, 0.0, 0.0, 1.73092099291371E9, 0.0, 2024-11-06 16:23:12.913
150.0, -45289.57400197673, -45898.81550059504, -49400.08215905216, -32398.585367034124, -50644.67199381256, -47842.07616353943, -47884.43271928224, -46812.353648227894, 0.006, 0.91, 0.428, 192.0, 0.0, 0.0, 0.0, 0.0, 0.0, 0.0, 0.0, 0.0, 0.0, 1.7309209929176333E9, 0.0, 2024-11-06 16:23:12.917
151.0, -45280.54389721679, -45889.65128536836, -49410.743941157336, -32406.006146193286, -50634.03256345184, -47841.78559086152, -47874.32973078844, -46802.295363223006, 0.006, 0.91, 0.428, 192.0, 0.0, 0.0, 0.0, 0.0, 0.0, 0.0, 0.0, 0.0, 0.0, 1.7309209929206564E9, 0.0, 2024-11-06 16:23:12.920
152.0, -45287.02590310883, -45895.75331160466, -49397.958743328905, -32395.299660599194, -50637.988822220424, -47832.196692490186, -47879.80590817999, -46807.391560958815, 0.006, 0.91, 0.428, 192.0, 0.0, 0.0, 0.0, 0.0, 0.0, 0.0, 0.0, 0.0, 0.0, 1.7309209929246736E9, 0.0, 2024-11-06 16:23:12.924
153.0, -45293.977295634424, -45902.682352385804, -49381.32904545416, -32378.6923144689, -50645.8566362687, -47827.569881387935, -47887.137280361334, -46814.63352616233, 0.006, 0.91, 0.428, 192.0, 0.0, 0.0, 0.0, 0.0, 0.0, 0.0, 0.0, 0.0, 0.0, 1.730920992928798E9, 0.0, 2024-11-06 16:23:12.928
154.0, -45283.76254841835, -45892.57936389201, -49386.425243189966, -32378.424093535436, -50638.3017466428, -47831.72730585663, -47878.19658257921, -46805.80458710249, 0.006, 0.91, 0.428, 192.0, 0.0, 0.0, 0.0, 0.0, 0.0, 0.0, 0.0, 0.0, 0.0, 1.7309209929328191E9, 0.0, 2024-11-06 16:23:12.932
155.0, -45272.98900759089, -45882.05169225355, -49400.28332475225, -32388.16945411795, -50626.65648778158, -47834.431866935716, -47867.04306209601, -46794.807528830475, 0.006, 0.91, 0.428, 192.0, 0.0, 0.0, 0.0, 0.0, 0.0, 0.0, 0.0, 0.0, 0.0, 1.7309209929378755E9, 0.0, 2024-11-06 16:23:12.937
156.0, -45277.95109485997, -45886.8796690559, -49392.2590484928, -32381.620392992547, -50628.6010895492, -47827.23460522111, -47870.55228597549, -46798.6967323657, 0.006, 0.91, 0.428, 192.0, 0.0, 0.0, 0.0, 0.0, 0.0, 0.0, 0.0, 0.0, 0.0, 1.7309209929418888E9, 0.0, 2024-11-06 16:23:12.941
157.0, -45287.45058625348, -45896.401512193865, -49374.86939130657, -32365.080102095617, -50638.68172629854, -47822.5854423744, -47880.208239580184, -46808.03976154802, 0.006, 0.91, 0.428, 192.0, 0.0, 0.0, 0.0, 0.0, 0.0, 0.0, 0.0, 0.0, 0.0, 1.7309209929457052E9, 0.0, 2024-11-06 16:23:12.945
158.0, -45279.29219952729, -45888.62310512341, -49375.11526049558, -32360.609753204557, -50633.674935540555, -47825.04413426449, -47873.05568135449, -46801.11072076687, 0.004, 0.914, 0.43, 192.0, 0.0, 32.0, 28.0, 144.0, 13.0, 112.0, 0.0, 0.0, 0.0, 1.7309209929487283E9, 0.0, 2024-11-06 16:23:12.948
159.0, -45263.42246096402, -45872.84277353797, -49386.268780978775, -32366.868241652042, -50617.671086510556, -47824.59709937538, -47856.91772185775, -46785.03981650351, 0.004, 0.914, 0.43, 192.0, 0.0, 0.0, 0.0, 0.0, 0.0, 0.0, 0.0, 0.0, 0.0, 1.7309209929528599E9, 0.0, 2024-11-06 16:23:12.952
160.0, -45264.405937720054, -45873.71449157173, -49381.798432087715, -32362.93433462791, -50615.79353997631, -47817.06456149394, -47856.38127999083, -46785.10687173687, 0.004, 0.914, 0.43, 192.0, 0.0, 0.0, 0.0, 0.0, 0.0, 0.0, 0.0, 0.0, 0.0, 1.7309209929566605E9, 0.0, 2024-11-06 16:23:12.956
161.0, -45276.162955303545, -45885.3821021774, -49364.63229234604, -32347.466927464837, -50626.9023569706, -47811.566032357936, -47868.65238769679, -46796.68507536472, 0.004, 0.914, 0.43, 192.0, 0.0, 0.0, 0.0, 0.0, 0.0, 0.0, 0.0, 0.0, 0.0, 1.730920992960641E9, 0.0, 2024-11-06 16:23:12.960
162.0, -45271.37968199011, -45880.84469805297, -49360.899551022005, -32339.9343895834, -50625.06951392526, -47813.0859509809, -47865.679605684236, -46793.17585148524, 0.004, 0.914, 0.43, 192.0, 0.0, 0.0, 0.0, 0.0, 0.0, 0.0, 0.0, 0.0, 0.0, 1.7309209929657028E9, 0.0, 2024-11-06 16:23:12.965
163.0, -45256.11344052714, -45865.75727054564, -49373.72945233935, -32347.26576176474, -50610.317362584756, -47815.678753337714, -47850.65923341027, -46778.06607223345, 0.004, 0.914, 0.43, 192.0, 0.0, 0.0, 0.0, 0.0, 0.0, 0.0, 0.0, 0.0, 0.0, 1.7309209929696896E9, 0.0, 2024-11-06 16:23:12.969
164.0, -45254.14648701507, -45863.90207575585, -49373.64004536153, -32346.908133853452, -50605.556441015775, -47809.889651523794, -47847.79821011999, -46775.31680766545, 0.004, 0.914, 0.43, 192.0, 0.0, 0.0, 0.0, 0.0, 0.0, 0.0, 0.0, 0.0, 0.0, 1.7309209929738145E9, 0.0, 2024-11-06 16:23:12.973
165.0, -45265.277655753816, -45875.10029972796, -49356.205684686385, -32331.64189239048, -50615.704132998486, -47802.71474155364, -47859.08584106992, -46786.269162448545, 0.004, 0.914, 0.43, 192.0, 0.0, 0.0, 0.0, 0.0, 0.0, 0.0, 0.0, 0.0, 0.0, 1.7309209929768343E9, 0.0, 2024-11-06 16:23:12.976
166.0, -45265.6352836651, -45875.770852061614, -49350.19306542791, -32322.880008564, -50618.78867373332, -47804.726398554616, -47860.784573648525, -46787.5432118825, 0.004, 0.914, 0.43, 192.0, 0.0, 0.0, 0.0, 0.0, 0.0, 0.0, 0.0, 0.0, 0.0, 1.7309209929808743E9, 0.0, 2024-11-06 16:23:12.980
167.0, -45252.738327114384, -45862.89624725536, -49363.87233303456, -32330.703119123355, -50606.897545683096, -47810.3366864129, -47848.17818977573, -46774.71331056515, 0.004, 0.914, 0.43, 192.0, 0.0, 0.0, 0.0, 0.0, 0.0, 0.0, 0.0, 0.0, 0.0, 1.7309209929848197E9, 0.0, 2024-11-06 16:23:12.984
168.0, -45247.5303706563, -45857.59888381945, -49368.00740575879, -32333.58649415809, -50599.20854559047, -47807.05097997797, -47841.65148039478, -46768.56658083994, 0.004, 0.914, 0.43, 192.0, 0.0, 0.0, 28.0, 144.0, 13.0, 80.0, 0.0, 0.0, 0.0, 1.7309209929887097E9, 0.0, 2024-11-06 16:23:12.988
169.0, -45255.889923082585, -45865.86902926792, -49349.7460305388, -32317.604996872546, -50605.66819973805, -47797.0821019509, -47849.02755606503, -46776.3896913993, 0.004, 0.914, 0.43, 192.0, 0.0, 0.0, 0.0, 0.0, 0.0, 0.0, 0.0, 0.0, 0.0, 1.73092099299284E9, 0.0, 2024-11-06 16:23:12.992
170.0, -45259.28738823979, -45869.51236361413, -49339.41952460045, -32305.6244618445, -50611.47965329643, -47796.83623276189, -47853.87788461184, -46780.904743779276, 0.004, 0.914, 0.43, 192.0, 0.0, 0.0, 0.0, 0.0, 0.0, 0.0, 0.0, 0.0, 0.0, 1.7309209929978688E9, 0.0, 2024-11-06 16:23:12.997
171.0, -45247.217446233924, -45857.59888381945, -49351.1988939284, -32311.502970636247, -50601.48842352491, -47802.22300317562, -47842.746715873094, -46769.55005759598, 0.004, 0.914, 0.43, 192.0, 0.0, 0.0, 0.0, 0.0, 0.0, 0.0, 0.0, 0.0, 0.0, 1.7309209930008297E9, 0.0, 2024-11-06 16:23:13.000
172.0, -45240.46721940842, -45850.669843038304, -49360.608978344084, -32318.36495618403, -50592.74889144288, -47801.0830642084, -47834.9906605471, -46761.97281622563, 0.004, 0.914, 0.43, 192.0, 0.0, 0.0, 0.0, 0.0, 0.0, 0.0, 0.0, 0.0, 0.0, 1.7309209930049355E9, 0.0, 2024-11-06 16:23:13.004
173.0, -45248.44679217897, -45858.35884313093, -49346.03564095922, -32306.116200222517, -50598.64975197909, -47792.32118038192, -47842.41143970626, -46769.214781429146, 0.004, 0.914, 0.43, 192.0, 0.0, 0.0, 0.0, 0.0, 0.0, 0.0, 0.0, 0.0, 0.0, 1.730920993008743E9, 0.0, 2024-11-06 16:23:13.008
174.0, -45251.486629424886, -45861.46573561022, -49329.54005355121, -32288.927708736388, -50603.52243227034, -47787.850831490854, -47846.524160686036, -46773.416909386746, 0.004, 0.914, 0.43, 192.0, 0.0, 0.0, 0.0, 0.0, 0.0, 0.0, 0.0, 0.0, 0.0, 1.7309209930129218E9, 0.0, 2024-11-06 16:23:13.012
175.0, -45240.310757197236, -45850.24515989365, -49337.38551585502, -32291.051124459642, -50594.8946589106, -47792.72351178211, -47836.577634403424, -46762.73277553711, 0.004, 0.914, 0.43, 192.0, 0.0, 0.0, 0.0, 0.0, 0.0, 0.0, 0.0, 0.0, 0.0, 1.730920993016935E9, 0.0, 2024-11-06 16:23:13.016
176.0, -45228.10670472464, -45837.90699695433, -49346.59443457061, -32296.90728150693, -50581.84124014869, -47790.667151292226, -47823.92654704172, -46749.72406026412, 0.004, 0.914, 0.43, 192.0, 0.0, 0.0, 0.0, 0.0, 0.0, 0.0, 0.0, 0.0, 0.0, 1.7309209930208504E9, 0.0, 2024-11-06 16:23:13.020
177.0, -45236.13098098409, -45845.864217980416, -49337.36316411057, -32289.53120583668, -50587.07154835124, -47784.028683189, -47830.47560816713, -46756.697804534175, 0.004, 0.914, 0.43, 192.0, 0.0, 0.0, 0.0, 0.0, 0.0, 0.0, 0.0, 0.0, 0.0, 1.730920993025823E9, 0.0, 2024-11-06 16:23:13.025
178.0, -45244.557588643744, -45854.40258436234, -49320.93463193591, -32273.437949828858, -50596.23576357791, -47780.094776164864, -47838.902215826776, -46765.794964527486, -0.002, 0.914, 0.426, 192.0, 255.0, 240.0, 28.0, 144.0, 13.0, 80.0, 0.0, 0.0, 0.0, 1.7309209930297475E9, 0.0, 2024-11-06 16:23:13.029
179.0, -45234.923986783506, -45844.880741224384, -49324.17563488193, -32271.582755039068, -50589.46318500795, -47782.95579945514, -47830.20738723366, -46757.14483942328, -0.002, 0.914, 0.426, 192.0, 0.0, 0.0, 0.0, 0.0, 0.0, 0.0, 0.0, 0.0, 0.0, 1.7309209930327697E9, 0.0, 2024-11-06 16:23:13.032
180.0, -45222.09408546616, -45831.9167294403, -49336.916129221456, -32279.763493509712, -50575.76156565685, -47783.827517488906, -47816.662230093745, -46744.1361241503, -0.002, 0.914, 0.426, 192.0, 0.0, 0.0, 0.0, 0.0, 0.0, 0.0, 0.0, 0.0, 0.0, 1.7309209930368032E9, 0.0, 2024-11-06 16:23:13.036
181.0, -45228.50903612483, -45838.04110742106, -49332.6916495194, -32276.746008008246, -50579.270789536335, -47779.22305813111, -47821.981945274114, -46749.34408060838, -0.002, 0.914, 0.426, 192.0, 0.0, 0.0, 0.0, 0.0, 0.0, 0.0, 0.0, 0.0, 0.0, 1.730920993040789E9, 0.0, 2024-11-06 16:23:13.040
182.0, -45236.890940295576, -45846.288901125066, -49313.42444579893, -32258.70815023281, -50588.27854255182, -47772.428127816696, -47830.922643056234, -46758.39653711278, -0.002, 0.914, 0.426, 192.0, 0.0, 0.0, 0.0, 0.0, 0.0, 0.0, 0.0, 0.0, 0.0, 1.7309209930449595E9, 0.0, 2024-11-06 16:23:13.044
183.0, -45229.80543730324, -45839.38221208838, -49312.41861729844, -32253.231972841262, -50584.29993203878, -47774.5291917955, -47825.0888377534, -46752.60743529886, -0.002, 0.914, 0.426, 192.0, 0.0, 0.0, 0.0, 0.0, 0.0, 0.0, 0.0, 0.0, 0.0, 1.730920993048772E9, 0.0, 2024-11-06 16:23:13.048
184.0, -45215.38856212957, -45825.03239214807, -49325.36027733806, -32261.09978688953, -50569.86070512065, -47776.183220885185, -47810.47079687963, -46737.85528395835, -0.002, 0.914, 0.426, 192.0, 0.0, 0.0, 0.0, 0.0, 0.0, 0.0, 0.0, 0.0, 0.0, 1.730920993053902E9, 0.0, 2024-11-06 16:23:13.053
185.0, -45217.28846040827, -45826.82053170449, -49323.95211743738, -32260.13866187795, -50568.720766153434, -47770.72939523809, -47810.783721302, -46738.07880140291, -0.002, 0.914, 0.426, 192.0, 0.0, 0.0, 0.0, 0.0, 0.0, 0.0, 0.0, 0.0, 0.0, 1.7309209930568223E9, 0.0, 2024-11-06 16:23:13.056
186.0, -45226.117399468116, -45835.76122948661, -49303.8355474276, -32241.85493491351, -50576.543876712785, -47762.05691838943, -47819.746770828584, -46747.04185092948, -0.002, 0.914, 0.426, 192.0, 0.0, 0.0, 0.0, 0.0, 0.0, 0.0, 0.0, 0.0, 0.0, 1.730920993061159E9, 0.0, 2024-11-06 16:23:13.061
187.0, -45222.02703023279, -45831.670860251295, -49297.979390380315, -32232.534257475647, -50574.97925460092, -47762.36984281181, -47816.684581838206, -46744.314938105934, -0.002, 0.914, 0.426, 192.0, 0.0, 0.0, 0.0, 0.0, 0.0, 0.0, 0.0, 0.0, 0.0, 1.730920993064932E9, 0.0, 2024-11-06 16:23:13.064
188.0, -45208.99596321535, -45818.77390370058, -49312.88800393201, -32241.8102314246, -50562.708146894955, -47767.510744036525, -47804.05584622095, -46731.261519344036, -0.002, 0.918, 0.426, 192.0, 255.0, 240.0, 28.0, 176.0, 13.0, 80.0, 0.0, 0.0, 0.0, 1.7309209930687444E9, 0.0, 2024-11-06 16:23:13.068
189.0, -45208.72774228189, -45818.59508974494, -49316.75485572277, -32244.984179137253, -50559.71301313794, -47764.940293424166, -47802.200651431165, -46729.38397280979, -0.002, 0.918, 0.426, 192.0, 0.0, 0.0, 0.0, 0.0, 0.0, 0.0, 0.0, 0.0, 0.0, 1.73092099307293E9, 0.0, 2024-11-06 16:23:13.072
190.0, -45216.43909411897, -45826.46290379321, -49296.34771303507, -32226.67810042836, -50566.262074263344, -47754.524380507995, -47809.666134079234, -46737.02826941351, -0.002, 0.918, 0.426, 192.0, 0.0, 0.0, 0.0, 0.0, 0.0, 0.0, 0.0, 0.0, 0.0, 1.730920993076782E9, 0.0, 2024-11-06 16:23:13.076
191.0, -45216.32733539669, -45826.59701425994, -49287.56347746414, -32215.457524711794, -50568.60900743115, -47754.14440085225, -47810.89548002428, -46737.85528395835, -0.002, 0.918, 0.426, 192.0, 0.0, 0.0, 0.0, 0.0, 0.0, 0.0, 0.0, 0.0, 0.0, 1.7309209930819583E9, 0.0, 2024-11-06 16:23:13.081
192.0, -45203.92211722399, -45814.30355480952, -49301.15333809297, -32223.213580037784, -50557.72370788142, -47759.88879917727, -47798.758482785044, -46726.2770803305, -0.002, 0.918, 0.426, 192.0, 0.0, 0.0, 0.0, 0.0, 0.0, 0.0, 0.0, 0.0, 0.0, 1.7309209930849514E9, 0.0, 2024-11-06 16:23:13.084
193.0, -45197.2165938874, -45807.44156926174, -49306.160128850956, -32226.543989961625, -50548.73830661039, -47756.8713136758, -47791.293000136975, -46718.49867326006, -0.002, 0.918, 0.426, 192.0, 0.0, 0.0, 0.0, 0.0, 0.0, 0.0, 0.0, 0.0, 0.0, 1.730920993088843E9, 0.0, 2024-11-06 16:23:13.088
194.0, -45207.94543122595, -45818.036296133556, -49291.76560542174, -32214.496399700216, -50557.96957707043, -47750.45636301713, -47801.68656130869, -46728.64636524276, -0.002, 0.918, 0.426, 192.0, 0.0, 0.0, 0.0, 0.0, 0.0, 0.0, 0.0, 0.0, 0.0, 1.730920993092795E9, 0.0, 2024-11-06 16:23:13.092
195.0, -45212.7734080283, -45822.95367991373, -49280.500326216265, -32201.957071060788, -50565.03272831831, -47749.897569405744, -47807.56507010044, -46734.055487400954, -0.002, 0.918, 0.426, 192.0, 0.0, 0.0, 0.0, 0.0, 0.0, 0.0, 0.0, 0.0, 0.0, 1.7309209930968678E9, 0.0, 2024-11-06 16:23:13.096
196.0, -45201.73164626738, -45812.04602861954, -49291.676198443914, -32207.343841474518, -50555.89086483608, -47755.999595642046, -47797.19386067318, -46723.39370529577, -0.002, 0.918, 0.426, 192.0, 0.0, 0.0, 0.0, 0.0, 0.0, 0.0, 0.0, 0.0, 0.0, 1.7309209931009052E9, 0.0, 2024-11-06 16:23:13.100
197.0, -45192.09804440714, -45802.43477850375, -49300.482785759305, -32213.26705375517, -50544.22325423041, -47754.30086306344, -47786.93440996819, -46713.60364122435, -0.002, 0.918, 0.426, 192.0, 0.0, 0.0, 0.0, 0.0, 0.0, 0.0, 0.0, 0.0, 0.0, 1.7309209931049187E9, 0.0, 2024-11-06 16:23:13.104
198.0, -45199.58587879966, -45809.83320591846, -49286.870573386026, -32201.733553616235, -50549.230044988406, -47745.13664783676, -47793.237601904584, -46720.219757583116, -0.002, 0.918, 0.426, 192.0, 0.0, 0.0, 28.0, 160.0, 13.0, 112.0, 0.0, 0.0, 0.0, 1.7309209931099544E9, 0.0, 2024-11-06 16:23:13.109
199.0, -45207.11841668111, -45817.43279903326, -49272.811326123636, -32187.339030187017, -50558.59542591518, -47742.78971466896, -47801.82067177542, -46728.109923375836, -0.002, 0.918, 0.426, 192.0, 0.0, 0.0, 0.0, 0.0, 0.0, 0.0, 0.0, 0.0, 0.0, 1.7309209931131337E9, 0.0, 2024-11-06 16:23:13.113
200.0, -45197.32835260968, -45807.754493684115, -49280.209753538344, -32189.261280210172, -50551.465219433936, -47748.19883682714, -47792.94702922667, -46718.76689419352, -0.002, 0.918, 0.426, 192.0, 0.0, 0.0, 0.0, 0.0, 0.0, 0.0, 0.0, 0.0, 0.0, 1.73092099311722E9, 0.0, 2024-11-06 16:23:13.117
201.0, -45186.063073404206, -45796.53391796755, -49292.100881588565, -32197.50907391418, -50539.10470475015, -47748.93644439417, -47781.19001164318, -46707.345152776856, -0.002, 0.918, 0.426, 192.0, 0.0, 0.0, 0.0, 0.0, 0.0, 0.0, 0.0, 0.0, 0.0, 1.730920993120832E9, 0.0, 2024-11-06 16:23:13.120
202.0, -45190.77929148427, -45801.42895000326, -49281.66261692794, -32188.79189357661, -50540.62462337311, -47739.6157669563, -47784.587476800385, -46711.614335967824, -0.002, 0.918, 0.426, 192.0, 0.0, 0.0, 0.0, 0.0, 0.0, 0.0, 0.0, 0.0, 0.0, 1.7309209931250246E9, 0.0, 2024-11-06 16:23:13.125
203.0, -45198.89297472155, -45809.40852277381, -49263.66946264142, -32171.42458813484, -50549.72178336642, -47733.469037231094, -47793.237601904584, -46720.3762197943, -0.002, 0.918, 0.426, 192.0, 0.0, 0.0, 0.0, 0.0, 0.0, 0.0, 0.0, 0.0, 0.0, 1.7309209931289523E9, 0.0, 2024-11-06 16:23:13.128
204.0, -45190.399311828536, -45800.98191511416, -49265.85993359804, -32168.65297182238, -50544.178550741504, -47736.2183017991, -47785.9285814677, -46712.664867957224, -0.002, 0.918, 0.426, 192.0, 0.0, 0.0, 0.0, 0.0, 0.0, 0.0, 0.0, 0.0, 0.0, 1.7309209931339192E9, 0.0, 2024-11-06 16:23:13.133
205.0, -45175.356587810114, -45786.11800505138, -49277.52754420371, -32175.626716092436, -50528.77819881179, -47736.061839587914, -47770.774098727, -46697.420978238704, -0.002, 0.918, 0.426, 192.0, 0.0, 0.0, 0.0, 0.0, 0.0, 0.0, 0.0, 0.0, 0.0, 1.730920993136912E9, 0.0, 2024-11-06 16:23:13.136
206.0, -45176.675340732974, -45787.34735099642, -49270.39733772246, -32169.50233811168, -50527.14652146656, -47727.09879006133, -47770.952912682646, -46697.59979219434, -0.002, 0.918, 0.426, 192.0, 0.0, 0.0, 0.0, 0.0, 0.0, 0.0, 0.0, 0.0, 0.0, 1.7309209931400933E9, 0.0, 2024-11-06 16:23:13.140
207.0, -45186.10777689311, -45797.02565634557, -49251.376003191, -32152.02327394763, -50536.71306809343, -47720.2144527691, -47780.78768024298, -46707.18869056567, -0.002, 0.918, 0.426, 192.0, 0.0, 0.0, 0.0, 0.0, 0.0, 0.0, 0.0, 0.0, 0.0, 1.730920993144003E9, 0.0, 2024-11-06 16:23:13.144
208.0, -45181.503317535324, -45792.55530745451, -49250.437229923875, -32146.92707621182, -50535.014335514825, -47723.142531292746, -47777.56902904141, -46703.858280641834, -0.004, 0.92, 0.426, 192.0, 255.0, 224.0, 28.0, 192.0, 13.0, 80.0, 0.0, 0.0, 0.0, 1.730920993148921E9, 0.0, 2024-11-06 16:23:13.148
209.0, -45167.62288422858, -45778.8536881034, -49264.56353241963, -32155.6889600383, -50521.469178374915, -47727.09879006133, -47763.666243990214, -46689.866088612805, -0.004, 0.92, 0.426, 192.0, 0.0, 0.0, 0.0, 0.0, 0.0, 0.0, 0.0, 0.0, 0.0, 1.7309209931529174E9, 0.0, 2024-11-06 16:23:13.152
210.0, -45168.3604917956, -45779.32307473697, -49264.56353241963, -32155.73366352721, -50518.921079507, -47722.89666210373, -47762.36984281181, -46689.19553627915, -0.004, 0.92, 0.426, 192.0, 0.0, 0.0, 0.0, 0.0, 0.0, 0.0, 0.0, 0.0, 0.0, 1.7309209931568942E9, 0.0, 2024-11-06 16:23:13.156
211.0, -45179.402253556524, -45790.409539986795, -49246.57037813311, -32139.75216624167, -50529.04641974526, -47715.74410387804, -47773.23279061708, -46699.56674570641, -0.004, 0.92, 0.426, 192.0, 0.0, 0.0, 0.0, 0.0, 0.0, 0.0, 0.0, 0.0, 0.0, 1.7309209931610515E9, 0.0, 2024-11-06 16:23:13.161
212.0, -45176.3624163106, -45787.52616495206, -49238.99313676276, -32129.112735880943, -50528.42057090051, -47714.738275377546, -47771.444651060665, -46697.28686777197, -0.004, 0.92, 0.426, 192.0, 0.0, 0.0, 0.0, 0.0, 0.0, 0.0, 0.0, 0.0, 0.0, 1.7309209931651416E9, 0.0, 2024-11-06 16:23:13.165
213.0, -45161.453802758915, -45772.68460663374, -49251.86774156902, -32135.997073173177, -50514.830710271686, -47718.35925797931, -47757.16188635372, -46682.601771664835, -0.004, 0.92, 0.426, 192.0, 0.0, 0.0, 0.0, 0.0, 0.0, 0.0, 0.0, 0.0, 0.0, 1.7309209931679137E9, 0.0, 2024-11-06 16:23:13.167
214.0, -45156.26819804528, -45767.47665017565, -49253.83469508108, -32136.98054992921, -50507.275820645795, -47713.33011547686, -47750.7692874395, -46676.49974542853, -0.004, 0.92, 0.426, 192.0, 0.0, 0.0, 0.0, 0.0, 0.0, 0.0, 0.0, 0.0, 0.0, 1.7309209931728375E9, 0.0, 2024-11-06 16:23:13.172
215.0, -45165.87944816106, -45777.065548546976, -49235.618023350005, -32121.133163110397, -50515.00952422733, -47704.79174909493, -47759.79939219945, -46685.261629255016, -0.004, 0.92, 0.426, 192.0, 0.0, 0.0, 0.0, 0.0, 0.0, 0.0, 0.0, 0.0, 0.0, 1.730920993176928E9, 0.0, 2024-11-06 16:23:13.176
216.0, -45166.10296560561, -45777.3561212249, -49224.73272380027, -32108.21385481523, -50517.892899262064, -47703.696513616625, -47761.364014311315, -46686.4686234556, -0.004, 0.92, 0.426, 192.0, 0.0, 0.0, 0.0, 0.0, 0.0, 0.0, 0.0, 0.0, 0.0, 1.7309209931809726E9, 0.0, 2024-11-06 16:23:13.180
217.0, -45151.35081426511, -45762.42515592875, -49234.992174505256, -32112.527741495105, -50504.79477701125, -47706.46812992908, -47747.327118793386, -46672.27526572648, -0.004, 0.92, 0.426, 192.0, 0.0, 0.0, 0.0, 0.0, 0.0, 0.0, 0.0, 0.0, 0.0, 1.7309209931851244E9, 0.0, 2024-11-06 16:23:13.185
218.0, -45145.06997407317, -45755.92079829226, -49242.189436219865, -32117.758049697644, -50496.41287284051, -47704.188251994645, -47739.280490789475, -46664.698024356134, -0.002, 0.916, 0.424, 192.0, 255.0, 240.0, 28.0, 160.0, 13.0, 64.0, 0.0, 0.0, 0.0, 1.7309209931889997E9, 0.0, 2024-11-06 16:23:13.188
219.0, -45155.24001780034, -45766.24730423061, -49228.24194767976, -32106.090439091975, -50504.32539037769, -47697.460376913594, -47747.93061589368, -46674.018701794, -0.002, 0.916, 0.424, 192.0, 0.0, 0.0, 0.0, 0.0, 0.0, 0.0, 0.0, 0.0, 0.0, 1.7309209931929057E9, 0.0, 2024-11-06 16:23:13.192
220.0, -45159.620959713575, -45770.76235661058, -49214.428569606374, -32091.40534298484, -50510.22625091389, -47695.649885612715, -47752.915054907215, -46679.181954763175, -0.002, 0.916, 0.424, 192.0, 0.0, 0.0, 0.0, 0.0, 0.0, 0.0, 0.0, 0.0, 0.0, 1.7309209931959693E9, 0.0, 2024-11-06 16:23:13.195
221.0, -45146.768706651776, -45757.86540005987, -49222.16227318791, -32093.39464824136, -50499.720931019896, -47699.20381298111, -47740.621595456796, -46667.067309268394, -0.002, 0.916, 0.424, 192.0, 0.0, 0.0, 0.0, 0.0, 0.0, 0.0, 0.0, 0.0, 0.0, 1.730920993199957E9, 0.0, 2024-11-06 16:23:13.199
222.0, -45135.45872395739, -45746.35425166538, -49230.94650875885, -32098.960232610734, -50486.98043668037, -47697.192155980134, -47728.32813600638, -46654.773849817975, -0.002, 0.916, 0.424, 192.0, 0.0, 0.0, 0.0, 0.0, 0.0, 0.0, 0.0, 0.0, 0.0, 1.7309209932051263E9, 0.0, 2024-11-06 16:23:13.205
223.0, -45142.74539264982, -45753.75267908009, -49219.055380708625, -32089.10311330594, -50491.607247782624, -47689.32434193186, -47734.60897619832, -46661.12174524328, -0.002, 0.916, 0.424, 192.0, 0.0, 0.0, 0.0, 0.0, 0.0, 0.0, 0.0, 0.0, 0.0, 1.730920993209042E9, 0.0, 2024-11-06 16:23:13.209
224.0, -45152.13312532105, -45763.11806000687, -49204.90672646841, -32074.999162554643, -50501.91140197652, -47687.31268493088, -47744.75666818103, -46670.91180931471, -0.002, 0.916, 0.424, 192.0, 0.0, 0.0, 0.0, 0.0, 0.0, 0.0, 0.0, 0.0, 0.0, 1.7309209932129726E9, 0.0, 2024-11-06 16:23:13.212
225.0, -45144.801753139705, -45755.69728084771, -49213.13216842797, -32077.793130611557, -50497.485756574366, -47694.24172571203, -47739.01226985601, -46664.966245289594, -0.002, 0.916, 0.424, 192.0, 0.0, 0.0, 0.0, 0.0, 0.0, 0.0, 0.0, 0.0, 0.0, 1.7309209932169733E9, 0.0, 2024-11-06 16:23:13.216
226.0, -45136.93393909144, -45747.74005982162, -49229.51599711371, -32090.086590061976, -50488.29918960323, -47699.784958336946, -47730.49625521854, -46656.22671320757, -0.002, 0.916, 0.424, 192.0, 0.0, 0.0, 0.0, 0.0, 0.0, 0.0, 0.0, 0.0, 0.0, 1.7309209932209733E9, 0.0, 2024-11-06 16:23:13.220
227.0, -45141.806619382696, -45752.322167434955, -49221.53642434316, -32083.62693591439, -50490.556715793224, -47692.29712394442, -47734.027830842475, -46660.026509764975, -0.002, 0.916, 0.424, 192.0, 0.0, 0.0, 0.0, 0.0, 0.0, 0.0, 0.0, 0.0, 0.0, 1.7309209932238872E9, 0.0, 2024-11-06 16:23:13.223
228.0, -45147.97570085236, -45758.51360064907, -49200.90576421092, -32064.04680777154, -50497.91043971902, -47684.4516616406, -47741.247444301545, -46667.24612322404, 0.002, 0.91, 0.41600000000000004, 192.0, 0.0, 16.0, 28.0, 112.0, 13.0, 0.0, 0.0, 0.0, 0.0, 1.7309209932279038E9, 0.0, 2024-11-06 16:23:13.227
229.0, -45139.280872259245, -45750.37756566734, -49200.27991536617, -32058.704740846726, -50491.33902684916, -47686.083338985845, -47732.8655401308, -46659.28890219795, 0.002, 0.91, 0.41600000000000004, 192.0, 0.0, 0.0, 0.0, 0.0, 0.0, 0.0, 0.0, 0.0, 0.0, 1.7309209932330513E9, 0.0, 2024-11-06 16:23:13.233
230.0, -45125.66865988597, -45737.05592597198, -49213.735665528264, -32067.10899676192, -50476.96685516439, -47688.07264424237, -47718.26985100149, -46644.73791655754, 0.002, 0.91, 0.41600000000000004, 192.0, 0.0, 0.0, 0.0, 0.0, 0.0, 0.0, 0.0, 0.0, 0.0, 1.7309209932371144E9, 0.0, 2024-11-06 16:23:13.237
231.0, -45125.04281104122, -45736.161856193765, -49208.17008115889, -32062.25866821512, -50474.50816327431, -47680.09307147182, -47717.53224343446, -46644.31323341289, 0.002, 0.91, 0.41600000000000004, 192.0, 0.0, 0.0, 0.0, 0.0, 0.0, 0.0, 0.0, 0.0, 0.0, 1.7309209932409422E9, 0.0, 2024-11-06 16:23:13.240
232.0, -45138.20798852539, -45749.39408891131, -49192.36739782899, -32048.221772697187, -50487.42747156948, -47676.092109214325, -47731.41267674121, -46657.88074229727, 0.002, 0.91, 0.41600000000000004, 192.0, 0.0, 0.0, 0.0, 0.0, 0.0, 0.0, 0.0, 0.0, 0.0, 1.7309209932450335E9, 0.0, 2024-11-06 16:23:13.245
233.0, -45135.995165824315, -45747.29302493251, -49191.093348395036, -32043.326740661472, -50488.34389309215, -47679.53427786044, -47730.63036568527, -46656.33847192985, 0.002, 0.91, 0.41600000000000004, 192.0, 0.0, 0.0, 0.0, 0.0, 0.0, 0.0, 0.0, 0.0, 0.0, 1.7309209932491407E9, 0.0, 2024-11-06 16:23:13.249
234.0, -45123.12056101806, -45734.552530592984, -49206.24783113573, -32052.982694266168, -50476.47511678638, -47684.33990291833, -47718.00163006802, -46643.307404912404, 0.002, 0.91, 0.41600000000000004, 192.0, 0.0, 0.0, 0.0, 0.0, 0.0, 0.0, 0.0, 0.0, 0.0, 1.7309209932522027E9, 0.0, 2024-11-06 16:23:13.252
235.0, -45119.700744116395, -45730.998603224594, -49204.705560768314, -32051.082795987466, -50470.57425625018, -47676.76266154798, -47713.39717071023, -46638.72529729907, 0.002, 0.91, 0.41600000000000004, 192.0, 0.0, 0.0, 0.0, 0.0, 0.0, 0.0, 0.0, 0.0, 0.0, 1.7309209932559674E9, 0.0, 2024-11-06 16:23:13.255
236.0, -45129.82608435465, -45741.1462952073, -49186.53359252615, -32034.92248474628, -50479.98434066586, -47668.51486784397, -47723.67897315967, -46648.984748004055, 0.002, 0.91, 0.41600000000000004, 192.0, 0.0, 0.0, 0.0, 0.0, 0.0, 0.0, 0.0, 0.0, 0.0, 1.7309209932610576E9, 0.0, 2024-11-06 16:23:13.261
237.0, -45128.61909015407, -45739.98400449562, -49178.79988894462, -32024.506571830105, -50481.32544533318, -47669.54304808892, -47724.036601070955, -46648.91769277069, 0.002, 0.91, 0.41600000000000004, 192.0, 0.0, 0.0, 0.0, 0.0, 0.0, 0.0, 0.0, 0.0, 0.0, 1.7309209932649963E9, 0.0, 2024-11-06 16:23:13.264
238.0, -45115.163339991974, -45726.57295782244, -49192.59091527354, -32032.352034133917, -50469.27785507177, -47674.90746675819, -47711.56432766489, -46636.17719843116, 0.002, 0.91, 0.41600000000000004, 192.0, 0.0, 0.0, 28.0, 112.0, 13.0, 0.0, 0.0, 0.0, 0.0, 1.730920993268921E9, 0.0, 2024-11-06 16:23:13.268
239.0, -45111.050619012196, -45722.326126375934, -49197.798871731626, -32036.24123766914, -50462.460573012904, -47671.957036490094, -47706.266964228984, -46631.483332095544, 0.002, 0.91, 0.41600000000000004, 192.0, 0.0, 0.0, 0.0, 0.0, 0.0, 0.0, 0.0, 0.0, 0.0, 1.7309209932720237E9, 0.0, 2024-11-06 16:23:13.272
240.0, -45120.907738316986, -45732.183245680724, -49180.47626977877, -32021.422031095273, -50470.08251787216, -47663.17280091916, -47715.60999341131, -46640.446381622125, 0.002, 0.91, 0.41600000000000004, 192.0, 0.0, 0.0, 0.0, 0.0, 0.0, 0.0, 0.0, 0.0, 0.0, 1.7309209932759984E9, 0.0, 2024-11-06 16:23:13.275
241.0, -45122.69587787341, -45734.060792214965, -49168.58514172854, -32007.96628093318, -50474.50816327431, -47661.0493851959, -47718.78394112396, -46643.19564619013, 0.002, 0.91, 0.41600000000000004, 192.0, 0.0, 0.0, 0.0, 0.0, 0.0, 0.0, 0.0, 0.0, 0.0, 1.730920993279938E9, 0.0, 2024-11-06 16:23:13.279
242.0, -45107.764912577266, -45719.107475174365, -49177.77170869967, -32011.073173412464, -50461.901779401516, -47663.23985615252, -47704.881156072755, -46629.248157650014, 0.002, 0.91, 0.41600000000000004, 192.0, 0.0, 0.0, 0.0, 0.0, 0.0, 0.0, 0.0, 0.0, 0.0, 1.7309209932840528E9, 0.0, 2024-11-06 16:23:13.284
243.0, -45102.82517705264, -45714.078332671925, -49188.83582220505, -32019.72329851667, -50455.531532231755, -47664.37979511974, -47699.11440600329, -46623.97314595856, 0.002, 0.91, 0.41600000000000004, 192.0, 0.0, 0.0, 0.0, 0.0, 0.0, 0.0, 0.0, 0.0, 0.0, 1.7309209932889993E9, 0.0, 2024-11-06 16:23:13.288
244.0, -45112.45877891288, -45723.935451976715, -49175.93886565434, -32009.039164667032, -50462.90760790201, -47656.98136770503, -47707.65277238521, -46632.71267804059, 0.002, 0.91, 0.41600000000000004, 192.0, 0.0, 0.0, 0.0, 0.0, 0.0, 0.0, 0.0, 0.0, 0.0, 1.7309209932931433E9, 0.0, 2024-11-06 16:23:13.293
245.0, -45116.12446500355, -45727.73524853412, -49159.46562999077, -31992.074190625455, -50467.981453893364, -47652.26514962497, -47712.011362554, -46636.82539902037, 0.002, 0.91, 0.41600000000000004, 192.0, 0.0, 0.0, 0.0, 0.0, 0.0, 0.0, 0.0, 0.0, 0.0, 1.7309209932971148E9, 0.0, 2024-11-06 16:23:13.297
246.0, -45103.763950319764, -45715.73236176161, -49166.260560305185, -31993.303536570496, -50458.28079679976, -47656.13200141573, -47700.67902811516, -46625.04602969242, 0.002, 0.91, 0.41600000000000004, 192.0, 0.0, 0.0, 0.0, 0.0, 0.0, 0.0, 0.0, 0.0, 0.0, 1.7309209933001192E9, 0.0, 2024-11-06 16:23:13.300
247.0, -45093.10216821458, -45705.22704186762, -49177.68230172185, -32001.014888407575, -50446.68024142746, -47656.66844328266, -47689.41374890968, -46614.04897142041, 0.002, 0.91, 0.41600000000000004, 192.0, 0.0, 0.0, 0.0, 0.0, 0.0, 0.0, 0.0, 0.0, 0.0, 1.7309209933041773E9, 0.0, 2024-11-06 16:23:13.304
248.0, -45098.42188339495, -45710.56910879244, -49165.88058064945, -31991.023658636055, -50449.16128506199, -47647.52657980044, -47693.86174605629, -46618.787541244936, -0.002, 0.912, 0.41400000000000003, 192.0, 255.0, 240.0, 28.0, 128.0, 12.0, 240.0, 0.0, 0.0, 0.0, 1.7309209933080485E9, 0.0, 2024-11-06 16:23:13.308
249.0, -45105.46268289837, -45717.52050131804, -49148.15564729639, -31973.81281540547, -50457.58789272165, -47642.452733809085, -47701.886022315746, -46626.677707037656, -0.002, 0.912, 0.41400000000000003, 192.0, 0.0, 0.0, 0.0, 0.0, 0.0, 0.0, 0.0, 0.0, 0.0, 1.7309209933123477E9, 0.0, 2024-11-06 16:23:13.312
250.0, -45094.86795602655, -45707.082236657414, -49150.86020837548, -31971.42117874875, -50449.36245076209, -47645.537274543916, -47692.922972789165, -46616.99940168851, -0.002, 0.912, 0.41400000000000003, 192.0, 0.0, 0.0, 0.0, 0.0, 0.0, 0.0, 0.0, 0.0, 0.0, 1.7309209933171382E9, 0.0, 2024-11-06 16:23:13.317
251.0, -45083.557973332165, -45695.92871617422, -49164.98651087123, -31981.23359456463, -50437.18075003395, -47647.75009724499, -47681.50123137251, -46605.73412248303, -0.002, 0.912, 0.41400000000000003, 192.0, 0.0, 0.0, 0.0, 0.0, 0.0, 0.0, 0.0, 0.0, 0.0, 1.730920993321093E9, 0.0, 2024-11-06 16:23:13.321
252.0, -45087.71539780086, -45700.175547620725, -49158.3033392791, -31975.71271368417, -50438.32068900117, -47640.17285587465, -47684.0046267515, -46608.5504422844, -0.002, 0.912, 0.41400000000000003, 192.0, 0.0, 0.0, 0.0, 0.0, 0.0, 0.0, 0.0, 0.0, 0.0, 1.730920993325226E9, 0.0, 2024-11-06 16:23:13.325
253.0, -45097.10313047208, -45709.7867977365, -49139.59492917001, -31958.390111731307, -50448.043697839224, -47633.28851858241, -47693.280600700455, -46618.11698891127, -0.002, 0.912, 0.41400000000000003, 192.0, 0.0, 0.0, 0.0, 0.0, 0.0, 0.0, 0.0, 0.0, 0.0, 1.7309209933282669E9, 0.0, 2024-11-06 16:23:13.328
254.0, -45092.00693273627, -45704.75765523406, -49140.28783324812, -31954.74677738509, -50445.42854373796, -47637.065963395355, -47689.637266354235, -46614.13837839823, -0.002, 0.912, 0.41400000000000003, 192.0, 0.0, 0.0, 0.0, 0.0, 0.0, 0.0, 0.0, 0.0, 0.0, 1.7309209933323295E9, 0.0, 2024-11-06 16:23:13.332
255.0, -45077.344188373594, -45689.93844866019, -49153.63182468794, -31962.882812366825, -50431.212834264385, -47639.5470070299, -47674.79570803591, -46599.11800612426, -0.002, 0.912, 0.41400000000000003, 192.0, 0.0, 0.0, 0.0, 0.0, 0.0, 0.0, 0.0, 0.0, 0.0, 1.7309209933363285E9, 0.0, 2024-11-06 16:23:13.336
0.0, -45076.3383598731, -45688.843213181884, -49149.67556591935, -31959.37358848734, -50427.45774119589, -47632.48385578202, -47672.448774868106, -46597.12870086774, -0.002, 0.912, 0.41400000000000003, 192.0, 0.0, 0.0, 0.0, 0.0, 0.0, 0.0, 0.0, 0.0, 0.0, 1.7309209933400605E9, 0.0, 2024-11-06 16:23:13.340
1.0, -45085.05554021067, -45697.60509700836, -49128.82138834255, -31940.46401267815, -50435.16909303297, -47622.98436438851, -47680.71892031657, -46606.047046905405, -0.002, 0.912, 0.41400000000000003, 192.0, 0.0, 0.0, 0.0, 0.0, 0.0, 0.0, 0.0, 0.0, 0.0, 1.7309209933440988E9, 0.0, 2024-11-06 16:23:13.344
2.0, -45083.89324949899, -45696.733378974604, -49126.206234241276, -31934.473745164127, -50436.9572325894, -47625.957146401066, -47680.897734272214, -46606.203509116596, 0.004, 0.908, 0.418, 192.0, 0.0, 32.0, 28.0, 96.0, 13.0, 16.0, 0.0, 0.0, 0.0, 1.7309209933491635E9, 0.0, 2024-11-06 16:23:13.349
3.0, -45072.11388017105, -45685.065768368935, -49142.232435015736, -31944.934361569212, -50426.16134001748, -47632.28269008192, -47669.07366145535, -46594.737064211025, 0.004, 0.908, 0.418, 192.0, 0.0, 0.0, 0.0, 0.0, 0.0, 0.0, 0.0, 0.0, 0.0, 1.730920993353088E9, 0.0, 2024-11-06 16:23:13.353
4.0, -45066.97297894633, -45679.79075667748, -49141.22660651524, -31943.257980735063, -50417.712380613375, -47625.75598070097, -47662.14462067421, -46588.433872274625, 0.004, 0.908, 0.418, 192.0, 0.0, 0.0, 0.0, 0.0, 0.0, 0.0, 0.0, 0.0, 0.0, 1.7309209933561225E9, 0.0, 2024-11-06 16:23:13.356
5.0, -45075.533697072715, -45688.46323352614, -49121.91469930586, -31926.18124797121, -50425.51313942828, -47616.792931174394, -47670.5041731005, -46596.614610745266, 0.004, 0.908, 0.418, 192.0, 0.0, 0.0, 0.0, 0.0, 0.0, 0.0, 0.0, 0.0, 0.0, 1.7309209933603117E9, 0.0, 2024-11-06 16:23:13.360
6.0, -45077.65711279597, -45691.011332394046, -49114.98565852471, -31916.994681000077, -50431.03402030874, -47618.066980608346, -47674.125155702255, -46599.29682007991, 0.004, 0.908, 0.418, 192.0, 0.0, 0.0, 0.0, 0.0, 0.0, 0.0, 0.0, 0.0, 0.0, 1.7309209933642788E9, 0.0, 2024-11-06 16:23:13.364
7.0, -45064.827211478616, -45678.360245032345, -49128.21789124225, -31924.46016364815, -50420.05931378118, -47623.3419922998, -47661.78699276293, -46586.91395365167, 0.004, 0.908, 0.418, 192.0, 0.0, 0.0, 0.0, 0.0, 0.0, 0.0, 0.0, 0.0, 0.0, 1.730920993368297E9, 0.0, 2024-11-06 16:23:13.368
8.0, -45058.903999197966, -45672.39232926277, -49133.895234333904, -31928.438774161194, -50411.31978169916, -47620.436265520606, -47654.61208279277, -46580.23078205953, 0.004, 0.908, 0.418, 192.0, 0.0, 0.0, 0.0, 0.0, 0.0, 0.0, 0.0, 0.0, 0.0, 1.7309209933720407E9, 0.0, 2024-11-06 16:23:13.372
9.0, -45069.14109815849, -45682.87529741231, -49118.2937167041, -31915.31830016593, -50420.081665525635, -47612.03200960541, -47664.06687069737, -46589.66321821967, 0.004, 0.908, 0.418, 192.0, 0.0, 0.0, 0.0, 0.0, 0.0, 0.0, 0.0, 0.0, 0.0, 1.7309209933771732E9, 0.0, 2024-11-06 16:23:13.377
10.0, -45073.52204007174, -45687.457405025656, -49106.53669912061, -31902.30958489294, -50426.74248537332, -47611.361457271756, -47669.4536411111, -46594.13356711073, 0.004, 0.908, 0.418, 192.0, 0.0, 0.0, 0.0, 0.0, 0.0, 0.0, 0.0, 0.0, 0.0, 1.7309209933811204E9, 0.0, 2024-11-06 16:23:13.381
11.0, -45060.26745560973, -45674.24752405257, -49115.87972830293, -31905.729401794604, -50415.14193000102, -47615.45182650707, -47656.73549851603, -46581.68364544912, 0.004, 0.908, 0.418, 192.0, 0.0, 0.0, 0.0, 0.0, 0.0, 0.0, 0.0, 0.0, 0.0, 1.7309209933841453E9, 0.0, 2024-11-06 16:23:13.384
12.0, -45051.77379271672, -45665.68680592618, -49124.99924004069, -31912.099648964366, -50404.90483104048, -47613.41781776164, -47646.923082700145, -46572.02769184443, 0.002, 0.908, 0.422, 192.0, 0.0, 16.0, 28.0, 96.0, 13.0, 48.0, 0.0, 0.0, 0.0, 1.730920993388167E9, 0.0, 2024-11-06 16:23:13.388
13.0, -45059.6863102539, -45673.42050950772, -49111.85641430097, -31901.12494243681, -50410.42571192094, -47605.17002405763, -47653.82977173683, -46579.02378785894, 0.002, 0.908, 0.422, 192.0, 0.0, 0.0, 0.0, 0.0, 0.0, 0.0, 0.0, 0.0, 0.0, 1.73092099339226E9, 0.0, 2024-11-06 16:23:13.392
14.0, -45066.01185393475, -45679.90251539976, -49096.590172838, -31885.568128295916, -50418.0476567802, -47602.107835067254, -47661.16114391818, -46586.332808295825, 0.002, 0.908, 0.422, 192.0, 0.0, 0.0, 0.0, 0.0, 0.0, 0.0, 0.0, 0.0, 0.0, 1.7309209933962064E9, 0.0, 2024-11-06 16:23:13.396
15.0, -45055.70769974085, -45669.62071295032, -49103.58626885251, -31887.02099168551, -50410.26924970976, -47607.226384547525, -47652.1980943916, -46577.21329655806, 0.002, 0.908, 0.422, 192.0, 0.0, 0.0, 0.0, 0.0, 0.0, 0.0, 0.0, 0.0, 0.0, 1.7309209934002247E9, 0.0, 2024-11-06 16:23:13.400
16.0, -45042.96720540133, -45656.969625588616, -49114.33745793551, -31894.017087700024, -50396.746444314296, -47607.025218847426, -47639.323489585346, -46564.07047081834, 0.002, 0.908, 0.422, 192.0, 0.0, 0.0, 0.0, 0.0, 0.0, 0.0, 0.0, 0.0, 0.0, 1.7309209934051256E9, 0.0, 2024-11-06 16:23:13.405
17.0, -45046.61053974755, -45660.456497723644, -49103.11688221894, -31884.607003284338, -50398.31106642617, -47598.10687280975, -47642.07275415334, -46567.110308064264, 0.002, 0.908, 0.422, 192.0, 0.0, 0.0, 0.0, 0.0, 0.0, 0.0, 0.0, 0.0, 0.0, 1.730920993409367E9, 0.0, 2024-11-06 16:23:13.409
18.0, -45057.1829148749, -45671.14063157328, -49087.560068078055, -31869.743093221558, -50409.35282818709, -47595.55877394185, -47653.33803335882, -46577.92855238063, 0.002, 0.908, 0.422, 192.0, 0.0, 0.0, 0.0, 0.0, 0.0, 0.0, 0.0, 0.0, 0.0, 1.7309209934122343E9, 0.0, 2024-11-06 16:23:13.412
19.0, -45048.06340313714, -45662.065823324425, -49089.504669845664, -31866.770311209002, -50403.317857184156, -47598.5315559544, -47645.80549547738, -46569.5913516988, 0.002, 0.908, 0.422, 192.0, 0.0, 0.0, 0.0, 0.0, 0.0, 0.0, 0.0, 0.0, 0.0, 1.7309209934162438E9, 0.0, 2024-11-06 16:23:13.416
20.0, -45033.87004540802, -45647.82776210639, -49101.70872231826, -31874.36990432381, -50388.856278521576, -47599.1350530547, -47631.38862030371, -46555.219180014035, 0.002, 0.908, 0.422, 192.0, 0.0, 0.0, 0.0, 0.0, 0.0, 0.0, 0.0, 0.0, 0.0, 1.7309209934200947E9, 0.0, 2024-11-06 16:23:13.420
21.0, -45037.222807076316, -45651.20287551914, -49096.65722807136, -31870.480700788583, -50389.21390643286, -47592.60834367375, -47633.62379474924, -46557.63316841521, 0.002, 0.908, 0.422, 192.0, 0.0, 0.0, 0.0, 0.0, 0.0, 0.0, 0.0, 0.0, 0.0, 1.7309209934241548E9, 0.0, 2024-11-06 16:23:13.424
22.0, -45048.51043802624, -45662.64696868026, -49079.71460577424, -31855.125052347787, -50401.03797924972, -47587.780366871404, -47645.604329777285, -46569.904276121175, 0.008, 0.91, 0.424, 192.0, 0.0, 64.0, 28.0, 112.0, 13.0, 64.0, 0.0, 0.0, 0.0, 1.7309209934281845E9, 0.0, 2024-11-06 16:23:13.428
23.0, -45045.33649031359, -45659.60713143434, -49079.82636449652, -31851.369959279295, -50401.1944414609, -47592.02719831791, -47643.48091405403, -46567.93732260911, 0.008, 0.91, 0.424, 192.0, 0.0, 0.0, 0.0, 0.0, 0.0, 0.0, 0.0, 0.0, 0.0, 1.730920993433207E9, 0.0, 2024-11-06 16:23:13.433
24.0, -45031.65722270694, -45645.88316033878, -49094.131480947915, -31860.377712294783, -50387.87280176554, -47595.64818091967, -47629.71223946956, -46553.967482324544, 0.008, 0.91, 0.424, 192.0, 0.0, 0.0, 0.0, 0.0, 0.0, 0.0, 0.0, 0.0, 0.0, 1.7309209934361525E9, 0.0, 2024-11-06 16:23:13.436
25.0, -45031.36665002903, -45645.39142196076, -49093.215059425245, -31859.55069774994, -50384.49768835279, -47590.61903841723, -47627.85704467977, -46552.46991544604, 0.008, 0.91, 0.424, 192.0, 0.0, 0.0, 0.0, 0.0, 0.0, 0.0, 0.0, 0.0, 0.0, 1.7309209934400945E9, 0.0, 2024-11-06 16:23:13.440
26.0, -45041.827266434106, -45655.69557615466, -49074.61840803843, -31843.010406853013, -50394.35480765758, -47583.55588716935, -47638.2953093404, -46562.97523534003, 0.008, 0.91, 0.424, 192.0, 0.0, 0.0, 0.0, 0.0, 0.0, 0.0, 0.0, 0.0, 0.0, 1.7309209934441803E9, 0.0, 2024-11-06 16:23:13.444
27.0, -45039.97207164432, -45654.019195320514, -49068.89636145787, -31834.136764304254, -50395.74061581381, -47584.852288347756, -47638.02708840693, -46562.17057253964, 0.008, 0.91, 0.424, 192.0, 0.0, 0.0, 0.0, 0.0, 0.0, 0.0, 0.0, 0.0, 0.0, 1.730920993448208E9, 0.0, 2024-11-06 16:23:13.448
28.0, -45024.66112669243, -45638.708250368625, -49081.122765674925, -31840.61877019629, -50381.77077552924, -47587.55684942685, -47622.9396608996, -46547.26195898795, 0.008, 0.91, 0.424, 192.0, 0.0, 0.0, 0.0, 0.0, 0.0, 0.0, 0.0, 0.0, 0.0, 1.7309209934522915E9, 0.0, 2024-11-06 16:23:13.452
29.0, -45020.28018477919, -45634.41671543321, -49083.335588376, -31841.9151713747, -50374.61821730354, -47583.04179704688, -47617.284669552406, -46541.517560662935, 0.008, 0.91, 0.424, 192.0, 0.0, 0.0, 0.0, 0.0, 0.0, 0.0, 0.0, 0.0, 0.0, 1.730920993456167E9, 0.0, 2024-11-06 16:23:13.456
30.0, -45031.836036662586, -45646.08432603888, -49067.44349806828, -31828.30295900142, -50384.721205797345, -47576.47038417702, -47628.59465224679, -46552.60402591277, 0.008, 0.91, 0.424, 192.0, 0.0, 0.0, 0.0, 0.0, 0.0, 0.0, 0.0, 0.0, 0.0, 1.7309209934612875E9, 0.0, 2024-11-06 16:23:13.461
31.0, -45034.31708029712, -45648.6771283957, -49058.882779941894, -31817.797639107426, -50389.97386574434, -47577.431509188595, -47632.595614504295, -46556.60498817027, 0.008, 0.91, 0.424, 192.0, 0.0, 0.0, 0.0, 0.0, 0.0, 0.0, 0.0, 0.0, 0.0, 1.730920993464151E9, 0.0, 2024-11-06 16:23:13.464
32.0, -45020.45899873484, -45634.93080555568, -49070.058652169544, -31823.050299054423, -50377.74746152729, -47582.14772726867, -47619.1398643422, -46543.17158975263, 0.008, 0.912, 0.422, 192.0, 0.0, 64.0, 28.0, 128.0, 13.0, 48.0, 0.0, 0.0, 0.0, 1.7309209934683392E9, 0.0, 2024-11-06 16:23:13.468
33.0, -45014.20051028735, -45628.582910130375, -49077.52413481762, -31828.504124701518, -50368.67265327843, -47579.86784933422, -47611.42851250512, -46535.706107104554, 0.008, 0.912, 0.422, 192.0, 0.0, 0.0, 0.0, 0.0, 0.0, 0.0, 0.0, 0.0, 0.0, 1.7309209934721584E9, 0.0, 2024-11-06 16:23:13.472
34.0, -45022.80593190264, -45637.14362825676, -49061.98967242118, -31815.316595472887, -50375.66874929294, -47570.79304108537, -47619.385733531206, -46543.70803161956, 0.008, 0.912, 0.422, 192.0, 0.0, 0.0, 0.0, 0.0, 0.0, 0.0, 0.0, 0.0, 0.0, 1.73092099347635E9, 0.0, 2024-11-06 16:23:13.476
35.0, -45026.11399008203, -45640.63050039179, -49047.17046584731, -31799.603319120804, -50380.87670575103, -47567.440279417075, -47623.721971955536, -46547.93251132161, 0.008, 0.912, 0.422, 192.0, 0.0, 0.0, 0.0, 0.0, 0.0, 0.0, 0.0, 0.0, 0.0, 1.7309209934802334E9, 0.0, 2024-11-06 16:23:13.480
36.0, -45015.876891121494, -45630.41575317571, -49058.03341365259, -31804.699516856614, -50372.87478123603, -47574.503430664954, -47614.13307358421, -46538.61183388375, 0.008, 0.912, 0.422, 192.0, 0.0, 0.0, 0.0, 0.0, 0.0, 0.0, 0.0, 0.0, 0.0, 1.7309209934843376E9, 0.0, 2024-11-06 16:23:13.484
37.0, -45004.499853193745, -45618.83754954786, -49066.59413177898, -31810.220397737077, -50359.50843805176, -47572.625884130706, -47601.86196587825, -46527.190092467084, 0.008, 0.912, 0.422, 192.0, 0.0, 0.0, 0.0, 0.0, 0.0, 0.0, 0.0, 0.0, 0.0, 1.7309209934894216E9, 0.0, 2024-11-06 16:23:13.489
38.0, -45010.780693385685, -45625.1183897398, -49053.27249208361, -31799.133932487242, -50363.15177239797, -47563.036985759376, -47607.18168105861, -46531.951014036065, 0.008, 0.912, 0.422, 192.0, 0.0, 0.0, 0.0, 0.0, 0.0, 0.0, 0.0, 0.0, 0.0, 1.7309209934924517E9, 0.0, 2024-11-06 16:23:13.492
39.0, -45018.6261556895, -45632.71798285461, -49037.358050031435, -31783.264193923977, -50372.31598762465, -47559.17013396861, -47615.407123018165, -46539.014165283945, 0.008, 0.912, 0.422, 192.0, 0.0, 0.0, 0.0, 0.0, 0.0, 0.0, 0.0, 0.0, 0.0, 1.7309209934953897E9, 0.0, 2024-11-06 16:23:13.495
40.0, -45007.33852473957, -45621.653869349226, -49041.38136403339, -31781.945441001113, -50364.17995264292, -47561.98645376998, -47605.57235545783, -46528.374734923214, 0.008, 0.912, 0.422, 192.0, 0.0, 0.0, 0.0, 0.0, 0.0, 0.0, 0.0, 0.0, 0.0, 1.7309209935004463E9, 0.0, 2024-11-06 16:23:13.500
41.0, -44997.213184501314, -45611.729694811074, -49055.75353571815, -31792.316650428376, -50352.981728670806, -47565.048642760354, -47595.067035563836, -46518.15998770714, 0.008, 0.912, 0.422, 192.0, 0.0, 0.0, 0.0, 0.0, 0.0, 0.0, 0.0, 0.0, 0.0, 1.73092099350431E9, 0.0, 2024-11-06 16:23:13.504
42.0, -45002.04116130366, -45616.58002335788, -49047.7292594587, -31785.834644536335, -50355.082792649606, -47557.62786360119, -47598.66566642114, -46522.33976392028, 0.002, 0.908, 0.424, 192.0, 0.0, 16.0, 28.0, 96.0, 13.0, 64.0, 0.0, 0.0, 0.0, 1.730920993508438E9, 0.0, 2024-11-06 16:23:13.508
43.0, -45010.24425151876, -45624.76076182852, -49028.819683649504, -31767.975600716545, -50363.86702822054, -47551.07880247579, -47607.47225373653, -46530.69931634657, 0.002, 0.908, 0.424, 192.0, 0.0, 0.0, 0.0, 0.0, 0.0, 0.0, 0.0, 0.0, 0.0, 1.7309209935133517E9, 0.0, 2024-11-06 16:23:13.513
44.0, -45003.82930086009, -45618.368162914296, -49030.96545111721, -31765.494557082005, -50360.29074910769, -47554.90095077765, -47602.33135251181, -46525.42430465511, 0.002, 0.908, 0.424, 192.0, 0.0, 0.0, 0.0, 0.0, 0.0, 0.0, 0.0, 0.0, 0.0, 1.730920993516426E9, 0.0, 2024-11-06 16:23:13.516
45.0, -44989.23361173077, -45604.241860418544, -49043.795352434565, -31773.38472287473, -50345.82917044511, -47555.3256339223, -47587.66860814913, -46511.052132970355, 0.002, 0.908, 0.424, 192.0, 0.0, 0.0, 0.0, 0.0, 0.0, 0.0, 0.0, 0.0, 0.0, 1.730920993520381E9, 0.0, 2024-11-06 16:23:13.520
46.0, -44990.32884720908, -45605.3147441524, -49039.19089307677, -31769.51787108396, -50344.28690007769, -47548.30718616333, -47587.62390466022, -46511.38740913718, 0.002, 0.908, 0.424, 192.0, 0.0, 0.0, 0.0, 0.0, 0.0, 0.0, 0.0, 0.0, 0.0, 1.730920993524264E9, 0.0, 2024-11-06 16:23:13.524
47.0, -45000.14126302496, -45615.12715996828, -49020.594241689956, -31752.53054529793, -50353.85344670456, -47542.339270393764, -47597.86100362075, -46521.937432520084, 0.002, 0.908, 0.424, 192.0, 0.0, 0.0, 0.0, 0.0, 0.0, 0.0, 0.0, 0.0, 0.0, 1.730920993528376E9, 0.0, 2024-11-06 16:23:13.528
48.0, -44996.20735600083, -45611.170901199686, -49017.68851491076, -31745.936780683613, -50352.95937692635, -47544.55209309484, -47595.335256497296, -46519.65755458565, 0.002, 0.908, 0.424, 192.0, 0.0, 0.0, 0.0, 0.0, 0.0, 0.0, 0.0, 0.0, 0.0, 1.7309209935322905E9, 0.0, 2024-11-06 16:23:13.532
49.0, -44981.90223954943, -45596.73167428156, -49031.479541239685, -31754.13987089871, -50339.74949595326, -47547.7707442964, -47581.231305746, -46505.240679411974, 0.002, 0.908, 0.424, 192.0, 0.0, 0.0, 0.0, 0.0, 0.0, 0.0, 0.0, 0.0, 0.0, 1.7309209935354044E9, 0.0, 2024-11-06 16:23:13.535
50.0, -44981.075225004584, -45595.658790547706, -49032.79829416255, -31755.123347654742, -50336.10616160705, -47543.523912849894, -47579.51022142294, -46503.31842938882, 0.002, 0.908, 0.424, 192.0, 0.0, 0.0, 0.0, 0.0, 0.0, 0.0, 0.0, 0.0, 0.0, 1.7309209935402403E9, 0.0, 2024-11-06 16:23:13.540
51.0, -44992.474614676794, -45607.035828475455, -49015.16276778731, -31739.812402702857, -50346.34326056758, -47536.55016857984, -47590.864907606236, -46514.24843242746, 0.002, 0.908, 0.424, 192.0, 0.0, 0.0, 0.0, 0.0, 0.0, 0.0, 0.0, 0.0, 0.0, 1.7309209935443401E9, 0.0, 2024-11-06 16:23:13.544
52.0, -44994.53097516668, -45609.15924419871, -49010.84888110744, -31732.793954943892, -50351.05947864765, -47540.34996513724, -47594.709407652546, -46517.48943537348, 0.002, 0.904, 0.42, 192.0, 0.0, 16.0, 28.0, 64.0, 13.0, 32.0, 0.0, 0.0, 0.0, 1.7309209935483236E9, 0.0, 2024-11-06 16:23:13.548
53.0, -44980.13645173746, -45595.07764519187, -49024.10346556944, -31740.12532712523, -50338.00605988575, -47545.557921595326, -47581.343064468274, -46503.89957474465, 0.002, 0.904, 0.42, 192.0, 0.0, 0.0, 0.0, 0.0, 0.0, 0.0, 0.0, 0.0, 0.0, 1.7309209935524395E9, 0.0, 2024-11-06 16:23:13.552
54.0, -44975.75550982422, -45590.65199978972, -49029.08790458297, -31743.835716704813, -50331.233481315794, -47542.78630528287, -47576.49273592147, -46498.64691479765, 0.002, 0.904, 0.42, 192.0, 0.0, 0.0, 0.0, 0.0, 0.0, 0.0, 0.0, 0.0, 0.0, 1.7309209935564017E9, 0.0, 2024-11-06 16:23:13.556
55.0, -44984.07035876159, -45599.03390396046, -49010.62536366288, -31727.876571163724, -50337.939004652384, -47532.8174272558, -47584.44995694757, -46506.76059803493, 0.002, 0.904, 0.42, 192.0, 0.0, 0.0, 0.0, 0.0, 0.0, 0.0, 0.0, 0.0, 0.0, 1.7309209935603669E9, 0.0, 2024-11-06 16:23:13.560
56.0, -44985.970257040295, -45600.93380223916, -48999.22597399068, -31714.867855890738, -50342.09642912107, -47532.19157841105, -47587.69095989358, -46509.88984225868, 0.002, 0.904, 0.42, 192.0, 0.0, 0.0, 0.0, 0.0, 0.0, 0.0, 0.0, 0.0, 0.0, 1.7309209935633311E9, 0.0, 2024-11-06 16:23:13.563
57.0, -44973.5650388676, -45588.32741836637, -49010.714770640705, -31720.455792004563, -50331.6805162049, -47537.89127324716, -47575.822183587814, -46497.7751967639, 0.002, 0.904, 0.42, 192.0, 0.0, 0.0, 0.0, 0.0, 0.0, 0.0, 0.0, 0.0, 0.0, 1.7309209935683208E9, 0.0, 2024-11-06 16:23:13.568
58.0, -44963.260884673706, -45577.86680196128, -49016.45916896572, -31723.674443206128, -50319.275298032204, -47533.77855226738, -47564.22162821551, -46486.219344880505, 0.002, 0.904, 0.42, 192.0, 0.0, 0.0, 0.0, 0.0, 0.0, 0.0, 0.0, 0.0, 0.0, 1.730920993572323E9, 0.0, 2024-11-06 16:23:13.572
59.0, -44973.14035572295, -45587.52275556597, -49003.383398459366, -31712.923254123125, -50326.65137370246, -47526.49188357495, -47573.13997425318, -46494.95887696253, 0.002, 0.904, 0.42, 192.0, 0.0, 0.0, 0.0, 0.0, 0.0, 0.0, 0.0, 0.0, 0.0, 1.7309209935762875E9, 0.0, 2024-11-06 16:23:13.576
60.0, -44978.16949822539, -45592.9095259797, -48988.38537792985, -31697.500550448964, -50333.267490061226, -47523.42969458458, -47579.08553827829, -46500.971496221006, 0.002, 0.904, 0.42, 192.0, 0.0, 0.0, 0.0, 0.0, 0.0, 0.0, 0.0, 0.0, 0.0, 1.730920993580469E9, 0.0, 2024-11-06 16:23:13.580
61.0, -44966.94892250883, -45581.62189502978, -48996.5661164005, -31700.003945827957, -50324.61736495702, -47528.861168487216, -47568.73668059548, -46490.86850772721, 0.002, 0.904, 0.42, 192.0, 0.0, 0.0, 0.0, 0.0, 0.0, 0.0, 0.0, 0.0, 0.0, 1.7309209935844412E9, 0.0, 2024-11-06 16:23:13.584
62.0, -44955.080146203065, -45569.41784255717, -49006.13266302737, -31706.016565086433, -50310.80398688364, -47527.18478765307, -47555.50444787794, -46477.74803373194, 0.002, 0.91, 0.41600000000000004, 192.0, 0.0, 16.0, 28.0, 112.0, 13.0, 0.0, 0.0, 0.0, 0.0, 1.7309209935884233E9, 0.0, 2024-11-06 16:23:13.588
63.0, -44961.80802128411, -45576.12336589377, -48995.22501173318, -31696.94175683758, -50314.246155529756, -47518.37820033768, -47560.62299735821, -46483.559487290324, 0.002, 0.91, 0.41600000000000004, 192.0, 0.0, 0.0, 0.0, 0.0, 0.0, 0.0, 0.0, 0.0, 0.0, 1.7309209935914323E9, 0.0, 2024-11-06 16:23:13.591
64.0, -44970.18992545485, -45584.50527006451, -48978.93059002526, -31681.004963040945, -50324.036219601185, -47513.70668574652, -47569.74250909597, -46493.12603391719, 0.002, 0.91, 0.41600000000000004, 192.0, 0.0, 0.0, 0.0, 0.0, 0.0, 0.0, 0.0, 0.0, 0.0, 1.73092099359547E9, 0.0, 2024-11-06 16:23:13.595
65.0, -44960.0645852166, -45574.13406063725, -48981.45633714871, -31678.41216068413, -50316.50368171975, -47515.5171770474, -47560.19831421356, -46483.2689146124, 0.002, 0.91, 0.41600000000000004, 192.0, 0.0, 0.0, 0.0, 0.0, 0.0, 0.0, 0.0, 0.0, 0.0, 1.7309209936003666E9, 0.0, 2024-11-06 16:23:13.600
66.0, -44948.32991937756, -45562.26528433148, -48995.046197777534, -31687.665782888627, -50303.8749461025, -47517.171206137085, -47547.79309604086, -46470.550772017334, 0.002, 0.91, 0.41600000000000004, 192.0, 0.0, 0.0, 0.0, 0.0, 0.0, 0.0, 0.0, 0.0, 0.0, 1.730920993604396E9, 0.0, 2024-11-06 16:23:13.604
67.0, -44952.42028861288, -45566.422708800164, -48988.51948839659, -31682.457826430542, -50305.10429204754, -47510.13040663367, -47550.78822979787, -46473.501202285435, 0.002, 0.91, 0.41600000000000004, 192.0, 0.0, 0.0, 0.0, 0.0, 0.0, 0.0, 0.0, 0.0, 0.0, 1.7309209936083763E9, 0.0, 2024-11-06 16:23:13.608
68.0, -44962.478573617766, -45576.59275252733, -48970.57103759897, -31665.805776811336, -50315.497853219254, -47504.72128447548, -47561.24884620296, -46484.00652217943, 0.002, 0.91, 0.41600000000000004, 192.0, 0.0, 0.0, 0.0, 0.0, 0.0, 0.0, 0.0, 0.0, 0.0, 1.7309209936124015E9, 0.0, 2024-11-06 16:23:13.612
69.0, -44955.638939814446, -45569.66371174619, -48970.034595732046, -31660.77663430889, -50311.49689096176, -47507.49290078794, -47555.70561357804, -46478.35153083224, 0.002, 0.91, 0.41600000000000004, 192.0, 0.0, 0.0, 0.0, 0.0, 0.0, 0.0, 0.0, 0.0, 0.0, 1.7309209936155488E9, 0.0, 2024-11-06 16:23:13.615
70.0, -44942.56316930809, -45556.76675519547, -48984.987912772645, -31670.544346635863, -50298.376416966494, -47511.13623513416, -47542.45102911604, -46464.85107718123, 0.002, 0.91, 0.41600000000000004, 192.0, 0.0, 0.0, 0.0, 0.0, 0.0, 0.0, 0.0, 0.0, 0.0, 1.730920993619552E9, 0.0, 2024-11-06 16:23:13.619
71.0, -44943.30077687511, -45557.57141799587, -48982.2609999491, -31668.152709979146, -50295.8730215875, -47504.47541528648, -47541.73577329347, -46464.78402194787, 0.002, 0.91, 0.41600000000000004, 192.0, 0.0, 0.0, 0.0, 0.0, 0.0, 0.0, 0.0, 0.0, 0.0, 1.7309209936237044E9, 0.0, 2024-11-06 16:23:13.623
72.0, -44952.88967524644, -45567.09326113382, -48962.74792703962, -31650.517183603908, -50304.99253332526, -47495.82529018227, -47551.3246716648, -46474.618789508204, 0.002, 0.916, 0.41600000000000004, 192.0, 0.0, 16.0, 28.0, 160.0, 13.0, 0.0, 0.0, 0.0, 0.0, 1.7309209936286292E9, 0.0, 2024-11-06 16:23:13.628
73.0, -44953.1578961799, -45567.473240789564, -48961.585636327945, -31645.97977947948, -50308.61351592702, -47500.608563495705, -47553.26927343241, -46476.13870813116, 0.002, 0.916, 0.41600000000000004, 192.0, 0.0, 0.0, 0.0, 0.0, 0.0, 0.0, 0.0, 0.0, 0.0, 1.7309209936325035E9, 0.0, 2024-11-06 16:23:13.632
74.0, -44939.858608229, -45553.995138883016, -48975.86840103488, -31654.58520109477, -50295.96242856532, -47504.74363621994, -47540.238206414964, -46462.77236494689, 0.002, 0.916, 0.41600000000000004, 192.0, 0.0, 0.0, 0.0, 0.0, 0.0, 0.0, 0.0, 0.0, 0.0, 1.7309209936366196E9, 0.0, 2024-11-06 16:23:13.636
75.0, -44936.75171574971, -45550.79883942591, -48977.231857446655, -31655.345160406254, -50289.927457562386, -47499.1109966172, -47535.49963659044, -46458.45847826701, 0.002, 0.916, 0.41600000000000004, 192.0, 0.0, 0.0, 0.0, 0.0, 0.0, 0.0, 0.0, 0.0, 0.0, 1.730920993639442E9, 0.0, 2024-11-06 16:23:13.639
76.0, -44945.71476527629, -45559.583074996845, -48957.89759849282, -31638.380186364677, -50297.83997509957, -47490.125595346166, -47544.26152041692, -46467.28741732686, 0.002, 0.916, 0.41600000000000004, 192.0, 0.0, 0.0, 0.0, 0.0, 0.0, 0.0, 0.0, 0.0, 0.0, 1.7309209936435647E9, 0.0, 2024-11-06 16:23:13.643
77.0, -44944.0607361866, -45557.79493544042, -48947.235816387634, -31625.30441585832, -50298.801100111144, -47488.44921451202, -47544.21681692801, -46466.795678948845, 0.002, 0.916, 0.41600000000000004, 192.0, 0.0, 0.0, 0.0, 0.0, 0.0, 0.0, 0.0, 0.0, 0.0, 1.730920993647566E9, 0.0, 2024-11-06 16:23:13.647
78.0, -44929.37564007946, -45543.15454282219, -48959.059889204495, -31631.22762813898, -50285.88179181598, -47492.74074944744, -47529.911700476616, -46453.04935610883, 0.002, 0.916, 0.41600000000000004, 192.0, 0.0, 0.0, 0.0, 0.0, 0.0, 0.0, 0.0, 0.0, 0.0, 1.7309209936516447E9, 0.0, 2024-11-06 16:23:13.651
79.0, -44923.36302082098, -45537.141923563715, -48964.5584183405, -31635.183886907565, -50277.58929462305, -47489.67856045706, -47522.64738352864, -46446.52264672788, 0.002, 0.916, 0.41600000000000004, 192.0, 0.0, 0.0, 0.0, 0.0, 0.0, 0.0, 0.0, 0.0, 0.0, 1.7309209936564767E9, 0.0, 2024-11-06 16:23:13.656
80.0, -44934.4047825819, -45547.98251962454, -48949.4039355998, -31622.55515129032, -50286.37353019399, -47482.16837432008, -47532.72802027798, -46456.513876499404, 0.002, 0.916, 0.41600000000000004, 192.0, 0.0, 0.0, 0.0, 0.0, 0.0, 0.0, 0.0, 0.0, 0.0, 1.7309209936603663E9, 0.0, 2024-11-06 16:23:13.660
81.0, -44936.77406749417, -45550.66472895917, -48936.261109860076, -31608.071220883277, -50291.00034129624, -47479.64262719663, -47536.3713546242, -46459.82193467879, 0.002, 0.916, 0.41600000000000004, 192.0, 0.0, 0.0, 0.0, 0.0, 0.0, 0.0, 0.0, 0.0, 0.0, 1.73092099366441E9, 0.0, 2024-11-06 16:23:13.664
82.0, -44924.97234642176, -45538.93006312014, -48946.967595454174, -31612.899197685627, -50281.27733245818, -47484.44825225452, -47525.575462052286, -46449.07074559579, 0.002, 0.916, 0.41600000000000004, 192.0, 0.0, 0.0, 28.0, 112.0, 13.0, 48.0, 0.0, 0.0, 0.0, 1.730920993667602E9, 0.0, 2024-11-06 16:23:13.667
83.0, -44917.238642840224, -45531.03989732741, -48956.958825225694, -31620.141162889144, -50271.44256489784, -47483.86710689868, -47516.478302058975, -46440.17475130258, 0.002, 0.916, 0.41600000000000004, 192.0, 0.0, 0.0, 0.0, 0.0, 0.0, 0.0, 0.0, 0.0, 0.0, 1.7309209936715877E9, 0.0, 2024-11-06 16:23:13.671
84.0, -44923.36302082098, -45537.18662705262, -48941.62552852935, -31607.199502849522, -50274.750623077234, -47473.18297304904, -47521.64155502815, -46444.60039670472, 0.002, 0.916, 0.41600000000000004, 192.0, 0.0, 0.0, 0.0, 0.0, 0.0, 0.0, 0.0, 0.0, 0.0, 1.7309209936756232E9, 0.0, 2024-11-06 16:23:13.675
85.0, -44928.10159064551, -45542.21576955507, -48924.593499254406, -31590.12277008567, -50281.18792548036, -47468.42205148006, -47527.72122951999, -46450.70242294102, 0.002, 0.916, 0.41600000000000004, 192.0, 0.0, 0.0, 0.0, 0.0, 0.0, 0.0, 0.0, 0.0, 0.0, 1.7309209936795805E9, 0.0, 2024-11-06 16:23:13.679
86.0, -44920.323183575056, -45534.750286906994, -48934.31650809247, -31594.21313932099, -50276.02467251119, -47475.9545893615, -47521.19452013904, -46444.15336181562, 0.002, 0.916, 0.41600000000000004, 192.0, 0.0, 0.0, 0.0, 0.0, 0.0, 0.0, 0.0, 0.0, 0.0, 1.7309209936844506E9, 0.0, 2024-11-06 16:23:13.684
87.0, -44909.99667763671, -45524.37907747973, -48947.369926854364, -31603.39970629212, -50264.58057935007, -47477.63097019565, -47510.55508977832, -46433.580986688256, 0.002, 0.916, 0.41600000000000004, 192.0, 0.0, 0.0, 0.0, 0.0, 0.0, 0.0, 0.0, 0.0, 0.0, 1.7309209936885452E9, 0.0, 2024-11-06 16:23:13.688
88.0, -44915.27168932816, -45529.944661849106, -48937.33399359394, -31595.19661607702, -50267.195733451335, -47469.33847300273, -47514.44429331354, -46437.62665243467, 0.002, 0.916, 0.41600000000000004, 192.0, 0.0, 0.0, 0.0, 0.0, 0.0, 0.0, 0.0, 0.0, 0.0, 1.7309209936925404E9, 0.0, 2024-11-06 16:23:13.692
89.0, -44923.854759199, -45538.77360090895, -48920.10079861889, -31578.701028669006, -50276.918742289396, -47464.73401364494, -47523.675563773584, -46446.790867661344, 0.002, 0.916, 0.41600000000000004, 192.0, 0.0, 0.0, 0.0, 0.0, 0.0, 0.0, 0.0, 0.0, 0.0, 1.7309209936954195E9, 0.0, 2024-11-06 16:23:13.695
90.0, -44916.411628295384, -45531.48693221652, -48923.83353994293, -31577.516386212876, -50272.67191084289, -47469.204362536, -47518.19938638203, -46441.00176584742, 0.002, 0.916, 0.41600000000000004, 192.0, 0.0, 0.0, 0.0, 0.0, 0.0, 0.0, 0.0, 0.0, 0.0, 1.730920993699636E9, 0.0, 2024-11-06 16:23:13.699
91.0, -44903.0005816222, -45518.053533798884, -48936.93166219374, -31585.987697361434, -50258.94793974733, -47471.12661255916, -47504.47541528648, -46427.635422663145, 0.002, 0.916, 0.41600000000000004, 192.0, 0.0, 0.0, 0.0, 0.0, 0.0, 0.0, 0.0, 0.0, 0.0, 1.7309209937035365E9, 0.0, 2024-11-06 16:23:13.703
92.0, -44904.56520373407, -45519.48404544402, -48930.00262141259, -31579.99742984741, -50256.913931001895, -47462.9011705996, -47504.20719435301, -46427.27779475186, -0.004, 0.906, 0.424, 192.0, 255.0, 224.0, 28.0, 80.0, 13.0, 64.0, 0.0, 0.0, 0.0, 1.7309209937076104E9, 0.0, 2024-11-06 16:23:13.707
93.0, -44916.03164863964, -45530.995193838506, -48912.59061248191, -31564.217098261965, -50268.670948585386, -47457.64851065261, -47515.7630462364, -46438.699536168526, -0.004, 0.906, 0.424, 192.0, 0.0, 0.0, 0.0, 0.0, 0.0, 0.0, 0.0, 0.0, 0.0, 1.7309209937123444E9, 0.0, 2024-11-06 16:23:13.712
94.0, -44911.29307881511, -45526.234272269525, -48911.2942113035, -31558.919734826057, -50266.65929158441, -47460.21896126497, -47512.700857246025, -46434.76562914439, -0.004, 0.906, 0.424, 192.0, 0.0, 0.0, 0.0, 0.0, 0.0, 0.0, 0.0, 0.0, 0.0, 1.730920993716614E9, 0.0, 2024-11-06 16:23:13.716
95.0, -44893.188165806314, -45508.08465577181, -48921.33014456394, -31563.59124941722, -50248.532026831155, -47458.453173452996, -47494.461833770496, -46417.06304753578, -0.004, 0.906, 0.424, 192.0, 0.0, 0.0, 0.0, 0.0, 0.0, 0.0, 0.0, 0.0, 0.0, 1.7309209937205205E9, 0.0, 2024-11-06 16:23:13.720
96.0, -44895.17747106284, -45510.1410162617, -48922.425380042245, -31564.77589187335, -50247.88382624195, -47454.318100728764, -47494.9088686596, -46417.912413825085, -0.004, 0.906, 0.424, 192.0, 0.0, 0.0, 0.0, 0.0, 0.0, 0.0, 0.0, 0.0, 0.0, 1.7309209937233987E9, 0.0, 2024-11-06 16:23:13.723
97.0, -44905.705142701285, -45520.847501855795, -48903.73932167761, -31548.19089748751, -50257.271558913184, -47447.120839014155, -47505.34713332023, -46428.03775406334, -0.004, 0.906, 0.424, 192.0, 0.0, 0.0, 0.0, 0.0, 0.0, 0.0, 0.0, 0.0, 0.0, 1.7309209937275128E9, 0.0, 2024-11-06 16:23:13.727
98.0, -44903.17939557784, -45518.411161710166, -48897.41377799676, -31538.691406094007, -50258.03151822466, -47447.59022564772, -47504.07308388628, -46426.69664939602, -0.004, 0.906, 0.424, 192.0, 0.0, 0.0, 0.0, 0.0, 0.0, 0.0, 0.0, 0.0, 0.0, 1.7309209937315655E9, 0.0, 2024-11-06 16:23:13.731
99.0, -44887.98020934823, -45503.01080978046, -48909.23785081361, -31544.81578407476, -50243.81580875109, -47450.11597277117, -47488.56097323429, -46411.29629746632, -0.004, 0.906, 0.424, 192.0, 0.0, 0.0, 0.0, 0.0, 0.0, 0.0, 0.0, 0.0, 0.0, 1.7309209937357235E9, 0.0, 2024-11-06 16:23:13.735
100.0, -44884.4933372132, -45499.590992878795, -48912.79177818201, -31547.408586431575, -50237.199692392314, -47446.4502866805, -47484.42590051006, -46406.93770729753, -0.004, 0.906, 0.424, 192.0, 0.0, 0.0, 0.0, 0.0, 0.0, 0.0, 0.0, 0.0, 0.0, 1.7309209937396295E9, 0.0, 2024-11-06 16:23:13.739
101.0, -44895.46804374076, -45510.90097557318, -48896.58676345191, -31533.52815312483, -50246.65448029691, -47439.63300462163, -47495.53471750435, -46417.59948940271, -0.004, 0.906, 0.424, 192.0, 0.0, 0.0, 0.0, 0.0, 0.0, 0.0, 0.0, 0.0, 0.0, 1.7309209937445595E9, 0.0, 2024-11-06 16:23:13.744
102.0, -44897.97143911975, -45513.717295374554, -48887.6907691587, -31522.687557064004, -50251.393050121434, -47440.50472265539, -47499.66979022858, -46421.198120260015, -0.004, 0.912, 0.426, 192.0, 255.0, 224.0, 28.0, 128.0, 13.0, 80.0, 0.0, 0.0, 0.0, 1.7309209937485547E9, 0.0, 2024-11-06 16:23:13.748
103.0, -44883.08517731252, -45498.74162658949, -48898.4419582417, -31527.403775144077, -50239.12194241547, -47444.125705257145, -47485.297618543824, -46407.630611375644, -0.004, 0.912, 0.426, 192.0, 0.0, 0.0, 0.0, 0.0, 0.0, 0.0, 0.0, 0.0, 0.0, 1.7309209937516012E9, 0.0, 2024-11-06 16:23:13.751
104.0, -44876.424357464835, -45491.81258580835, -48905.706275189674, -31532.56702811325, -50229.77891323315, -47442.382269189635, -47477.206287051, -46400.07572174975, -0.004, 0.912, 0.426, 192.0, 0.0, 0.0, 0.0, 0.0, 0.0, 0.0, 0.0, 0.0, 0.0, 1.7309209937555895E9, 0.0, 2024-11-06 16:23:13.755
105.0, -44886.594401192, -45501.60264987977, -48891.177641293725, -31520.452382618474, -50237.26674762568, -47435.25206270839, -47486.92929588906, -46409.30699220979, -0.004, 0.912, 0.426, 192.0, 0.0, 0.0, 0.0, 0.0, 0.0, 0.0, 0.0, 0.0, 0.0, 1.7309209937596195E9, 0.0, 2024-11-06 16:23:13.759
106.0, -44891.60119194999, -45506.7435511045, -48878.39244346529, -31506.750763267373, -50245.112209929495, -47433.843902807705, -47493.120729103175, -46414.17967250105, -0.004, 0.912, 0.426, 192.0, 0.0, 0.0, 0.0, 0.0, 0.0, 0.0, 0.0, 0.0, 0.0, 1.7309209937634635E9, 0.0, 2024-11-06 16:23:13.763
107.0, -44878.950104588286, -45494.204222465065, -48886.975513336125, -31509.410620857554, -50234.964517946784, -47438.15778948758, -47481.22960105295, -46401.908564795085, -0.004, 0.912, 0.426, 192.0, 0.0, 0.0, 0.0, 0.0, 0.0, 0.0, 0.0, 0.0, 0.0, 1.7309209937676618E9, 0.0, 2024-11-06 16:23:13.767
108.0, -44871.12699402893, -45486.29170492789, -48899.000751853084, -31518.463077361954, -50225.48737829774, -47439.58830113272, -47472.579475948754, -46393.99604725791, -0.004, 0.912, 0.426, 192.0, 0.0, 0.0, 0.0, 0.0, 0.0, 0.0, 0.0, 0.0, 0.0, 1.7309209937726212E9, 0.0, 2024-11-06 16:23:13.772
109.0, -44878.950104588286, -45494.27127769843, -48887.64606566979, -31509.187103413, -50230.31535510008, -47432.301632440285, -47479.03913009634, -46401.41682641707, -0.004, 0.912, 0.426, 192.0, 0.0, 0.0, 0.0, 0.0, 0.0, 0.0, 0.0, 0.0, 0.0, 1.7309209937756789E9, 0.0, 2024-11-06 16:23:13.775
110.0, -44882.7946046346, -45498.31694344484, -48868.468268927136, -31490.18812062599, -50236.39502959193, -47425.99844050389, -47483.911810387595, -46406.311858452784, -0.004, 0.912, 0.426, 192.0, 0.0, 0.0, 0.0, 0.0, 0.0, 0.0, 0.0, 0.0, 0.0, 1.7309209937795053E9, 0.0, 2024-11-06 16:23:13.779
111.0, -44870.72466262873, -45486.3364084168, -48871.55280966197, -31487.95294618046, -50226.716724242775, -47427.42895214903, -47473.138269560135, -46395.15833796959, -0.004, 0.912, 0.426, 192.0, 0.0, 0.0, 0.0, 0.0, 0.0, 0.0, 0.0, 0.0, 0.0, 1.7309209937835076E9, 0.0, 2024-11-06 16:23:13.783
112.0, -44859.101755511976, -45474.62409432222, -48884.40506272377, -31496.647774773573, -50213.90917466988, -47428.5465393718, -47460.95656883199, -46382.7978232858, -0.008, 0.914, 0.428, 192.0, 255.0, 192.0, 28.0, 144.0, 13.0, 96.0, 0.0, 0.0, 0.0, 1.7309209937876828E9, 0.0, 2024-11-06 16:23:13.787
113.0, -44865.76257535965, -45481.24021068099, -48878.19127776519, -31492.020963671326, -50218.13365437194, -47423.45034163599, -47466.410394479084, -46388.22929718844, -0.008, 0.914, 0.428, 192.0, 0.0, 0.0, 0.0, 0.0, 0.0, 0.0, 0.0, 0.0, 0.0, 1.7309209937916975E9, 0.0, 2024-11-06 16:23:13.791
114.0, -44875.105604541975, -45490.69499858558, -48860.44399266768, -31475.301858818755, -50228.48251205475, -47417.974164244435, -47476.133403317144, -46397.862899048676, -0.008, 0.914, 0.428, 192.0, 0.0, 0.0, 0.0, 0.0, 0.0, 0.0, 0.0, 0.0, 0.0, 1.7309209937956104E9, 0.0, 2024-11-06 16:23:13.795
115.0, -44866.768403860144, -45482.536611859396, -48860.75691709005, -31470.831509927695, -50222.84987245201, -47419.583489845216, -47469.24906602491, -46390.66563733407, -0.008, 0.914, 0.428, 192.0, 0.0, 0.0, 0.0, 0.0, 0.0, 0.0, 0.0, 0.0, 0.0, 1.7309209938006964E9, 0.0, 2024-11-06 16:23:13.800
116.0, -44853.491467653694, -45469.460841353044, -48874.77146086353, -31479.839262943184, -50209.036494378626, -47422.53392011332, -47455.34628097371, -46377.20988717197, -0.008, 0.914, 0.428, 192.0, 0.0, 0.0, 0.0, 0.0, 0.0, 0.0, 0.0, 0.0, 0.0, 1.7309209938036273E9, 0.0, 2024-11-06 16:23:13.803
117.0, -44856.86658106644, -45472.59008557678, -48872.24571374008, -31478.162882109034, -50208.99179088972, -47417.61653633315, -47457.24617925241, -46379.73563429542, -0.008, 0.914, 0.428, 192.0, 0.0, 0.0, 0.0, 0.0, 0.0, 0.0, 0.0, 0.0, 0.0, 1.7309209938076975E9, 0.0, 2024-11-06 16:23:13.807
118.0, -44866.075499782026, -45481.79900429237, -48852.28560594149, -31459.923858633505, -50218.13365437194, -47409.81577751825, -47466.432746223545, -46387.96107625498, -0.008, 0.914, 0.428, 192.0, 0.0, 0.0, 0.0, 0.0, 0.0, 0.0, 0.0, 0.0, 0.0, 1.7309209938116257E9, 0.0, 2024-11-06 16:23:13.811
119.0, -44863.348586958484, -45479.183850191104, -48850.542169873974, -31454.47003298641, -50218.15600611639, -47413.995553731394, -47465.04693806731, -46385.7482535539, -0.008, 0.914, 0.428, 192.0, 0.0, 0.0, 0.0, 0.0, 0.0, 0.0, 0.0, 0.0, 0.0, 1.7309209938155713E9, 0.0, 2024-11-06 16:23:13.815
120.0, -44849.60226411847, -45465.348120373266, -48865.182562492206, -31463.52248949081, -50204.83436642103, -47418.734123555914, -47451.591187905215, -46372.136041180616, -0.008, 0.914, 0.428, 192.0, 0.0, 0.0, 0.0, 0.0, 0.0, 0.0, 0.0, 0.0, 0.0, 1.7309209938194723E9, 0.0, 2024-11-06 16:23:13.819
121.0, -44845.69070883879, -45461.45891683804, -48863.17090549123, -31461.399073767552, -50197.570049473055, -47411.78273103032, -47446.76321110287, -46367.50923007837, -0.008, 0.914, 0.428, 192.0, 0.0, 0.0, 0.0, 0.0, 0.0, 0.0, 0.0, 0.0, 0.0, 1.730920993823573E9, 0.0, 2024-11-06 16:23:13.823
122.0, -44856.710118855255, -45472.59008557678, -48845.06599248243, -31445.641093926562, -50207.80714843359, -47404.42900710452, -47457.38028971914, -46377.947494739, -0.01, 0.908, 0.426, 192.0, 255.0, 176.0, 28.0, 96.0, 13.0, 80.0, 0.0, 0.0, 0.0, 1.7309209938287053E9, 0.0, 2024-11-06 16:23:13.828
123.0, -44856.55365664407, -45472.6347890657, -48838.15930344573, -31435.918085088502, -50209.19295658982, -47404.92074548254, -47458.0508420528, -46378.61804707266, -0.01, 0.908, 0.426, 192.0, 0.0, 0.0, 0.0, 0.0, 0.0, 0.0, 0.0, 0.0, 0.0, 1.730920993831484E9, 0.0, 2024-11-06 16:23:13.831
124.0, -44840.549807614065, -45456.56388480233, -48849.089306484384, -31440.924875846493, -50194.55256397159, -47406.95475422797, -47442.225806978444, -46363.262398631865, -0.01, 0.908, 0.426, 192.0, 0.0, 0.0, 0.0, 0.0, 0.0, 0.0, 0.0, 0.0, 0.0, 1.7309209938357146E9, 0.0, 2024-11-06 16:23:13.835
125.0, -44834.87246452242, -45450.5289137994, -48852.28560594149, -31442.914181103013, -50186.68474992332, -47401.85855649216, -47434.93913828601, -46356.37806133963, -0.01, 0.908, 0.426, 192.0, 0.0, 0.0, 0.0, 0.0, 0.0, 0.0, 0.0, 0.0, 0.0, 1.7309209938395746E9, 0.0, 2024-11-06 16:23:13.839
126.0, -44846.07068849453, -45461.36950986022, -48836.70644005614, -31429.726651874385, -50196.07248259455, -47394.79540524428, -47445.3997546911, -46366.5928085557, -0.01, 0.908, 0.426, 192.0, 0.0, 0.0, 0.0, 0.0, 0.0, 0.0, 0.0, 0.0, 0.0, 1.7309209938435838E9, 0.0, 2024-11-06 16:23:13.843
127.0, -44848.57408387352, -45463.91760872813, -48825.23999515057, -31416.628529623573, -50200.431072763335, -47393.54370755479, -47449.1995512485, -46369.87851499063, -0.01, 0.908, 0.426, 192.0, 0.0, 0.0, 0.0, 0.0, 0.0, 0.0, 0.0, 0.0, 0.0, 1.7309209938475444E9, 0.0, 2024-11-06 16:23:13.847
128.0, -44834.80540928905, -45450.35009984375, -48835.65590806674, -31421.188285492455, -50188.65170343539, -47398.30462912376, -47436.25789120888, -46357.00391018438, -0.01, 0.908, 0.426, 192.0, 0.0, 0.0, 0.0, 0.0, 0.0, 0.0, 0.0, 0.0, 0.0, 1.730920993851598E9, 0.0, 2024-11-06 16:23:13.851
129.0, -44828.6810313083, -45443.95750092954, -48845.311861671435, -31428.474954184887, -50180.381557986926, -47398.0364081903, -47428.41242890507, -46349.27020660284, -0.01, 0.908, 0.426, 192.0, 0.0, 0.0, 0.0, 0.0, 0.0, 0.0, 0.0, 0.0, 0.0, 1.7309209938565598E9, 0.0, 2024-11-06 16:23:13.856
130.0, -44838.24757793517, -45453.389937089676, -48831.677297553695, -31417.20967497941, -50187.46706097926, -47390.66033252005, -47436.86138830917, -46357.78622124031, -0.01, 0.908, 0.426, 192.0, 0.0, 0.0, 0.0, 0.0, 0.0, 0.0, 0.0, 0.0, 0.0, 1.7309209938596232E9, 0.0, 2024-11-06 16:23:13.859
131.0, -44843.79081056009, -45458.93316971459, -48817.215718891115, -31402.25635793881, -50194.619619204954, -47388.112233652144, -47443.52220815685, -46364.31293062126, -0.01, 0.908, 0.426, 192.0, 0.0, 0.0, 0.0, 0.0, 0.0, 0.0, 0.0, 0.0, 0.0, 1.7309209938625977E9, 0.0, 2024-11-06 16:23:13.862
132.0, -44832.54788309907, -45447.89140795367, -48825.463512595124, -31404.89386378454, -50186.14830805639, -47392.56023079875, -47433.419219663054, -46354.32170084974, -0.01, 0.908, 0.426, 192.0, 0.0, 0.0, 0.0, 0.0, 0.0, 0.0, 0.0, 0.0, 0.0, 1.730920993867651E9, 0.0, 2024-11-06 16:23:13.867
133.0, -44820.276775393104, -45435.486189780975, -48834.560672588435, -31410.437096409452, -50172.80431661657, -47389.67685576402, -47420.075228223235, -46341.31298557675, -0.006, 0.908, 0.428, 192.0, 255.0, 208.0, 28.0, 96.0, 13.0, 96.0, 0.0, 0.0, 0.0, 1.73092099387161E9, 0.0, 2024-11-06 16:23:13.871
134.0, -44825.23886266218, -45439.86713169422, -48821.70841952663, -31399.417686392986, -50174.570104428545, -47378.99272191438, -47423.18212070252, -46345.3362995787, -0.006, 0.908, 0.428, 192.0, 0.0, 0.0, 0.0, 0.0, 0.0, 0.0, 0.0, 0.0, 0.0, 1.7309209938756328E9, 0.0, 2024-11-06 16:23:13.875
135.0, -44833.978394744205, -45448.561960287334, -48805.41399781871, -31383.615003063085, -50184.628389433434, -47374.99175965688, -47432.61455686266, -46354.20994212746, -0.006, 0.908, 0.428, 192.0, 0.0, 0.0, 0.0, 0.0, 0.0, 0.0, 0.0, 0.0, 0.0, 1.730920993879652E9, 0.0, 2024-11-06 16:23:13.879
136.0, -44826.73642954069, -45441.31999508381, -48811.38191358828, -31384.464369352387, -50180.158040542374, -47380.914971937535, -47426.62428934864, -46348.2420263579, -0.006, 0.908, 0.428, 192.0, 0.0, 0.0, 0.0, 0.0, 0.0, 0.0, 0.0, 0.0, 0.0, 1.7309209938836117E9, 0.0, 2024-11-06 16:23:13.883
137.0, -44816.54403406907, -45431.10524786774, -48827.05048645145, -31395.729648557863, -50169.63036890392, -47385.050044661766, -47416.1413211991, -46337.736706463904, -0.006, 0.908, 0.428, 192.0, 0.0, 0.0, 0.0, 0.0, 0.0, 0.0, 0.0, 0.0, 0.0, 1.730920993886737E9, 0.0, 2024-11-06 16:23:13.886
138.0, -44821.30495563805, -45435.75441071444, -48820.88140498178, -31390.92402349997, -50170.90441833787, -47378.99272191438, -47419.53878635631, -46341.514151276846, -0.006, 0.908, 0.428, 192.0, 0.0, 0.0, 0.0, 0.0, 0.0, 0.0, 0.0, 0.0, 0.0, 1.7309209938919063E9, 0.0, 2024-11-06 16:23:13.891
139.0, -44830.64798482037, -45445.23155036349, -48802.12829138378, -31373.467311080374, -50180.247447520196, -47373.36008231164, -47428.77005681635, -46350.47720080343, -0.006, 0.908, 0.428, 192.0, 0.0, 0.0, 0.0, 0.0, 0.0, 0.0, 0.0, 0.0, 0.0, 1.7309209938957558E9, 0.0, 2024-11-06 16:23:13.895
140.0, -44823.8307027615, -45438.45897179353, -48801.59184951685, -31368.527575555752, -50176.35824398497, -47376.109346879646, -47423.38328640262, -46344.95631992297, -0.006, 0.908, 0.428, 192.0, 0.0, 0.0, 0.0, 0.0, 0.0, 0.0, 0.0, 0.0, 0.0, 1.7309209938996956E9, 0.0, 2024-11-06 16:23:13.899
141.0, -44810.01732468812, -45424.578538486785, -48815.62874503479, -31377.423569848965, -50163.036604289606, -47379.104480636655, -47409.659315307064, -46331.299404060774, -0.006, 0.908, 0.428, 192.0, 0.0, 0.0, 0.0, 0.0, 0.0, 0.0, 0.0, 0.0, 0.0, 1.7309209939037025E9, 0.0, 2024-11-06 16:23:13.903
142.0, -44813.54890031206, -45427.81954143281, -48815.673448523696, -31378.02706694926, -50163.818915345546, -47375.50584977935, -47411.60391707467, -46333.467523272935, -0.006, 0.908, 0.428, 192.0, 0.0, 0.0, 0.0, 0.0, 0.0, 0.0, 0.0, 0.0, 0.0, 1.7309209939076376E9, 0.0, 2024-11-06 16:23:13.907
143.0, -44824.38949637288, -45438.906006682635, -48797.41207330371, -31361.710293496883, -50174.05601430607, -47368.397995042564, -47422.48921662441, -46344.442229800494, -0.004, 0.912, 0.428, 192.0, 255.0, 224.0, 28.0, 128.0, 13.0, 96.0, 0.0, 0.0, 0.0, 1.7309209939116676E9, 0.0, 2024-11-06 16:23:13.911
