%OpenBCI Raw EXG Data
%Number of channels = 8
%Sample Rate = 250 Hz
%Board = OpenBCI_GUI$BoardCytonSerial
Sample Index, EXG Channel 0, EXG Channel 1, EXG Channel 2, EXG Channel 3, EXG Channel 4, EXG Channel 5, EXG Channel 6, EXG Channel 7, Accel Channel 0, Accel Channel 1, Accel Channel 2, Not Used, Digital Channel 0 (D11), Digital Channel 1 (D12), Digital Channel 2 (D13), Digital Channel 3 (D17), Not Used, Digital Channel 4 (D18), Analog Channel 0, Analog Channel 1, Analog Channel 2, Timestamp, Marker Channel, Timestamp (Formatted)
120.0, -187023.4384564684, -182570.3898156154, -187500.02235174447, -187500.02235174447, -187500.02235174447, -187500.02235174447, -187500.02235174447, -186587.84766052337, 0.0, 0.0, 0.0, 192.0, 0.0, 0.0, 0.0, 0.0, 0.0, 0.0, 0.0, 0.0, 0.0, 1.7309143133428445E9, 0.0, 2024-11-06 14:31:53.342
121.0, -185221.12789405917, -185966.96090304386, -186300.24776461694, -187500.02235174447, -187500.02235174447, -187500.02235174447, -187500.02235174447, -187500.02235174447, 0.0, 0.0, 0.0, 192.0, 0.0, 0.0, 0.0, 0.0, 0.0, 0.0, 0.0, 0.0, 0.0, 1.730914313342877E9, 0.0, 2024-11-06 14:31:53.342
122.0, -186380.37876848923, -185198.30676297031, -186544.3288140689, -187500.02235174447, -187500.02235174447, -187500.02235174447, -187500.02235174447, -187500.02235174447, 0.0, 0.0, 0.0, 192.0, 0.0, 0.0, 0.0, 0.0, 0.0, 0.0, 0.0, 0.0, 0.0, 1.730914313342896E9, 0.0, 2024-11-06 14:31:53.342
0.0, 0.0, 0.0, 0.0, 0.0, 0.0, 0.0, 0.0, 0.0, 0.418, 0.844, 0.428, 192.0, 13.0, 16.0, 26.0, 96.0, 13.0, 96.0, 0.0, 0.0, 0.0, 1.730914313403866E9, 0.0, 2024-11-06 14:31:53.403
1.0, -187500.02235174447, -182396.13561584183, -187500.02235174447, -187500.02235174447, -187500.02235174447, -187500.02235174447, -187500.02235174447, -186573.9448754722, 0.418, 0.844, 0.428, 192.0, 0.0, 0.0, 0.0, 0.0, 0.0, 0.0, 0.0, 0.0, 0.0, 1.7309143134217896E9, 0.0, 2024-11-06 14:31:53.421
2.0, -185524.26225236207, -185866.1098320615, -186633.2440535121, -187500.02235174447, -187500.02235174447, -187500.02235174447, -187500.02235174447, -187500.02235174447, 0.418, 0.844, 0.428, 192.0, 0.0, 0.0, 0.0, 0.0, 0.0, 0.0, 0.0, 0.0, 0.0, 1.730914313424778E9, 0.0, 2024-11-06 14:31:53.424
3.0, -186319.42556135962, -185732.46875196323, -186546.56398851445, -187500.02235174447, -187500.02235174447, -187500.02235174447, -187500.02235174447, -187500.02235174447, 0.418, 0.844, 0.428, 192.0, 0.0, 0.0, 0.0, 0.0, 0.0, 0.0, 0.0, 0.0, 0.0, 1.7309143134289153E9, 0.0, 2024-11-06 14:31:53.428
4.0, -187500.02235174447, -182167.0078834305, -187500.02235174447, -187500.02235174447, -187500.02235174447, -187500.02235174447, -187500.02235174447, -186398.6401437092, 0.418, 0.844, 0.428, 192.0, 0.0, 0.0, 0.0, 0.0, 0.0, 0.0, 0.0, 0.0, 0.0, 1.7309143134318612E9, 0.0, 2024-11-06 14:31:53.431
5.0, -187500.02235174447, -181919.55172056577, -187500.02235174447, -187216.2893076288, -187500.02235174447, -187500.02235174447, -187500.02235174447, -186306.90858446463, 0.418, 0.844, 0.428, 192.0, 0.0, 0.0, 0.0, 0.0, 0.0, 0.0, 0.0, 0.0, 0.0, 1.7309143134347873E9, 0.0, 2024-11-06 14:31:53.434
6.0, -185750.97599637223, -185330.51733142344, -186945.60968227504, -187500.02235174447, -187500.02235174447, -187500.02235174447, -187500.02235174447, -187500.02235174447, 0.418, 0.844, 0.428, 192.0, 0.0, 0.0, 0.0, 0.0, 0.0, 0.0, 0.0, 0.0, 0.0, 1.7309143134387932E9, 0.0, 2024-11-06 14:31:53.438
7.0, -185972.16885950195, -186191.75239703088, -186339.49742788047, -187500.02235174447, -187500.02235174447, -187500.02235174447, -187500.02235174447, -187500.02235174447, 0.418, 0.844, 0.428, 192.0, 0.0, 0.0, 0.0, 0.0, 0.0, 0.0, 0.0, 0.0, 0.0, 1.730914313442908E9, 0.0, 2024-11-06 14:31:53.442
8.0, -187500.02235174447, -182736.4856286628, -187500.02235174447, -187500.02235174447, -187500.02235174447, -187500.02235174447, -187500.02235174447, -186736.68792685127, 0.41400000000000003, 0.846, 0.43, 192.0, 12.0, 240.0, 26.0, 112.0, 13.0, 112.0, 0.0, 0.0, 0.0, 1.7309143134468243E9, 0.0, 2024-11-06 14:31:53.446
9.0, -187500.02235174447, -181571.91503905237, -187500.02235174447, -187072.70170124792, -187500.02235174447, -187500.02235174447, -187500.02235174447, -186101.71957036492, 0.41400000000000003, 0.846, 0.43, 192.0, 0.0, 0.0, 0.0, 0.0, 0.0, 0.0, 0.0, 0.0, 0.0, 1.730914313450767E9, 0.0, 2024-11-06 14:31:53.450
10.0, -186057.8654477436, -184731.13295210994, -187295.88386963416, -187500.02235174447, -187500.02235174447, -187500.02235174447, -187500.02235174447, -187500.02235174447, 0.41400000000000003, 0.846, 0.43, 192.0, 0.0, 0.0, 0.0, 0.0, 0.0, 0.0, 0.0, 0.0, 0.0, 1.7309143134548216E9, 0.0, 2024-11-06 14:31:53.454
11.0, -185679.830393771, -186494.99851405603, -186213.59005136372, -187500.02235174447, -187500.02235174447, -187500.02235174447, -187500.02235174447, -187500.02235174447, 0.41400000000000003, 0.846, 0.43, 192.0, 0.0, 0.0, 0.0, 0.0, 0.0, 0.0, 0.0, 0.0, 0.0, 1.730914313458758E9, 0.0, 2024-11-06 14:31:53.458
12.0, -187500.02235174447, -183348.99048197156, -187500.02235174447, -187500.02235174447, -187500.02235174447, -187500.02235174447, -187500.02235174447, -187089.39845435604, 0.41400000000000003, 0.846, 0.43, 192.0, 0.0, 0.0, 0.0, 0.0, 0.0, 0.0, 0.0, 0.0, 0.0, 1.7309143134630325E9, 0.0, 2024-11-06 14:31:53.463
13.0, -187500.02235174447, -181374.83970818995, -187500.02235174447, -187089.62197180057, -187500.02235174447, -187500.02235174447, -187500.02235174447, -185986.33986548663, 0.41400000000000003, 0.846, 0.43, 192.0, 0.0, 0.0, 0.0, 0.0, 0.0, 0.0, 0.0, 0.0, 0.0, 1.730914313465785E9, 0.0, 2024-11-06 14:31:53.465
14.0, -186406.57501299086, -184091.2472118434, -187500.02235174447, -187500.02235174447, -187500.02235174447, -187500.02235174447, -187500.02235174447, -187500.02235174447, 0.41400000000000003, 0.846, 0.43, 192.0, 0.0, 0.0, 0.0, 0.0, 0.0, 0.0, 0.0, 0.0, 0.0, 1.7309143134707959E9, 0.0, 2024-11-06 14:31:53.470
15.0, -185478.64234192876, -186596.78835830552, -186200.58133609075, -187500.02235174447, -187500.02235174447, -187500.02235174447, -187500.02235174447, -187500.02235174447, 0.41400000000000003, 0.846, 0.43, 192.0, 0.0, 0.0, 0.0, 0.0, 0.0, 0.0, 0.0, 0.0, 0.0, 1.7309143134748733E9, 0.0, 2024-11-06 14:31:53.474
16.0, -187500.02235174447, -184015.07246673972, -187481.82803175785, -187500.02235174447, -187500.02235174447, -187500.02235174447, -187500.02235174447, -187488.26533416097, 0.41400000000000003, 0.846, 0.43, 192.0, 0.0, 0.0, 0.0, 0.0, 0.0, 0.0, 0.0, 0.0, 0.0, 1.7309143134790304E9, 0.0, 2024-11-06 14:31:53.479
17.0, -187500.02235174447, -181358.54528648203, -187500.02235174447, -187268.63709314313, -187500.02235174447, -187500.02235174447, -187500.02235174447, -185963.22816171983, 0.41400000000000003, 0.846, 0.43, 192.0, 0.0, 0.0, 0.0, 0.0, 0.0, 0.0, 0.0, 0.0, 0.0, 1.7309143134830253E9, 0.0, 2024-11-06 14:31:53.483
18.0, -186800.36804680445, -183455.38478557885, -187500.02235174447, -187500.02235174447, -187500.02235174447, -187500.02235174447, -187500.02235174447, -187175.45267050897, 0.41600000000000004, 0.844, 0.43, 192.0, 13.0, 0.0, 26.0, 96.0, 13.0, 112.0, 0.0, 0.0, 0.0, 1.7309143134870825E9, 0.0, 2024-11-06 14:31:53.487
19.0, -185421.24306216754, -186500.7205606366, -186283.19338359757, -187500.02235174447, -187500.02235174447, -187500.02235174447, -187500.02235174447, -187500.02235174447, 0.41600000000000004, 0.844, 0.43, 192.0, 0.0, 0.0, 0.0, 0.0, 0.0, 0.0, 0.0, 0.0, 0.0, 1.7309143134908593E9, 0.0, 2024-11-06 14:31:53.490
20.0, -187161.59458894667, -184689.26813474516, -187110.3643906551, -187500.02235174447, -187500.02235174447, -187500.02235174447, -187500.02235174447, -187500.02235174447, 0.41600000000000004, 0.844, 0.43, 192.0, 0.0, 0.0, 0.0, 0.0, 0.0, 0.0, 0.0, 0.0, 0.0, 1.7309143134939547E9, 0.0, 2024-11-06 14:31:53.493
21.0, -187500.02235174447, -181523.70232626228, -187500.02235174447, -187500.02235174447, -187500.02235174447, -187500.02235174447, -187500.02235174447, -186042.24157836934, 0.41600000000000004, 0.844, 0.43, 192.0, 0.0, 0.0, 0.0, 0.0, 0.0, 0.0, 0.0, 0.0, 0.0, 1.7309143134990864E9, 0.0, 2024-11-06 14:31:53.499
22.0, -187231.9355287475, -182844.8468857821, -187500.02235174447, -187500.02235174447, -187500.02235174447, -187500.02235174447, -187500.02235174447, -186825.31259361657, 0.41600000000000004, 0.844, 0.43, 192.0, 0.0, 0.0, 0.0, 0.0, 0.0, 0.0, 0.0, 0.0, 0.0, 1.73091431350315E9, 0.0, 2024-11-06 14:31:53.503
23.0, -185459.8221730974, -186215.1993769645, -186466.43298464216, -187500.02235174447, -187500.02235174447, -187500.02235174447, -187500.02235174447, -187500.02235174447, 0.41600000000000004, 0.844, 0.43, 192.0, 0.0, 0.0, 0.0, 0.0, 0.0, 0.0, 0.0, 0.0, 0.0, 1.7309143135069344E9, 0.0, 2024-11-06 14:31:53.506
24.0, -186707.071865448, -185331.2549389905, -186775.8928866259, -187500.02235174447, -187500.02235174447, -187500.02235174447, -187500.02235174447, -187500.02235174447, 0.41600000000000004, 0.844, 0.43, 192.0, 0.0, 0.0, 0.0, 0.0, 0.0, 0.0, 0.0, 0.0, 0.0, 1.7309143135109513E9, 0.0, 2024-11-06 14:31:53.510
25.0, -187500.02235174447, -181844.82983885167, -187500.02235174447, -187500.02235174447, -187500.02235174447, -187500.02235174447, -187500.02235174447, -186214.3053071863, 0.41600000000000004, 0.844, 0.43, 192.0, 0.0, 0.0, 0.0, 0.0, 0.0, 0.0, 0.0, 0.0, 0.0, 1.7309143135148325E9, 0.0, 2024-11-06 14:31:53.514
26.0, -187500.02235174447, -182297.2291466271, -187500.02235174447, -187462.2032001261, -187500.02235174447, -187500.02235174447, -187500.02235174447, -186515.6291741883, 0.41600000000000004, 0.844, 0.43, 192.0, 0.0, 0.0, 0.0, 0.0, 0.0, 0.0, 0.0, 0.0, 0.0, 1.7309143135189033E9, 0.0, 2024-11-06 14:31:53.518
27.0, -185613.8703958834, -185769.84086869252, -186720.30409816554, -187500.02235174447, -187500.02235174447, -187500.02235174447, -187500.02235174447, -187500.02235174447, 0.41600000000000004, 0.844, 0.43, 192.0, 0.0, 0.0, 0.0, 0.0, 0.0, 0.0, 0.0, 0.0, 0.0, 1.730914313521978E9, 0.0, 2024-11-06 14:31:53.521
28.0, -186286.63555224368, -185876.8163176556, -186502.30753449292, -187500.02235174447, -187500.02235174447, -187500.02235174447, -187500.02235174447, -187500.02235174447, 0.41400000000000003, 0.842, 0.432, 192.0, 12.0, 240.0, 26.0, 80.0, 13.0, 128.0, 0.0, 0.0, 0.0, 1.7309143135274708E9, 0.0, 2024-11-06 14:31:53.527
29.0, -187500.02235174447, -182332.20962669965, -187500.02235174447, -187500.02235174447, -187500.02235174447, -187500.02235174447, -187500.02235174447, -186498.19481351314, 0.41400000000000003, 0.842, 0.432, 192.0, 0.0, 0.0, 0.0, 0.0, 0.0, 0.0, 0.0, 0.0, 0.0, 1.730914313530943E9, 0.0, 2024-11-06 14:31:53.530
30.0, -187500.02235174447, -181846.1262400301, -187500.02235174447, -187209.80730173676, -187500.02235174447, -187500.02235174447, -187500.02235174447, -186255.79014489535, 0.41400000000000003, 0.842, 0.432, 192.0, 0.0, 0.0, 0.0, 0.0, 0.0, 0.0, 0.0, 0.0, 0.0, 1.730914313534949E9, 0.0, 2024-11-06 14:31:53.534
31.0, -185848.02727079717, -185217.97629809097, -187043.28680554472, -187500.02235174447, -187500.02235174447, -187500.02235174447, -187500.02235174447, -187500.02235174447, 0.41400000000000003, 0.842, 0.432, 192.0, 0.0, 0.0, 0.0, 0.0, 0.0, 0.0, 0.0, 0.0, 0.0, 1.7309143135389848E9, 0.0, 2024-11-06 14:31:53.538
32.0, -185904.30896333564, -186307.1321019092, -186310.75308451094, -187500.02235174447, -187500.02235174447, -187500.02235174447, -187500.02235174447, -187500.02235174447, 0.41400000000000003, 0.842, 0.432, 192.0, 0.0, 0.0, 0.0, 0.0, 0.0, 0.0, 0.0, 0.0, 0.0, 1.7309143135420496E9, 0.0, 2024-11-06 14:31:53.542
33.0, -187500.02235174447, -182891.33851424916, -187500.02235174447, -187500.02235174447, -187500.02235174447, -187500.02235174447, -187500.02235174447, -186823.2338813822, 0.41400000000000003, 0.842, 0.432, 192.0, 0.0, 0.0, 0.0, 0.0, 0.0, 0.0, 0.0, 0.0, 0.0, 1.7309143135458963E9, 0.0, 2024-11-06 14:31:53.545
34.0, -187500.02235174447, -181525.4904658187, -187500.02235174447, -187094.74052128085, -187500.02235174447, -187500.02235174447, -187500.02235174447, -186087.8167853137, 0.41400000000000003, 0.842, 0.432, 192.0, 0.0, 0.0, 0.0, 0.0, 0.0, 0.0, 0.0, 0.0, 0.0, 1.7309143135501232E9, 0.0, 2024-11-06 14:31:53.550
35.0, -186150.62518723312, -184601.22461333568, -187390.96819054702, -187500.02235174447, -187500.02235174447, -187500.02235174447, -187500.02235174447, -187500.02235174447, 0.41400000000000003, 0.842, 0.432, 192.0, 0.0, 0.0, 0.0, 0.0, 0.0, 0.0, 0.0, 0.0, 0.0, 1.7309143135540075E9, 0.0, 2024-11-06 14:31:53.554
36.0, -185637.20561709473, -186554.56591302942, -186213.4112374081, -187500.02235174447, -187500.02235174447, -187500.02235174447, -187500.02235174447, -187500.02235174447, 0.41400000000000003, 0.842, 0.432, 192.0, 0.0, 0.0, 0.0, 0.0, 0.0, 0.0, 0.0, 0.0, 0.0, 1.7309143135589256E9, 0.0, 2024-11-06 14:31:53.558
37.0, -187500.02235174447, -183517.8132078425, -187500.02235174447, -187500.02235174447, -187500.02235174447, -187500.02235174447, -187500.02235174447, -187204.10760690065, 0.41400000000000003, 0.842, 0.432, 192.0, 0.0, 0.0, 0.0, 0.0, 0.0, 0.0, 0.0, 0.0, 0.0, 1.7309143135630414E9, 0.0, 2024-11-06 14:31:53.563
38.0, -187500.02235174447, -181370.23524883215, -187500.02235174447, -187136.2700624788, -187500.02235174447, -187500.02235174447, -187500.02235174447, -186002.1425488165, 0.418, 0.84, 0.438, 192.0, 13.0, 16.0, 26.0, 64.0, 13.0, 176.0, 0.0, 0.0, 0.0, 1.7309143135669928E9, 0.0, 2024-11-06 14:31:53.566
39.0, -186520.77007541302, -183958.0308148898, -187500.02235174447, -187500.02235174447, -187500.02235174447, -187500.02235174447, -187500.02235174447, -187485.80664227088, 0.418, 0.84, 0.438, 192.0, 0.0, 0.0, 0.0, 0.0, 0.0, 0.0, 0.0, 0.0, 0.0, 1.7309143135699735E9, 0.0, 2024-11-06 14:31:53.569
40.0, -185471.2215627696, -186612.16635849077, -186239.4063162096, -187500.02235174447, -187500.02235174447, -187500.02235174447, -187500.02235174447, -187500.02235174447, 0.418, 0.84, 0.438, 192.0, 0.0, 0.0, 0.0, 0.0, 0.0, 0.0, 0.0, 0.0, 0.0, 1.7309143135739975E9, 0.0, 2024-11-06 14:31:53.573
41.0, -187500.02235174447, -184202.44714050856, -187414.86220536975, -187500.02235174447, -187500.02235174447, -187500.02235174447, -187500.02235174447, -187500.02235174447, 0.418, 0.84, 0.438, 192.0, 0.0, 0.0, 0.0, 0.0, 0.0, 0.0, 0.0, 0.0, 0.0, 1.730914313577984E9, 0.0, 2024-11-06 14:31:53.577
42.0, -187500.02235174447, -181404.38871435987, -187500.02235174447, -187369.10818446975, -187500.02235174447, -187500.02235174447, -187500.02235174447, -185996.33109525815, 0.418, 0.84, 0.438, 192.0, 0.0, 0.0, 0.0, 0.0, 0.0, 0.0, 0.0, 0.0, 0.0, 1.7309143135821288E9, 0.0, 2024-11-06 14:31:53.582
43.0, -186933.07035363562, -183320.64847000226, -187500.02235174447, -187500.02235174447, -187500.02235174447, -187500.02235174447, -187500.02235174447, -187106.43048363097, 0.418, 0.84, 0.438, 192.0, 0.0, 0.0, 0.0, 0.0, 0.0, 0.0, 0.0, 0.0, 0.0, 1.730914313587086E9, 0.0, 2024-11-06 14:31:53.587
44.0, -185416.70565804312, -186470.009263755, -186345.51004713896, -187500.02235174447, -187500.02235174447, -187500.02235174447, -187500.02235174447, -187500.02235174447, 0.418, 0.84, 0.438, 192.0, 0.0, 0.0, 0.0, 0.0, 0.0, 0.0, 0.0, 0.0, 0.0, 1.7309143135910847E9, 0.0, 2024-11-06 14:31:53.591
45.0, -187058.84361968562, -184871.92659043393, -187057.6589772295, -187500.02235174447, -187500.02235174447, -187500.02235174447, -187500.02235174447, -187500.02235174447, 0.418, 0.84, 0.438, 192.0, 0.0, 0.0, 0.0, 0.0, 0.0, 0.0, 0.0, 0.0, 0.0, 1.730914313595296E9, 0.0, 2024-11-06 14:31:53.595
46.0, -187500.02235174447, -181609.4659697373, -187500.02235174447, -187500.02235174447, -187500.02235174447, -187500.02235174447, -187500.02235174447, -186098.14329125205, 0.418, 0.84, 0.438, 192.0, 0.0, 0.0, 0.0, 0.0, 0.0, 0.0, 0.0, 0.0, 0.0, 1.7309143135980873E9, 0.0, 2024-11-06 14:31:53.598
47.0, -187346.80114350334, -182734.69748910636, -187500.02235174447, -187500.02235174447, -187500.02235174447, -187500.02235174447, -187500.02235174447, -186776.71990117073, 0.418, 0.84, 0.438, 192.0, 0.0, 0.0, 0.0, 0.0, 0.0, 0.0, 0.0, 0.0, 0.0, 1.7309143136020517E9, 0.0, 2024-11-06 14:31:53.602
48.0, -185502.91633640724, -186149.2393790769, -186546.29576758097, -187500.02235174447, -187500.02235174447, -187500.02235174447, -187500.02235174447, -187500.02235174447, 0.418, 0.844, 0.442, 192.0, 13.0, 16.0, 26.0, 96.0, 13.0, 208.0, 0.0, 0.0, 0.0, 1.7309143136060505E9, 0.0, 2024-11-06 14:31:53.606
49.0, -186607.91952704426, -185500.18942358368, -186733.08929599397, -187500.02235174447, -187500.02235174447, -187500.02235174447, -187500.02235174447, -187500.02235174447, 0.418, 0.844, 0.442, 192.0, 0.0, 0.0, 0.0, 0.0, 0.0, 0.0, 0.0, 0.0, 0.0, 1.730914313610234E9, 0.0, 2024-11-06 14:31:53.610
50.0, -187500.02235174447, -181987.34456149873, -187500.02235174447, -187500.02235174447, -187500.02235174447, -187500.02235174447, -187500.02235174447, -186311.33422986677, 0.418, 0.844, 0.442, 192.0, 0.0, 0.0, 0.0, 0.0, 0.0, 0.0, 0.0, 0.0, 0.0, 1.730914313615066E9, 0.0, 2024-11-06 14:31:53.615
51.0, -187500.02235174447, -182203.08359898135, -187500.02235174447, -187418.10320831576, -187500.02235174447, -187500.02235174447, -187500.02235174447, -186464.01899624098, 0.418, 0.844, 0.442, 192.0, 0.0, 0.0, 0.0, 0.0, 0.0, 0.0, 0.0, 0.0, 0.0, 1.7309143136190495E9, 0.0, 2024-11-06 14:31:53.619
52.0, -185674.19775416824, -185670.3309023775, -186820.50696855868, -187500.02235174447, -187500.02235174447, -187500.02235174447, -187500.02235174447, -187500.02235174447, 0.418, 0.844, 0.442, 192.0, 0.0, 0.0, 0.0, 0.0, 0.0, 0.0, 0.0, 0.0, 0.0, 1.730914313623264E9, 0.0, 2024-11-06 14:31:53.623
53.0, -186208.1585774611, -186020.62744148105, -186480.73810109356, -187500.02235174447, -187500.02235174447, -187500.02235174447, -187500.02235174447, -187500.02235174447, 0.418, 0.844, 0.442, 192.0, 0.0, 0.0, 0.0, 0.0, 0.0, 0.0, 0.0, 0.0, 0.0, 1.7309143136260653E9, 0.0, 2024-11-06 14:31:53.626
54.0, -187500.02235174447, -182485.14026226287, -187500.02235174447, -187500.02235174447, -187500.02235174447, -187500.02235174447, -187500.02235174447, -186591.8933262698, 0.418, 0.844, 0.442, 192.0, 0.0, 0.0, 0.0, 0.0, 0.0, 0.0, 0.0, 0.0, 0.0, 1.730914313630159E9, 0.0, 2024-11-06 14:31:53.630
55.0, -187500.02235174447, -181786.42473058996, -187500.02235174447, -187208.01916218034, -187500.02235174447, -187500.02235174447, -187500.02235174447, -186233.6619178846, 0.418, 0.844, 0.442, 192.0, 0.0, 0.0, 0.0, 0.0, 0.0, 0.0, 0.0, 0.0, 0.0, 1.7309143136340685E9, 0.0, 2024-11-06 14:31:53.634
56.0, -185933.29917589418, -185104.31767753576, -187156.36428074414, -187500.02235174447, -187500.02235174447, -187500.02235174447, -187500.02235174447, -187500.02235174447, 0.418, 0.844, 0.442, 192.0, 0.0, 0.0, 0.0, 0.0, 0.0, 0.0, 0.0, 0.0, 0.0, 1.7309143136379714E9, 0.0, 2024-11-06 14:31:53.637
57.0, -185850.48596268726, -186412.11824561577, -186309.85901473273, -187500.02235174447, -187500.02235174447, -187500.02235174447, -187500.02235174447, -187500.02235174447, 0.418, 0.844, 0.442, 192.0, 0.0, 0.0, 0.0, 0.0, 0.0, 0.0, 0.0, 0.0, 0.0, 1.7309143136431699E9, 0.0, 2024-11-06 14:31:53.643
58.0, -187500.02235174447, -183065.7715279784, -187500.02235174447, -187500.02235174447, -187500.02235174447, -187500.02235174447, -187500.02235174447, -186932.01982164622, 0.418, 0.838, 0.432, 192.0, 13.0, 16.0, 26.0, 48.0, 13.0, 128.0, 0.0, 0.0, 0.0, 1.7309143136473212E9, 0.0, 2024-11-06 14:31:53.647
59.0, -187500.02235174447, -181499.85301492846, -187500.02235174447, -187119.5286058818, -187500.02235174447, -187500.02235174447, -187500.02235174447, -186077.2220584419, 0.418, 0.838, 0.432, 192.0, 0.0, 0.0, 0.0, 0.0, 0.0, 0.0, 0.0, 0.0, 0.0, 1.7309143136504097E9, 0.0, 2024-11-06 14:31:53.650
60.0, -186255.05253732833, -184472.09858561738, -187500.02235174447, -187500.02235174447, -187500.02235174447, -187500.02235174447, -187500.02235174447, -187500.02235174447, 0.418, 0.838, 0.432, 192.0, 0.0, 0.0, 0.0, 0.0, 0.0, 0.0, 0.0, 0.0, 0.0, 1.7309143136541038E9, 0.0, 2024-11-06 14:31:53.654
61.0, -185598.22417476468, -186617.7542946046, -186235.8076853523, -187500.02235174447, -187500.02235174447, -187500.02235174447, -187500.02235174447, -187500.02235174447, 0.418, 0.838, 0.432, 192.0, 0.0, 0.0, 0.0, 0.0, 0.0, 0.0, 0.0, 0.0, 0.0, 1.7309143136581051E9, 0.0, 2024-11-06 14:31:53.658
62.0, -187500.02235174447, -183718.12954165097, -187500.02235174447, -187500.02235174447, -187500.02235174447, -187500.02235174447, -187500.02235174447, -187326.0587246488, 0.418, 0.838, 0.432, 192.0, 0.0, 0.0, 0.0, 0.0, 0.0, 0.0, 0.0, 0.0, 0.0, 1.7309143136620607E9, 0.0, 2024-11-06 14:31:53.662
63.0, -187500.02235174447, -181399.4713305797, -187500.02235174447, -187215.32818261723, -187500.02235174447, -187500.02235174447, -187500.02235174447, -186007.2610982968, 0.418, 0.838, 0.432, 192.0, 0.0, 0.0, 0.0, 0.0, 0.0, 0.0, 0.0, 0.0, 0.0, 1.7309143136661055E9, 0.0, 2024-11-06 14:31:53.666
64.0, -186628.72900113213, -183837.55491227566, -187500.02235174447, -187500.02235174447, -187500.02235174447, -187500.02235174447, -187500.02235174447, -187408.5366616889, 0.418, 0.838, 0.432, 192.0, 0.0, 0.0, 0.0, 0.0, 0.0, 0.0, 0.0, 0.0, 0.0, 1.730914313670093E9, 0.0, 2024-11-06 14:31:53.670
65.0, -185465.29835048894, -186627.4549516982, -186273.3586160372, -187500.02235174447, -187500.02235174447, -187500.02235174447, -187500.02235174447, -187500.02235174447, 0.418, 0.838, 0.432, 192.0, 0.0, 0.0, 0.0, 0.0, 0.0, 0.0, 0.0, 0.0, 0.0, 1.7309143136751993E9, 0.0, 2024-11-06 14:31:53.675
66.0, -187419.26549902745, -184394.69449456866, -187340.87793122267, -187500.02235174447, -187500.02235174447, -187500.02235174447, -187500.02235174447, -187500.02235174447, 0.418, 0.838, 0.432, 192.0, 0.0, 0.0, 0.0, 0.0, 0.0, 0.0, 0.0, 0.0, 0.0, 1.7309143136783063E9, 0.0, 2024-11-06 14:31:53.678
67.0, -187500.02235174447, -181467.64415116838, -187500.02235174447, -187477.24592414452, -187500.02235174447, -187500.02235174447, -187500.02235174447, -186035.7148689884, 0.418, 0.838, 0.432, 192.0, 0.0, 0.0, 0.0, 0.0, 0.0, 0.0, 0.0, 0.0, 0.0, 1.7309143136821816E9, 0.0, 2024-11-06 14:31:53.682
68.0, -187055.8037824397, -183204.62056453474, -187500.02235174447, -187500.02235174447, -187500.02235174447, -187500.02235174447, -187500.02235174447, -187045.96901487937, 0.41600000000000004, 0.834, 0.432, 192.0, 13.0, 0.0, 26.0, 16.0, 13.0, 128.0, 0.0, 0.0, 0.0, 1.730914313686198E9, 0.0, 2024-11-06 14:31:53.686
69.0, -185467.39941446774, -186432.3018708589, -186416.0521526399, -187500.02235174447, -187500.02235174447, -187500.02235174447, -187500.02235174447, -187500.02235174447, 0.41600000000000004, 0.834, 0.432, 192.0, 0.0, 0.0, 0.0, 0.0, 0.0, 0.0, 0.0, 0.0, 0.0, 1.730914313690302E9, 0.0, 2024-11-06 14:31:53.690
70.0, -186968.4308133639, -185054.6744531005, -187006.09350277108, -187500.02235174447, -187500.02235174447, -187500.02235174447, -187500.02235174447, -187500.02235174447, 0.41600000000000004, 0.834, 0.432, 192.0, 0.0, 0.0, 0.0, 0.0, 0.0, 0.0, 0.0, 0.0, 0.0, 1.7309143136942253E9, 0.0, 2024-11-06 14:31:53.694
71.0, -187500.02235174447, -181726.5891106831, -187500.02235174447, -187500.02235174447, -187500.02235174447, -187500.02235174447, -187500.02235174447, -186175.56973404525, 0.41600000000000004, 0.834, 0.432, 192.0, 0.0, 0.0, 0.0, 0.0, 0.0, 0.0, 0.0, 0.0, 0.0, 1.7309143136983485E9, 0.0, 2024-11-06 14:31:53.698
72.0, -187496.37901739826, -182625.12923778646, -187500.02235174447, -187500.02235174447, -187500.02235174447, -187500.02235174447, -187500.02235174447, -186715.65493531883, 0.41600000000000004, 0.834, 0.432, 192.0, 0.0, 0.0, 0.0, 0.0, 0.0, 0.0, 0.0, 0.0, 0.0, 1.7309143137033606E9, 0.0, 2024-11-06 14:31:53.703
73.0, -185559.04156673452, -186070.0247967273, -186636.48505645813, -187500.02235174447, -187500.02235174447, -187500.02235174447, -187500.02235174447, -187500.02235174447, 0.41600000000000004, 0.834, 0.432, 192.0, 0.0, 0.0, 0.0, 0.0, 0.0, 0.0, 0.0, 0.0, 0.0, 1.7309143137061055E9, 0.0, 2024-11-06 14:31:53.706
74.0, -186531.05187786245, -185658.28331211608, -186695.82893798698, -187500.02235174447, -187500.02235174447, -187500.02235174447, -187500.02235174447, -187500.02235174447, 0.41600000000000004, 0.834, 0.432, 192.0, 0.0, 0.0, 0.0, 0.0, 0.0, 0.0, 0.0, 0.0, 0.0, 1.7309143137100685E9, 0.0, 2024-11-06 14:31:53.710
75.0, -187500.02235174447, -182123.15376080916, -187500.02235174447, -187500.02235174447, -187500.02235174447, -187500.02235174447, -187500.02235174447, -186403.06578911137, 0.41600000000000004, 0.834, 0.432, 192.0, 0.0, 0.0, 0.0, 0.0, 0.0, 0.0, 0.0, 0.0, 0.0, 1.7309143137141032E9, 0.0, 2024-11-06 14:31:53.714
76.0, -187500.02235174447, -182118.41519098464, -187500.02235174447, -187360.27924540988, -187500.02235174447, -187500.02235174447, -187500.02235174447, -186442.62837679725, 0.41600000000000004, 0.834, 0.432, 192.0, 0.0, 0.0, 0.0, 0.0, 0.0, 0.0, 0.0, 0.0, 0.0, 1.7309143137181768E9, 0.0, 2024-11-06 14:31:53.718
77.0, -185749.16550507135, -185567.73639532764, -186935.05965889213, -187500.02235174447, -187500.02235174447, -187500.02235174447, -187500.02235174447, -187500.02235174447, 0.41600000000000004, 0.834, 0.432, 192.0, 0.0, 0.0, 0.0, 0.0, 0.0, 0.0, 0.0, 0.0, 0.0, 1.7309143137220993E9, 0.0, 2024-11-06 14:31:53.722
78.0, -186117.63401241708, -186160.7505274714, -186464.98012125256, -187500.02235174447, -187500.02235174447, -187500.02235174447, -187500.02235174447, -187500.02235174447, 0.41200000000000003, 0.842, 0.428, 192.0, 12.0, 224.0, 26.0, 80.0, 13.0, 96.0, 0.0, 0.0, 0.0, 1.730914313727206E9, 0.0, 2024-11-06 14:31:53.727
79.0, -187500.02235174447, -182644.6199589515, -187500.02235174447, -187500.02235174447, -187500.02235174447, -187500.02235174447, -187500.02235174447, -186701.64039154534, 0.41200000000000003, 0.842, 0.428, 192.0, 0.0, 0.0, 0.0, 0.0, 0.0, 0.0, 0.0, 0.0, 0.0, 1.7309143137311032E9, 0.0, 2024-11-06 14:31:53.731
80.0, -187500.02235174447, -181725.62798567154, -187500.02235174447, -187173.4857169969, -187500.02235174447, -187500.02235174447, -187500.02235174447, -186206.1022169712, 0.41200000000000003, 0.842, 0.428, 192.0, 0.0, 0.0, 0.0, 0.0, 0.0, 0.0, 0.0, 0.0, 0.0, 1.7309143137341251E9, 0.0, 2024-11-06 14:31:53.734
81.0, -186019.7110199584, -184977.9632661299, -187274.18032576804, -187500.02235174447, -187500.02235174447, -187500.02235174447, -187500.02235174447, -187500.02235174447, 0.41200000000000003, 0.842, 0.428, 192.0, 0.0, 0.0, 0.0, 0.0, 0.0, 0.0, 0.0, 0.0, 0.0, 1.7309143137381124E9, 0.0, 2024-11-06 14:31:53.738
82.0, -185798.38404636193, -186501.43581645918, -186316.85511074724, -187500.02235174447, -187500.02235174447, -187500.02235174447, -187500.02235174447, -187500.02235174447, 0.41200000000000003, 0.842, 0.428, 192.0, 0.0, 0.0, 0.0, 0.0, 0.0, 0.0, 0.0, 0.0, 0.0, 1.7309143137424448E9, 0.0, 2024-11-06 14:31:53.742
83.0, -187500.02235174447, -183242.90910278668, -187500.02235174447, -187500.02235174447, -187500.02235174447, -187500.02235174447, -187500.02235174447, -187048.2935963027, 0.41200000000000003, 0.842, 0.428, 192.0, 0.0, 0.0, 0.0, 0.0, 0.0, 0.0, 0.0, 0.0, 0.0, 1.730914313746118E9, 0.0, 2024-11-06 14:31:53.746
84.0, -187500.02235174447, -181483.11155833144, -187500.02235174447, -187142.59560615965, -187500.02235174447, -187500.02235174447, -187500.02235174447, -186067.38729088157, 0.41200000000000003, 0.842, 0.428, 192.0, 0.0, 0.0, 0.0, 0.0, 0.0, 0.0, 0.0, 0.0, 0.0, 1.7309143137501044E9, 0.0, 2024-11-06 14:31:53.750
85.0, -186367.2359427495, -184343.3525375548, -187500.02235174447, -187500.02235174447, -187500.02235174447, -187500.02235174447, -187500.02235174447, -187500.02235174447, 0.41200000000000003, 0.842, 0.428, 192.0, 0.0, 0.0, 0.0, 0.0, 0.0, 0.0, 0.0, 0.0, 0.0, 1.7309143137542095E9, 0.0, 2024-11-06 14:31:53.754
86.0, -185575.58185763145, -186664.49179226064, -186273.33626429277, -187500.02235174447, -187500.02235174447, -187500.02235174447, -187500.02235174447, -187500.02235174447, 0.41200000000000003, 0.842, 0.428, 192.0, 0.0, 0.0, 0.0, 0.0, 0.0, 0.0, 0.0, 0.0, 0.0, 1.7309143137593076E9, 0.0, 2024-11-06 14:31:53.759
87.0, -187500.02235174447, -183908.45464568792, -187500.02235174447, -187500.02235174447, -187500.02235174447, -187500.02235174447, -187500.02235174447, -187447.36164180777, 0.41200000000000003, 0.842, 0.428, 192.0, 0.0, 0.0, 0.0, 0.0, 0.0, 0.0, 0.0, 0.0, 0.0, 1.7309143137621727E9, 0.0, 2024-11-06 14:31:53.762
88.0, -187500.02235174447, -181421.26428142362, -187500.02235174447, -187285.17738404006, -187500.02235174447, -187500.02235174447, -187500.02235174447, -186029.03169739625, 0.41600000000000004, 0.838, 0.434, 192.0, 13.0, 0.0, 26.0, 48.0, 13.0, 144.0, 0.0, 0.0, 0.0, 1.7309143137661622E9, 0.0, 2024-11-06 14:31:53.766
89.0, -186756.4245172053, -183694.50374776172, -187500.02235174447, -187500.02235174447, -187500.02235174447, -187500.02235174447, -187500.02235174447, -187337.05578292083, 0.41600000000000004, 0.838, 0.434, 192.0, 0.0, 0.0, 0.0, 0.0, 0.0, 0.0, 0.0, 0.0, 0.0, 1.7309143137703352E9, 0.0, 2024-11-06 14:31:53.770
90.0, -185489.66175194524, -186613.75333234709, -186329.64030857568, -187500.02235174447, -187500.02235174447, -187500.02235174447, -187500.02235174447, -187500.02235174447, 0.41600000000000004, 0.838, 0.434, 192.0, 0.0, 0.0, 0.0, 0.0, 0.0, 0.0, 0.0, 0.0, 0.0, 1.730914313774294E9, 0.0, 2024-11-06 14:31:53.774
91.0, -187345.21416964702, -184574.04489207803, -187290.22887828696, -187500.02235174447, -187500.02235174447, -187500.02235174447, -187500.02235174447, -187500.02235174447, 0.41600000000000004, 0.838, 0.434, 192.0, 0.0, 0.0, 0.0, 0.0, 0.0, 0.0, 0.0, 0.0, 0.0, 1.7309143137781928E9, 0.0, 2024-11-06 14:31:53.778
92.0, -187500.02235174447, -181525.31165186307, -187500.02235174447, -187500.02235174447, -187500.02235174447, -187500.02235174447, -187500.02235174447, -186087.99559926934, 0.41600000000000004, 0.838, 0.434, 192.0, 0.0, 0.0, 0.0, 0.0, 0.0, 0.0, 0.0, 0.0, 0.0, 1.7309143137832015E9, 0.0, 2024-11-06 14:31:53.783
93.0, -187184.929810158, -183072.54410654833, -187500.02235174447, -187500.02235174447, -187500.02235174447, -187500.02235174447, -187500.02235174447, -186997.42102592243, 0.41600000000000004, 0.838, 0.434, 192.0, 0.0, 0.0, 0.0, 0.0, 0.0, 0.0, 0.0, 0.0, 0.0, 1.7309143137862046E9, 0.0, 2024-11-06 14:31:53.786
94.0, -185503.5868887409, -186376.26604750945, -186481.18513598267, -187500.02235174447, -187500.02235174447, -187500.02235174447, -187500.02235174447, -187500.02235174447, 0.41600000000000004, 0.838, 0.434, 192.0, 0.0, 0.0, 0.0, 0.0, 0.0, 0.0, 0.0, 0.0, 0.0, 1.730914313789173E9, 0.0, 2024-11-06 14:31:53.789
95.0, -186889.28328624766, -185220.09971381424, -186949.40947883244, -187500.02235174447, -187500.02235174447, -187500.02235174447, -187500.02235174447, -187500.02235174447, 0.41600000000000004, 0.838, 0.434, 192.0, 0.0, 0.0, 0.0, 0.0, 0.0, 0.0, 0.0, 0.0, 0.0, 1.730914313794166E9, 0.0, 2024-11-06 14:31:53.794
96.0, -187500.02235174447, -181812.28569892477, -187500.02235174447, -187500.02235174447, -187500.02235174447, -187500.02235174447, -187500.02235174447, -186241.32856623275, 0.41600000000000004, 0.838, 0.434, 192.0, 0.0, 0.0, 0.0, 0.0, 0.0, 0.0, 0.0, 0.0, 0.0, 1.7309143137981565E9, 0.0, 2024-11-06 14:31:53.798
97.0, -187500.02235174447, -182497.79134962457, -187500.02235174447, -187500.02235174447, -187500.02235174447, -187500.02235174447, -187500.02235174447, -186669.43152778526, 0.41600000000000004, 0.838, 0.434, 192.0, 0.0, 0.0, 0.0, 0.0, 0.0, 0.0, 0.0, 0.0, 0.0, 1.7309143138021953E9, 0.0, 2024-11-06 14:31:53.802
98.0, -185615.18914880624, -185964.25634196476, -186714.44794111824, -187500.02235174447, -187500.02235174447, -187500.02235174447, -187500.02235174447, -187500.02235174447, 0.41400000000000003, 0.84, 0.432, 192.0, 12.0, 240.0, 26.0, 64.0, 13.0, 128.0, 0.0, 0.0, 0.0, 1.7309143138063445E9, 0.0, 2024-11-06 14:31:53.806
99.0, -186439.11915291776, -185801.7591597747, -186643.0117658391, -187500.02235174447, -187500.02235174447, -187500.02235174447, -187500.02235174447, -187500.02235174447, 0.41400000000000003, 0.84, 0.432, 192.0, 0.0, 0.0, 0.0, 0.0, 0.0, 0.0, 0.0, 0.0, 0.0, 1.730914313811159E9, 0.0, 2024-11-06 14:31:53.811
100.0, -187500.02235174447, -182240.50041919952, -187500.02235174447, -187500.02235174447, -187500.02235174447, -187500.02235174447, -187500.02235174447, -186481.6098191273, 0.41400000000000003, 0.84, 0.432, 192.0, 0.0, 0.0, 0.0, 0.0, 0.0, 0.0, 0.0, 0.0, 0.0, 1.7309143138141744E9, 0.0, 2024-11-06 14:31:53.814
101.0, -187500.02235174447, -182016.73710545746, -187500.02235174447, -187330.79729447333, -187500.02235174447, -187500.02235174447, -187500.02235174447, -186401.7917396774, 0.41400000000000003, 0.84, 0.432, 192.0, 0.0, 0.0, 0.0, 0.0, 0.0, 0.0, 0.0, 0.0, 0.0, 1.7309143138172011E9, 0.0, 2024-11-06 14:31:53.817
102.0, -185835.39853517993, -185442.47721940008, -187022.87966285704, -187500.02235174447, -187500.02235174447, -187500.02235174447, -187500.02235174447, -187500.02235174447, 0.41400000000000003, 0.84, 0.432, 192.0, 0.0, 0.0, 0.0, 0.0, 0.0, 0.0, 0.0, 0.0, 0.0, 1.730914313822218E9, 0.0, 2024-11-06 14:31:53.822
103.0, -186086.65449460203, -186260.97574960897, -186433.37475459275, -187500.02235174447, -187500.02235174447, -187500.02235174447, -187500.02235174447, -187500.02235174447, 0.41400000000000003, 0.84, 0.432, 192.0, 0.0, 0.0, 0.0, 0.0, 0.0, 0.0, 0.0, 0.0, 0.0, 1.7309143138262165E9, 0.0, 2024-11-06 14:31:53.826
104.0, -187500.02235174447, -182777.25521054928, -187500.02235174447, -187500.02235174447, -187500.02235174447, -187500.02235174447, -187500.02235174447, -186793.01432287865, 0.41400000000000003, 0.84, 0.432, 192.0, 0.0, 0.0, 0.0, 0.0, 0.0, 0.0, 0.0, 0.0, 0.0, 1.730914313830206E9, 0.0, 2024-11-06 14:31:53.830
105.0, -187500.02235174447, -181654.48238307028, -187500.02235174447, -187169.5294582283, -187500.02235174447, -187500.02235174447, -187500.02235174447, -186192.35589413118, 0.41400000000000003, 0.84, 0.432, 192.0, 0.0, 0.0, 0.0, 0.0, 0.0, 0.0, 0.0, 0.0, 0.0, 1.7309143138341696E9, 0.0, 2024-11-06 14:31:53.834
106.0, -186129.59219570068, -184833.1239620595, -187371.45511763755, -187500.02235174447, -187500.02235174447, -187500.02235174447, -187500.02235174447, -187500.02235174447, 0.41400000000000003, 0.84, 0.432, 192.0, 0.0, 0.0, 0.0, 0.0, 0.0, 0.0, 0.0, 0.0, 0.0, 1.7309143138382373E9, 0.0, 2024-11-06 14:31:53.838
107.0, -185795.56772656058, -186565.67473002372, -186319.71613403753, -187500.02235174447, -187500.02235174447, -187500.02235174447, -187500.02235174447, -187500.02235174447, 0.41400000000000003, 0.84, 0.432, 192.0, 0.0, 0.0, 0.0, 0.0, 0.0, 0.0, 0.0, 0.0, 0.0, 1.730914313842276E9, 0.0, 2024-11-06 14:31:53.842
108.0, -187500.02235174447, -183400.26538375203, -187500.02235174447, -187500.02235174447, -187500.02235174447, -187500.02235174447, -187500.02235174447, -187156.45368772195, 0.41600000000000004, 0.842, 0.43, 192.0, 13.0, 0.0, 26.0, 80.0, 13.0, 112.0, 0.0, 0.0, 0.0, 1.7309143138452592E9, 0.0, 2024-11-06 14:31:53.845
109.0, -187500.02235174447, -181460.84922085397, -187500.02235174447, -187174.670359453, -187500.02235174447, -187500.02235174447, -187500.02235174447, -186074.58455259618, 0.41600000000000004, 0.842, 0.43, 192.0, 0.0, 0.0, 0.0, 0.0, 0.0, 0.0, 0.0, 0.0, 0.0, 1.7309143138493361E9, 0.0, 2024-11-06 14:31:53.849
110.0, -186487.7565488525, -184203.4753207535, -187500.02235174447, -187500.02235174447, -187500.02235174447, -187500.02235174447, -187500.02235174447, -187500.02235174447, 0.41600000000000004, 0.842, 0.43, 192.0, 0.0, 0.0, 0.0, 0.0, 0.0, 0.0, 0.0, 0.0, 0.0, 1.7309143138542469E9, 0.0, 2024-11-06 14:31:53.854
111.0, -185580.87922106736, -186684.4071965703, -186294.34690408074, -187500.02235174447, -187500.02235174447, -187500.02235174447, -187500.02235174447, -187500.02235174447, 0.41600000000000004, 0.842, 0.43, 192.0, 0.0, 0.0, 0.0, 0.0, 0.0, 0.0, 0.0, 0.0, 0.0, 1.7309143138582244E9, 0.0, 2024-11-06 14:31:53.858
112.0, -187500.02235174447, -184077.97027563697, -187500.02235174447, -187500.02235174447, -187500.02235174447, -187500.02235174447, -187500.02235174447, -187500.02235174447, 0.41600000000000004, 0.842, 0.43, 192.0, 0.0, 0.0, 0.0, 0.0, 0.0, 0.0, 0.0, 0.0, 0.0, 1.730914313862347E9, 0.0, 2024-11-06 14:31:53.862
113.0, -187500.02235174447, -181440.35267118845, -187500.02235174447, -187363.8778762672, -187500.02235174447, -187500.02235174447, -187500.02235174447, -186052.29986337424, 0.41600000000000004, 0.842, 0.43, 192.0, 0.0, 0.0, 0.0, 0.0, 0.0, 0.0, 0.0, 0.0, 0.0, 1.730914313866506E9, 0.0, 2024-11-06 14:31:53.866
114.0, -186890.9149635929, -183553.24072280416, -187500.02235174447, -187500.02235174447, -187500.02235174447, -187500.02235174447, -187500.02235174447, -187269.08412803223, 0.41600000000000004, 0.842, 0.43, 192.0, 0.0, 0.0, 0.0, 0.0, 0.0, 0.0, 0.0, 0.0, 0.0, 1.7309143138702736E9, 0.0, 2024-11-06 14:31:53.870
115.0, -185517.42261855872, -186586.46185236715, -186372.35449222976, -187500.02235174447, -187500.02235174447, -187500.02235174447, -187500.02235174447, -187500.02235174447, 0.41600000000000004, 0.842, 0.43, 192.0, 0.0, 0.0, 0.0, 0.0, 0.0, 0.0, 0.0, 0.0, 0.0, 1.7309143138733401E9, 0.0, 2024-11-06 14:31:53.873
116.0, -187283.63511367264, -184735.1562661119, -187226.66051705607, -187500.02235174447, -187500.02235174447, -187500.02235174447, -187500.02235174447, -187500.02235174447, 0.41600000000000004, 0.842, 0.43, 192.0, 0.0, 0.0, 0.0, 0.0, 0.0, 0.0, 0.0, 0.0, 0.0, 1.7309143138774672E9, 0.0, 2024-11-06 14:31:53.877
117.0, -187500.02235174447, -181592.59040267355, -187500.02235174447, -187500.02235174447, -187500.02235174447, -187500.02235174447, -187500.02235174447, -186125.63593693209, 0.41600000000000004, 0.842, 0.43, 192.0, 0.0, 0.0, 0.0, 0.0, 0.0, 0.0, 0.0, 0.0, 0.0, 1.7309143138822603E9, 0.0, 2024-11-06 14:31:53.882
118.0, -187317.29684082232, -182949.81067774424, -187500.02235174447, -187500.02235174447, -187500.02235174447, -187500.02235174447, -187500.02235174447, -186926.2754233212, 0.41600000000000004, 0.84, 0.436, 192.0, 13.0, 0.0, 26.0, 64.0, 13.0, 160.0, 0.0, 0.0, 0.0, 1.730914313886352E9, 0.0, 2024-11-06 14:31:53.886
119.0, -185559.08627022343, -186312.98825895647, -186559.9303316987, -187500.02235174447, -187500.02235174447, -187500.02235174447, -187500.02235174447, -187500.02235174447, 0.41600000000000004, 0.84, 0.436, 192.0, 0.0, 0.0, 0.0, 0.0, 0.0, 0.0, 0.0, 0.0, 0.0, 1.7309143138902807E9, 0.0, 2024-11-06 14:31:53.890
120.0, -186824.2397098827, -185388.58716351833, -186906.2259085448, -187500.02235174447, -187500.02235174447, -187500.02235174447, -187500.02235174447, -187500.02235174447, 0.41600000000000004, 0.84, 0.436, 192.0, 0.0, 0.0, 0.0, 0.0, 0.0, 0.0, 0.0, 0.0, 0.0, 1.7309143138932827E9, 0.0, 2024-11-06 14:31:53.893
121.0, -187500.02235174447, -181920.37873511063, -187500.02235174447, -187500.02235174447, -187500.02235174447, -187500.02235174447, -187500.02235174447, -186300.15835763913, 0.41600000000000004, 0.84, 0.436, 192.0, 0.0, 0.0, 0.0, 0.0, 0.0, 0.0, 0.0, 0.0, 0.0, 1.7309143138972528E9, 0.0, 2024-11-06 14:31:53.897
122.0, -187500.02235174447, -182400.02481937705, -187500.02235174447, -187500.02235174447, -187500.02235174447, -187500.02235174447, -187500.02235174447, -186618.78247484952, 0.41600000000000004, 0.84, 0.436, 192.0, 0.0, 0.0, 0.0, 0.0, 0.0, 0.0, 0.0, 0.0, 0.0, 1.730914313901333E9, 0.0, 2024-11-06 14:31:53.901
123.0, -185703.99262952717, -185874.89406763247, -186818.91999470236, -187500.02235174447, -187500.02235174447, -187500.02235174447, -187500.02235174447, -187500.02235174447, 0.41600000000000004, 0.84, 0.436, 192.0, 0.0, 0.0, 0.0, 0.0, 0.0, 0.0, 0.0, 0.0, 0.0, 1.7309143139053495E9, 0.0, 2024-11-06 14:31:53.905
124.0, -186406.8432339243, -185944.27388242172, -186628.37137322087, -187500.02235174447, -187500.02235174447, -187500.02235174447, -187500.02235174447, -187500.02235174447, 0.41600000000000004, 0.84, 0.436, 192.0, 0.0, 0.0, 0.0, 0.0, 0.0, 0.0, 0.0, 0.0, 0.0, 1.7309143139105756E9, 0.0, 2024-11-06 14:31:53.910
125.0, -187500.02235174447, -182379.61767668935, -187500.02235174447, -187500.02235174447, -187500.02235174447, -187500.02235174447, -187500.02235174447, -186562.12080265532, 0.41600000000000004, 0.84, 0.436, 192.0, 0.0, 0.0, 0.0, 0.0, 0.0, 0.0, 0.0, 0.0, 0.0, 1.730914313914297E9, 0.0, 2024-11-06 14:31:53.914
126.0, -187500.02235174447, -181946.1502964676, -187500.02235174447, -187294.74393066694, -187500.02235174447, -187500.02235174447, -187500.02235174447, -186364.91136132614, 0.41600000000000004, 0.84, 0.436, 192.0, 0.0, 0.0, 0.0, 0.0, 0.0, 0.0, 0.0, 0.0, 0.0, 1.7309143139183152E9, 0.0, 2024-11-06 14:31:53.918
127.0, -185932.5839200716, -185327.9468808111, -187141.81329510373, -187500.02235174447, -187500.02235174447, -187500.02235174447, -187500.02235174447, -187500.02235174447, 0.41600000000000004, 0.84, 0.436, 192.0, 0.0, 0.0, 0.0, 0.0, 0.0, 0.0, 0.0, 0.0, 0.0, 1.7309143139212575E9, 0.0, 2024-11-06 14:31:53.921
128.0, -186023.93549966044, -186382.74805340148, -186432.34657434782, -187500.02235174447, -187500.02235174447, -187500.02235174447, -187500.02235174447, -187500.02235174447, 0.41400000000000003, 0.844, 0.438, 192.0, 12.0, 240.0, 26.0, 96.0, 13.0, 176.0, 0.0, 0.0, 0.0, 1.7309143139253983E9, 0.0, 2024-11-06 14:31:53.925
129.0, -187500.02235174447, -182953.78928825728, -187500.02235174447, -187500.02235174447, -187500.02235174447, -187500.02235174447, -187500.02235174447, -186894.5582979391, 0.41400000000000003, 0.844, 0.438, 192.0, 0.0, 0.0, 0.0, 0.0, 0.0, 0.0, 0.0, 0.0, 0.0, 1.7309143139292605E9, 0.0, 2024-11-06 14:31:53.929
130.0, -187500.02235174447, -181629.627243236, -187500.02235174447, -187175.00563561986, -187500.02235174447, -187500.02235174447, -187500.02235174447, -186175.63678927862, 0.41400000000000003, 0.844, 0.438, 192.0, 0.0, 0.0, 0.0, 0.0, 0.0, 0.0, 0.0, 0.0, 0.0, 1.7309143139333394E9, 0.0, 2024-11-06 14:31:53.933
131.0, -186246.71533664648, -184721.27583280514, -187494.21089818608, -187500.02235174447, -187500.02235174447, -187500.02235174447, -187500.02235174447, -187500.02235174447, 0.41400000000000003, 0.844, 0.438, 192.0, 0.0, 0.0, 0.0, 0.0, 0.0, 0.0, 0.0, 0.0, 0.0, 1.7309143139383793E9, 0.0, 2024-11-06 14:31:53.938
132.0, -185772.18780186033, -186649.3596612644, -186330.66848882064, -187500.02235174447, -187500.02235174447, -187500.02235174447, -187500.02235174447, -187500.02235174447, 0.41400000000000003, 0.844, 0.438, 192.0, 0.0, 0.0, 0.0, 0.0, 0.0, 0.0, 0.0, 0.0, 0.0, 1.7309143139423456E9, 0.0, 2024-11-06 14:31:53.942
133.0, -187500.02235174447, -183595.4408163358, -187500.02235174447, -187500.02235174447, -187500.02235174447, -187500.02235174447, -187500.02235174447, -187279.76826188187, 0.41400000000000003, 0.844, 0.438, 192.0, 0.0, 0.0, 0.0, 0.0, 0.0, 0.0, 0.0, 0.0, 0.0, 1.7309143139463267E9, 0.0, 2024-11-06 14:31:53.946
134.0, -187500.02235174447, -181465.5877906785, -187500.02235174447, -187220.2902698863, -187500.02235174447, -187500.02235174447, -187500.02235174447, -186077.64674158653, 0.41400000000000003, 0.844, 0.438, 192.0, 0.0, 0.0, 0.0, 0.0, 0.0, 0.0, 0.0, 0.0, 0.0, 1.730914313949324E9, 0.0, 2024-11-06 14:31:53.949
135.0, -186631.9476523337, -184068.91781913256, -187500.02235174447, -187500.02235174447, -187500.02235174447, -187500.02235174447, -187500.02235174447, -187500.02235174447, 0.41400000000000003, 0.844, 0.438, 192.0, 0.0, 0.0, 0.0, 0.0, 0.0, 0.0, 0.0, 0.0, 0.0, 1.730914313953333E9, 0.0, 2024-11-06 14:31:53.953
136.0, -185609.64591618133, -186703.7638072686, -186324.72292479553, -187500.02235174447, -187500.02235174447, -187500.02235174447, -187500.02235174447, -187500.02235174447, 0.41400000000000003, 0.844, 0.438, 192.0, 0.0, 0.0, 0.0, 0.0, 0.0, 0.0, 0.0, 0.0, 0.0, 1.7309143139572797E9, 0.0, 2024-11-06 14:31:53.957
137.0, -187500.02235174447, -184259.39938538068, -187500.02235174447, -187500.02235174447, -187500.02235174447, -187500.02235174447, -187500.02235174447, -187500.02235174447, 0.41400000000000003, 0.844, 0.438, 192.0, 0.0, 0.0, 0.0, 0.0, 0.0, 0.0, 0.0, 0.0, 0.0, 1.7309143139612987E9, 0.0, 2024-11-06 14:31:53.961
138.0, -187500.02235174447, -181489.25828805665, -187500.02235174447, -187440.85728417127, -187500.02235174447, -187500.02235174447, -187500.02235174447, -186076.73032006389, 0.41400000000000003, 0.838, 0.434, 192.0, 12.0, 240.0, 26.0, 48.0, 13.0, 144.0, 0.0, 0.0, 0.0, 1.730914313965416E9, 0.0, 2024-11-06 14:31:53.965
139.0, -187039.08467758712, -183441.81727669446, -187500.02235174447, -187500.02235174447, -187500.02235174447, -187500.02235174447, -187500.02235174447, -187207.34860984667, 0.41400000000000003, 0.838, 0.434, 192.0, 0.0, 0.0, 0.0, 0.0, 0.0, 0.0, 0.0, 0.0, 0.0, 1.7309143139703815E9, 0.0, 2024-11-06 14:31:53.970
140.0, -185543.93178748272, -186573.20726790515, -186430.49137955802, -187500.02235174447, -187500.02235174447, -187500.02235174447, -187500.02235174447, -187500.02235174447, 0.41400000000000003, 0.838, 0.434, 192.0, 0.0, 0.0, 0.0, 0.0, 0.0, 0.0, 0.0, 0.0, 0.0, 1.73091431397449E9, 0.0, 2024-11-06 14:31:53.974
141.0, -187191.4788712834, -184936.85840807657, -187165.5731994597, -187500.02235174447, -187500.02235174447, -187500.02235174447, -187500.02235174447, -187500.02235174447, 0.41400000000000003, 0.838, 0.434, 192.0, 0.0, 0.0, 0.0, 0.0, 0.0, 0.0, 0.0, 0.0, 0.0, 1.730914313977394E9, 0.0, 2024-11-06 14:31:53.977
142.0, -187500.02235174447, -181693.62028761153, -187500.02235174447, -187500.02235174447, -187500.02235174447, -187500.02235174447, -187500.02235174447, -186185.27039113885, 0.41400000000000003, 0.838, 0.434, 192.0, 0.0, 0.0, 0.0, 0.0, 0.0, 0.0, 0.0, 0.0, 0.0, 1.730914313981418E9, 0.0, 2024-11-06 14:31:53.981
143.0, -187468.2605228735, -182841.33766190262, -187500.02235174447, -187500.02235174447, -187500.02235174447, -187500.02235174447, -187500.02235174447, -186865.72454759176, 0.41400000000000003, 0.838, 0.434, 192.0, 0.0, 0.0, 0.0, 0.0, 0.0, 0.0, 0.0, 0.0, 0.0, 1.7309143139854047E9, 0.0, 2024-11-06 14:31:53.985
144.0, -185615.94910811773, -186252.41503148258, -186620.28004172802, -187500.02235174447, -187500.02235174447, -187500.02235174447, -187500.02235174447, -187500.02235174447, 0.41400000000000003, 0.838, 0.434, 192.0, 0.0, 0.0, 0.0, 0.0, 0.0, 0.0, 0.0, 0.0, 0.0, 1.7309143139894638E9, 0.0, 2024-11-06 14:31:53.989
145.0, -186760.5372381851, -185555.66645332176, -186829.4923698297, -187500.02235174447, -187500.02235174447, -187500.02235174447, -187500.02235174447, -187500.02235174447, 0.41400000000000003, 0.838, 0.434, 192.0, 0.0, 0.0, 0.0, 0.0, 0.0, 0.0, 0.0, 0.0, 0.0, 1.7309143139944868E9, 0.0, 2024-11-06 14:31:53.994
146.0, -187500.02235174447, -182039.5805882908, -187500.02235174447, -187500.02235174447, -187500.02235174447, -187500.02235174447, -187500.02235174447, -186363.48084968101, 0.41400000000000003, 0.838, 0.434, 192.0, 0.0, 0.0, 0.0, 0.0, 0.0, 0.0, 0.0, 0.0, 0.0, 1.7309143139983487E9, 0.0, 2024-11-06 14:31:53.998
147.0, -187500.02235174447, -182320.3408503939, -187500.02235174447, -187500.02235174447, -187500.02235174447, -187500.02235174447, -187500.02235174447, -186565.89824746829, 0.41400000000000003, 0.838, 0.434, 192.0, 0.0, 0.0, 0.0, 0.0, 0.0, 0.0, 0.0, 0.0, 0.0, 1.730914314001389E9, 0.0, 2024-11-06 14:31:54.001
148.0, -185781.48612755374, -185797.78054926166, -186896.36878924, -187500.02235174447, -187500.02235174447, -187500.02235174447, -187500.02235174447, -187500.02235174447, 0.41200000000000003, 0.84, 0.428, 192.0, 12.0, 224.0, 26.0, 64.0, 13.0, 96.0, 0.0, 0.0, 0.0, 1.7309143140053475E9, 0.0, 2024-11-06 14:31:54.005
149.0, -186328.12038995273, -186103.39595119905, -186579.71162554165, -187500.02235174447, -187500.02235174447, -187500.02235174447, -187500.02235174447, -187500.02235174447, 0.41200000000000003, 0.84, 0.428, 192.0, 0.0, 0.0, 0.0, 0.0, 0.0, 0.0, 0.0, 0.0, 0.0, 1.7309143140093973E9, 0.0, 2024-11-06 14:31:54.009
150.0, -187500.02235174447, -182552.82134447354, -187500.02235174447, -187500.02235174447, -187500.02235174447, -187500.02235174447, -187500.02235174447, -186654.92524563376, 0.41200000000000003, 0.84, 0.428, 192.0, 0.0, 0.0, 0.0, 0.0, 0.0, 0.0, 0.0, 0.0, 0.0, 1.7309143140134563E9, 0.0, 2024-11-06 14:31:54.013
151.0, -187500.02235174447, -181900.99977266788, -187500.02235174447, -187279.38828222614, -187500.02235174447, -187500.02235174447, -187500.02235174447, -186325.01349747344, 0.41200000000000003, 0.84, 0.428, 192.0, 0.0, 0.0, 0.0, 0.0, 0.0, 0.0, 0.0, 0.0, 0.0, 1.7309143140174716E9, 0.0, 2024-11-06 14:31:54.017
152.0, -186037.99474692284, -185229.37568776318, -187223.4418658545, -187500.02235174447, -187500.02235174447, -187500.02235174447, -187500.02235174447, -187500.02235174447, 0.41200000000000003, 0.84, 0.428, 192.0, 0.0, 0.0, 0.0, 0.0, 0.0, 0.0, 0.0, 0.0, 0.0, 1.7309143140215075E9, 0.0, 2024-11-06 14:31:54.021
153.0, -185983.5458974297, -186503.1345490378, -186390.99584710549, -187500.02235174447, -187500.02235174447, -187500.02235174447, -187500.02235174447, -187500.02235174447, 0.41200000000000003, 0.84, 0.428, 192.0, 0.0, 0.0, 0.0, 0.0, 0.0, 0.0, 0.0, 0.0, 0.0, 1.7309143140265326E9, 0.0, 2024-11-06 14:31:54.026
154.0, -187500.02235174447, -183137.5876829133, -187500.02235174447, -187500.02235174447, -187500.02235174447, -187500.02235174447, -187500.02235174447, -186996.6387148665, 0.41200000000000003, 0.84, 0.428, 192.0, 0.0, 0.0, 0.0, 0.0, 0.0, 0.0, 0.0, 0.0, 0.0, 1.7309143140294452E9, 0.0, 2024-11-06 14:31:54.029
155.0, -187500.02235174447, -181611.43292324938, -187500.02235174447, -187201.40304582156, -187500.02235174447, -187500.02235174447, -187500.02235174447, -186158.0012629034, 0.41200000000000003, 0.84, 0.428, 192.0, 0.0, 0.0, 0.0, 0.0, 0.0, 0.0, 0.0, 0.0, 0.0, 1.7309143140333748E9, 0.0, 2024-11-06 14:31:54.033
156.0, -186364.7325473705, -184609.58416576197, -187500.02235174447, -187500.02235174447, -187500.02235174447, -187500.02235174447, -187500.02235174447, -187500.02235174447, 0.41200000000000003, 0.84, 0.428, 192.0, 0.0, 0.0, 0.0, 0.0, 0.0, 0.0, 0.0, 0.0, 0.0, 1.730914314037456E9, 0.0, 2024-11-06 14:31:54.037
157.0, -185728.4454379613, -186721.24287143265, -186317.34684912526, -187500.02235174447, -187500.02235174447, -187500.02235174447, -187500.02235174447, -187500.02235174447, 0.41200000000000003, 0.84, 0.428, 192.0, 0.0, 0.0, 0.0, 0.0, 0.0, 0.0, 0.0, 0.0, 0.0, 1.730914314041446E9, 0.0, 2024-11-06 14:31:54.041
158.0, -187500.02235174447, -183788.69399889637, -187500.02235174447, -187500.02235174447, -187500.02235174447, -187500.02235174447, -187500.02235174447, -187386.81076607833, 0.41200000000000003, 0.84, 0.432, 192.0, 12.0, 224.0, 26.0, 64.0, 13.0, 128.0, 0.0, 0.0, 0.0, 1.7309143140454743E9, 0.0, 2024-11-06 14:31:54.045
159.0, -187500.02235174447, -181495.2485555707, -187500.02235174447, -187290.38534049815, -187500.02235174447, -187500.02235174447, -187500.02235174447, -186084.6651893455, 0.41200000000000003, 0.84, 0.432, 192.0, 0.0, 0.0, 0.0, 0.0, 0.0, 0.0, 0.0, 0.0, 0.0, 1.7309143140494611E9, 0.0, 2024-11-06 14:31:54.049
160.0, -186746.1203630114, -183962.99290215885, -187500.02235174447, -187500.02235174447, -187500.02235174447, -187500.02235174447, -187500.02235174447, -187500.02235174447, 0.41200000000000003, 0.84, 0.432, 192.0, 0.0, 0.0, 0.0, 0.0, 0.0, 0.0, 0.0, 0.0, 0.0, 1.73091431405459E9, 0.0, 2024-11-06 14:31:54.054
161.0, -185588.03177929306, -186732.37404017142, -186347.20877971756, -187500.02235174447, -187500.02235174447, -187500.02235174447, -187500.02235174447, -187500.02235174447, 0.41200000000000003, 0.84, 0.432, 192.0, 0.0, 0.0, 0.0, 0.0, 0.0, 0.0, 0.0, 0.0, 0.0, 1.7309143140573924E9, 0.0, 2024-11-06 14:31:54.057
162.0, -187500.02235174447, -184468.18703033772, -187441.9301679051, -187500.02235174447, -187500.02235174447, -187500.02235174447, -187500.02235174447, -187500.02235174447, 0.41200000000000003, 0.84, 0.432, 192.0, 0.0, 0.0, 0.0, 0.0, 0.0, 0.0, 0.0, 0.0, 0.0, 1.7309143140614443E9, 0.0, 2024-11-06 14:31:54.061
163.0, -187500.02235174447, -181560.1580214689, -187500.02235174447, -187500.02235174447, -187500.02235174447, -187500.02235174447, -187500.02235174447, -186109.8779570911, 0.41200000000000003, 0.84, 0.432, 192.0, 0.0, 0.0, 0.0, 0.0, 0.0, 0.0, 0.0, 0.0, 0.0, 1.730914314065439E9, 0.0, 2024-11-06 14:31:54.065
164.0, -187169.2165338059, -183329.8126852289, -187500.02235174447, -187500.02235174447, -187500.02235174447, -187500.02235174447, -187500.02235174447, -187136.15830375653, 0.41200000000000003, 0.84, 0.432, 192.0, 0.0, 0.0, 0.0, 0.0, 0.0, 0.0, 0.0, 0.0, 0.0, 1.7309143140694869E9, 0.0, 2024-11-06 14:31:54.069
165.0, -185590.49047118312, -186550.8331717054, -186479.6205138708, -187500.02235174447, -187500.02235174447, -187500.02235174447, -187500.02235174447, -187500.02235174447, 0.41200000000000003, 0.84, 0.432, 192.0, 0.0, 0.0, 0.0, 0.0, 0.0, 0.0, 0.0, 0.0, 0.0, 1.7309143140734563E9, 0.0, 2024-11-06 14:31:54.073
166.0, -187126.8152745742, -185123.67428823403, -187095.43342535896, -187500.02235174447, -187500.02235174447, -187500.02235174447, -187500.02235174447, -187500.02235174447, 0.41200000000000003, 0.84, 0.432, 192.0, 0.0, 0.0, 0.0, 0.0, 0.0, 0.0, 0.0, 0.0, 0.0, 1.7309143140775025E9, 0.0, 2024-11-06 14:31:54.077
167.0, -187500.02235174447, -181789.46456783588, -187500.02235174447, -187500.02235174447, -187500.02235174447, -187500.02235174447, -187500.02235174447, -186238.9145778316, 0.41200000000000003, 0.84, 0.432, 192.0, 0.0, 0.0, 0.0, 0.0, 0.0, 0.0, 0.0, 0.0, 0.0, 1.73091431408254E9, 0.0, 2024-11-06 14:31:54.082
168.0, -187500.02235174447, -182741.17949499842, -187500.02235174447, -187500.02235174447, -187500.02235174447, -187500.02235174447, -187500.02235174447, -186813.2426516107, 0.41200000000000003, 0.838, 0.432, 192.0, 12.0, 224.0, 26.0, 48.0, 13.0, 128.0, 0.0, 0.0, 0.0, 1.7309143140855813E9, 0.0, 2024-11-06 14:31:54.085
169.0, -185668.5651145655, -186186.43268185054, -186700.9698392117, -187500.02235174447, -187500.02235174447, -187500.02235174447, -187500.02235174447, -187500.02235174447, 0.41200000000000003, 0.838, 0.432, 192.0, 0.0, 0.0, 0.0, 0.0, 0.0, 0.0, 0.0, 0.0, 0.0, 1.7309143140886033E9, 0.0, 2024-11-06 14:31:54.088
170.0, -186661.02727187006, -185725.338545482, -186784.63241870792, -187500.02235174447, -187500.02235174447, -187500.02235174447, -187500.02235174447, -187500.02235174447, 0.41200000000000003, 0.838, 0.432, 192.0, 0.0, 0.0, 0.0, 0.0, 0.0, 0.0, 0.0, 0.0, 0.0, 1.7309143140939984E9, 0.0, 2024-11-06 14:31:54.093
171.0, -187500.02235174447, -182173.1099096668, -187500.02235174447, -187500.02235174447, -187500.02235174447, -187500.02235174447, -187500.02235174447, -186449.82563851186, 0.41200000000000003, 0.838, 0.432, 192.0, 0.0, 0.0, 0.0, 0.0, 0.0, 0.0, 0.0, 0.0, 0.0, 1.7309143140975332E9, 0.0, 2024-11-06 14:31:54.097
172.0, -187500.02235174447, -182223.8036660914, -187500.02235174447, -187464.37131933824, -187500.02235174447, -187500.02235174447, -187500.02235174447, -186518.40079050075, 0.41200000000000003, 0.838, 0.432, 192.0, 0.0, 0.0, 0.0, 0.0, 0.0, 0.0, 0.0, 0.0, 0.0, 1.7309143141017575E9, 0.0, 2024-11-06 14:31:54.101
173.0, -185850.32950047607, -185682.2890856611, -186990.6931508414, -187500.02235174447, -187500.02235174447, -187500.02235174447, -187500.02235174447, -187500.02235174447, 0.41200000000000003, 0.838, 0.432, 192.0, 0.0, 0.0, 0.0, 0.0, 0.0, 0.0, 0.0, 0.0, 0.0, 1.7309143141056948E9, 0.0, 2024-11-06 14:31:54.105
174.0, -186266.67544444508, -186223.69303985752, -186552.1742763727, -187500.02235174447, -187500.02235174447, -187500.02235174447, -187500.02235174447, -187500.02235174447, 0.41200000000000003, 0.838, 0.432, 192.0, 0.0, 0.0, 0.0, 0.0, 0.0, 0.0, 0.0, 0.0, 0.0, 1.7309143141109955E9, 0.0, 2024-11-06 14:31:54.110
175.0, -187500.02235174447, -182698.59942181106, -187500.02235174447, -187500.02235174447, -187500.02235174447, -187500.02235174447, -187500.02235174447, -186748.64611013487, 0.41200000000000003, 0.838, 0.432, 192.0, 0.0, 0.0, 0.0, 0.0, 0.0, 0.0, 0.0, 0.0, 0.0, 1.7309143141136518E9, 0.0, 2024-11-06 14:31:54.113
176.0, -187500.02235174447, -181834.83860908015, -187500.02235174447, -187276.39314846913, -187500.02235174447, -187500.02235174447, -187500.02235174447, -186298.63843901615, 0.41200000000000003, 0.838, 0.432, 192.0, 0.0, 0.0, 0.0, 0.0, 0.0, 0.0, 0.0, 0.0, 0.0, 1.7309143141176398E9, 0.0, 2024-11-06 14:31:54.117
177.0, -186128.85458813366, -185103.0883315907, -187329.5232450394, -187500.02235174447, -187500.02235174447, -187500.02235174447, -187500.02235174447, -187500.02235174447, 0.41200000000000003, 0.838, 0.432, 192.0, 0.0, 0.0, 0.0, 0.0, 0.0, 0.0, 0.0, 0.0, 0.0, 1.730914314121725E9, 0.0, 2024-11-06 14:31:54.121
178.0, -185938.1942079299, -186584.78547153302, -186384.20091679107, -187500.02235174447, -187500.02235174447, -187500.02235174447, -187500.02235174447, -187500.02235174447, 0.41400000000000003, 0.836, 0.428, 192.0, 12.0, 240.0, 26.0, 32.0, 13.0, 96.0, 0.0, 0.0, 0.0, 1.730914314125685E9, 0.0, 2024-11-06 14:31:54.125
179.0, -187500.02235174447, -183307.93032740717, -187500.02235174447, -187500.02235174447, -187500.02235174447, -187500.02235174447, -187500.02235174447, -187107.59277434263, 0.41400000000000003, 0.836, 0.428, 192.0, 0.0, 0.0, 0.0, 0.0, 0.0, 0.0, 0.0, 0.0, 0.0, 1.730914314129697E9, 0.0, 2024-11-06 14:31:54.129
180.0, -187500.02235174447, -181583.87322233597, -187500.02235174447, -187237.5011131169, -187500.02235174447, -187500.02235174447, -187500.02235174447, -186153.0838791232, 0.41400000000000003, 0.836, 0.428, 192.0, 0.0, 0.0, 0.0, 0.0, 0.0, 0.0, 0.0, 0.0, 0.0, 1.730914314133572E9, 0.0, 2024-11-06 14:31:54.133
181.0, -186480.58163888237, -184468.47760301564, -187500.02235174447, -187500.02235174447, -187500.02235174447, -187500.02235174447, -187500.02235174447, -187500.02235174447, 0.41400000000000003, 0.836, 0.428, 192.0, 0.0, 0.0, 0.0, 0.0, 0.0, 0.0, 0.0, 0.0, 0.0, 1.730914314137772E9, 0.0, 2024-11-06 14:31:54.137
182.0, -185740.18010380032, -186757.05036605007, -186337.79869530187, -187500.02235174447, -187500.02235174447, -187500.02235174447, -187500.02235174447, -187500.02235174447, 0.41400000000000003, 0.836, 0.428, 192.0, 0.0, 0.0, 0.0, 0.0, 0.0, 0.0, 0.0, 0.0, 0.0, 1.7309143141407268E9, 0.0, 2024-11-06 14:31:54.140
183.0, -187500.02235174447, -183967.1279748831, -187500.02235174447, -187500.02235174447, -187500.02235174447, -187500.02235174447, -187500.02235174447, -187500.02235174447, 0.41400000000000003, 0.836, 0.428, 192.0, 0.0, 0.0, 0.0, 0.0, 0.0, 0.0, 0.0, 0.0, 0.0, 1.730914314144748E9, 0.0, 2024-11-06 14:31:54.144
184.0, -187500.02235174447, -181510.44774180028, -187500.02235174447, -187371.45511763755, -187500.02235174447, -187500.02235174447, -187500.02235174447, -186113.07425654822, 0.41400000000000003, 0.836, 0.428, 192.0, 0.0, 0.0, 0.0, 0.0, 0.0, 0.0, 0.0, 0.0, 0.0, 1.7309143141496763E9, 0.0, 2024-11-06 14:31:54.149
185.0, -186868.63027437095, -183823.80858943565, -187500.02235174447, -187500.02235174447, -187500.02235174447, -187500.02235174447, -187500.02235174447, -187441.0360981269, 0.41400000000000003, 0.836, 0.428, 192.0, 0.0, 0.0, 0.0, 0.0, 0.0, 0.0, 0.0, 0.0, 0.0, 1.7309143141535645E9, 0.0, 2024-11-06 14:31:54.153
186.0, -185607.8577766249, -186720.88524352136, -186389.69944592708, -187500.02235174447, -187500.02235174447, -187500.02235174447, -187500.02235174447, -187500.02235174447, 0.41400000000000003, 0.836, 0.428, 192.0, 0.0, 0.0, 0.0, 0.0, 0.0, 0.0, 0.0, 0.0, 0.0, 1.7309143141576548E9, 0.0, 2024-11-06 14:31:54.157
187.0, -187488.48885160554, -184642.329471389, -187372.9750362605, -187500.02235174447, -187500.02235174447, -187500.02235174447, -187500.02235174447, -187500.02235174447, 0.41400000000000003, 0.836, 0.428, 192.0, 0.0, 0.0, 0.0, 0.0, 0.0, 0.0, 0.0, 0.0, 0.0, 1.730914314161696E9, 0.0, 2024-11-06 14:31:54.161
188.0, -187500.02235174447, -181622.13940884345, -187500.02235174447, -187500.02235174447, -187500.02235174447, -187500.02235174447, -187500.02235174447, -186163.76801297284, 0.418, 0.842, 0.43, 192.0, 13.0, 16.0, 26.0, 80.0, 13.0, 112.0, 0.0, 0.0, 0.0, 1.730914314165733E9, 0.0, 2024-11-06 14:31:54.165
189.0, -187303.32700053777, -183205.5369860574, -187500.02235174447, -187500.02235174447, -187500.02235174447, -187500.02235174447, -187500.02235174447, -187080.74832925183, 0.418, 0.842, 0.43, 192.0, 0.0, 0.0, 0.0, 0.0, 0.0, 0.0, 0.0, 0.0, 0.0, 1.7309143141687095E9, 0.0, 2024-11-06 14:31:54.168
190.0, -185610.85291038192, -186496.58548791238, -186537.80210468796, -187500.02235174447, -187500.02235174447, -187500.02235174447, -187500.02235174447, -187500.02235174447, 0.418, 0.842, 0.43, 192.0, 0.0, 0.0, 0.0, 0.0, 0.0, 0.0, 0.0, 0.0, 0.0, 1.7309143141728144E9, 0.0, 2024-11-06 14:31:54.172
191.0, -187039.97874736533, -185284.09275818977, -187025.1818925359, -187500.02235174447, -187500.02235174447, -187500.02235174447, -187500.02235174447, -187500.02235174447, 0.418, 0.842, 0.43, 192.0, 0.0, 0.0, 0.0, 0.0, 0.0, 0.0, 0.0, 0.0, 0.0, 1.7309143141777031E9, 0.0, 2024-11-06 14:31:54.177
192.0, -187500.02235174447, -181881.66551371402, -187500.02235174447, -187500.02235174447, -187500.02235174447, -187500.02235174447, -187500.02235174447, -186303.35465709624, 0.418, 0.842, 0.43, 192.0, 0.0, 0.0, 0.0, 0.0, 0.0, 0.0, 0.0, 0.0, 0.0, 1.730914314181599E9, 0.0, 2024-11-06 14:31:54.181
193.0, -187500.02235174447, -182630.22543552227, -187500.02235174447, -187500.02235174447, -187500.02235174447, -187500.02235174447, -187500.02235174447, -186769.29912201158, 0.418, 0.842, 0.43, 192.0, 0.0, 0.0, 0.0, 0.0, 0.0, 0.0, 0.0, 0.0, 0.0, 1.7309143141857352E9, 0.0, 2024-11-06 14:31:54.185
194.0, -185744.42693524683, -186098.25504997434, -186773.6800639248, -187500.02235174447, -187500.02235174447, -187500.02235174447, -187500.02235174447, -187500.02235174447, 0.418, 0.842, 0.43, 192.0, 0.0, 0.0, 0.0, 0.0, 0.0, 0.0, 0.0, 0.0, 0.0, 1.7309143141895978E9, 0.0, 2024-11-06 14:31:54.189
195.0, -186613.01572478007, -185871.16132630841, -186731.25645294864, -187500.02235174447, -187500.02235174447, -187500.02235174447, -187500.02235174447, -187500.02235174447, 0.418, 0.842, 0.43, 192.0, 0.0, 0.0, 0.0, 0.0, 0.0, 0.0, 0.0, 0.0, 0.0, 1.7309143141928449E9, 0.0, 2024-11-06 14:31:54.192
196.0, -187500.02235174447, -182307.46624558762, -187500.02235174447, -187500.02235174447, -187500.02235174447, -187500.02235174447, -187500.02235174447, -186540.88664542278, 0.418, 0.842, 0.43, 192.0, 0.0, 0.0, 0.0, 0.0, 0.0, 0.0, 0.0, 0.0, 0.0, 1.730914314196643E9, 0.0, 2024-11-06 14:31:54.196
197.0, -187500.02235174447, -182143.35973779677, -187500.02235174447, -187434.3305747903, -187500.02235174447, -187500.02235174447, -187500.02235174447, -186496.58548791238, 0.418, 0.842, 0.43, 192.0, 0.0, 0.0, 0.0, 0.0, 0.0, 0.0, 0.0, 0.0, 0.0, 1.7309143142006505E9, 0.0, 2024-11-06 14:31:54.200
198.0, -185944.51975161073, -185573.547848886, -187076.99323618333, -187500.02235174447, -187500.02235174447, -187500.02235174447, -187500.02235174447, -187500.02235174447, 0.418, 0.842, 0.428, 192.0, 13.0, 16.0, 26.0, 80.0, 13.0, 96.0, 0.0, 0.0, 0.0, 1.7309143142058516E9, 0.0, 2024-11-06 14:31:54.205
199.0, -186220.87672005614, -186344.30305293837, -186514.64569743225, -187500.02235174447, -187500.02235174447, -187500.02235174447, -187500.02235174447, -187500.02235174447, 0.418, 0.842, 0.428, 192.0, 0.0, 0.0, 0.0, 0.0, 0.0, 0.0, 0.0, 0.0, 0.0, 1.7309143142096255E9, 0.0, 2024-11-06 14:31:54.209
200.0, -187500.02235174447, -182852.17825796347, -187500.02235174447, -187500.02235174447, -187500.02235174447, -187500.02235174447, -187500.02235174447, -186856.02389049815, 0.418, 0.842, 0.428, 192.0, 0.0, 0.0, 0.0, 0.0, 0.0, 0.0, 0.0, 0.0, 0.0, 1.7309143142136717E9, 0.0, 2024-11-06 14:31:54.213
201.0, -187500.02235174447, -181777.2605153633, -187500.02235174447, -187265.23962798592, -187500.02235174447, -187500.02235174447, -187500.02235174447, -186283.0592731308, 0.418, 0.842, 0.428, 192.0, 0.0, 0.0, 0.0, 0.0, 0.0, 0.0, 0.0, 0.0, 0.0, 1.730914314217686E9, 0.0, 2024-11-06 14:31:54.217
202.0, -186243.87666510066, -184972.665902694, -187420.27132752794, -187500.02235174447, -187500.02235174447, -187500.02235174447, -187500.02235174447, -187500.02235174447, 0.418, 0.842, 0.428, 192.0, 0.0, 0.0, 0.0, 0.0, 0.0, 0.0, 0.0, 0.0, 0.0, 1.7309143142216876E9, 0.0, 2024-11-06 14:31:54.221
203.0, -185930.4381526039, -186656.69103344574, -186382.36807374575, -187500.02235174447, -187500.02235174447, -187500.02235174447, -187500.02235174447, -187500.02235174447, 0.418, 0.842, 0.428, 192.0, 0.0, 0.0, 0.0, 0.0, 0.0, 0.0, 0.0, 0.0, 0.0, 1.7309143142247005E9, 0.0, 2024-11-06 14:31:54.224
204.0, -187500.02235174447, -183471.2098206532, -187500.02235174447, -187500.02235174447, -187500.02235174447, -187500.02235174447, -187500.02235174447, -187226.86168275616, 0.418, 0.842, 0.428, 192.0, 0.0, 0.0, 0.0, 0.0, 0.0, 0.0, 0.0, 0.0, 0.0, 1.7309143142288156E9, 0.0, 2024-11-06 14:31:54.228
205.0, -187500.02235174447, -181565.1648122269, -187500.02235174447, -187265.5972558972, -187500.02235174447, -187500.02235174447, -187500.02235174447, -186159.1412018706, 0.418, 0.842, 0.428, 192.0, 0.0, 0.0, 0.0, 0.0, 0.0, 0.0, 0.0, 0.0, 0.0, 1.730914314232758E9, 0.0, 2024-11-06 14:31:54.232
206.0, -186604.96909677616, -184329.29329029244, -187500.02235174447, -187500.02235174447, -187500.02235174447, -187500.02235174447, -187500.02235174447, -187500.02235174447, 0.418, 0.842, 0.428, 192.0, 0.0, 0.0, 0.0, 0.0, 0.0, 0.0, 0.0, 0.0, 0.0, 1.7309143142377248E9, 0.0, 2024-11-06 14:31:54.237
207.0, -185719.8847198349, -186778.4409854938, -186364.12905027022, -187500.02235174447, -187500.02235174447, -187500.02235174447, -187500.02235174447, -187500.02235174447, 0.418, 0.842, 0.428, 192.0, 0.0, 0.0, 0.0, 0.0, 0.0, 0.0, 0.0, 0.0, 0.0, 1.7309143142416928E9, 0.0, 2024-11-06 14:31:54.241
208.0, -187500.02235174447, -184132.64264257465, -187500.02235174447, -187500.02235174447, -187500.02235174447, -187500.02235174447, -187500.02235174447, -187500.02235174447, 0.418, 0.844, 0.426, 192.0, 13.0, 16.0, 26.0, 96.0, 13.0, 80.0, 0.0, 0.0, 0.0, 1.73091431424573E9, 0.0, 2024-11-06 14:31:54.245
209.0, -187500.02235174447, -181530.16198040987, -187500.02235174447, -187424.74167641898, -187500.02235174447, -187500.02235174447, -187500.02235174447, -186129.4357334895, 0.418, 0.844, 0.426, 192.0, 0.0, 0.0, 0.0, 0.0, 0.0, 0.0, 0.0, 0.0, 0.0, 1.7309143142498264E9, 0.0, 2024-11-06 14:31:54.249
210.0, -186998.42685442293, -183682.43380575583, -187500.02235174447, -187500.02235174447, -187500.02235174447, -187500.02235174447, -187500.02235174447, -187375.1208037282, 0.418, 0.844, 0.426, 192.0, 0.0, 0.0, 0.0, 0.0, 0.0, 0.0, 0.0, 0.0, 0.0, 1.7309143142527244E9, 0.0, 2024-11-06 14:31:54.252
211.0, -185635.75275370514, -186690.35276059542, -186443.43303959764, -187500.02235174447, -187500.02235174447, -187500.02235174447, -187500.02235174447, -187500.02235174447, 0.418, 0.844, 0.426, 192.0, 0.0, 0.0, 0.0, 0.0, 0.0, 0.0, 0.0, 0.0, 0.0, 1.730914314256621E9, 0.0, 2024-11-06 14:31:54.256
212.0, -187421.97006010654, -184806.83831058006, -187314.2570035764, -187500.02235174447, -187500.02235174447, -187500.02235174447, -187500.02235174447, -187500.02235174447, 0.418, 0.844, 0.426, 192.0, 0.0, 0.0, 0.0, 0.0, 0.0, 0.0, 0.0, 0.0, 0.0, 1.7309143142618191E9, 0.0, 2024-11-06 14:31:54.261
213.0, -187500.02235174447, -181684.45607238487, -187500.02235174447, -187500.02235174447, -187500.02235174447, -187500.02235174447, -187500.02235174447, -186213.18771996352, 0.418, 0.844, 0.426, 192.0, 0.0, 0.0, 0.0, 0.0, 0.0, 0.0, 0.0, 0.0, 0.0, 1.7309143142658713E9, 0.0, 2024-11-06 14:31:54.265
214.0, -187433.72707769004, -183079.69666477403, -187500.02235174447, -187500.02235174447, -187500.02235174447, -187500.02235174447, -187500.02235174447, -187038.9952706093, 0.418, 0.844, 0.426, 192.0, 0.0, 0.0, 0.0, 0.0, 0.0, 0.0, 0.0, 0.0, 0.0, 1.7309143142698035E9, 0.0, 2024-11-06 14:31:54.269
215.0, -185669.43683259928, -186430.37962083574, -186607.42778866625, -187500.02235174447, -187500.02235174447, -187500.02235174447, -187500.02235174447, -187500.02235174447, 0.418, 0.844, 0.426, 192.0, 0.0, 0.0, 0.0, 0.0, 0.0, 0.0, 0.0, 0.0, 0.0, 1.7309143142727768E9, 0.0, 2024-11-06 14:31:54.272
216.0, -186959.91479872642, -185453.98836779458, -186970.80009827617, -187500.02235174447, -187500.02235174447, -187500.02235174447, -187500.02235174447, -187500.02235174447, 0.418, 0.844, 0.426, 192.0, 0.0, 0.0, 0.0, 0.0, 0.0, 0.0, 0.0, 0.0, 0.0, 1.7309143142767155E9, 0.0, 2024-11-06 14:31:54.276
217.0, -187500.02235174447, -181994.34065751324, -187500.02235174447, -187500.02235174447, -187500.02235174447, -187500.02235174447, -187500.02235174447, -186382.74805340148, 0.418, 0.844, 0.426, 192.0, 0.0, 0.0, 0.0, 0.0, 0.0, 0.0, 0.0, 0.0, 0.0, 1.730914314280702E9, 0.0, 2024-11-06 14:31:54.280
218.0, -187500.02235174447, -182522.87000690342, -187500.02235174447, -187500.02235174447, -187500.02235174447, -187500.02235174447, -187500.02235174447, -186720.86289177692, 0.41600000000000004, 0.842, 0.434, 192.0, 13.0, 0.0, 26.0, 80.0, 13.0, 144.0, 0.0, 0.0, 0.0, 1.7309143142846804E9, 0.0, 2024-11-06 14:31:54.284
219.0, -185808.82231102258, -185996.97929584736, -186865.47867840275, -187500.02235174447, -187500.02235174447, -187500.02235174447, -187500.02235174447, -187500.02235174447, 0.41600000000000004, 0.842, 0.434, 192.0, 0.0, 0.0, 0.0, 0.0, 0.0, 0.0, 0.0, 0.0, 0.0, 1.7309143142886956E9, 0.0, 2024-11-06 14:31:54.288
220.0, -186527.29678479396, -186025.88010142805, -186693.99609494163, -187500.02235174447, -187500.02235174447, -187500.02235174447, -187500.02235174447, -187500.02235174447, 0.41600000000000004, 0.842, 0.434, 192.0, 0.0, 0.0, 0.0, 0.0, 0.0, 0.0, 0.0, 0.0, 0.0, 1.7309143142938223E9, 0.0, 2024-11-06 14:31:54.293
221.0, -187500.02235174447, -182475.99839878065, -187500.02235174447, -187500.02235174447, -187500.02235174447, -187500.02235174447, -187500.02235174447, -186657.31688229047, 0.41600000000000004, 0.842, 0.434, 192.0, 0.0, 0.0, 0.0, 0.0, 0.0, 0.0, 0.0, 0.0, 0.0, 1.7309143142977784E9, 0.0, 2024-11-06 14:31:54.297
222.0, -187500.02235174447, -182064.68159731408, -187500.02235174447, -187391.10230101374, -187500.02235174447, -187500.02235174447, -187500.02235174447, -186458.96750199408, 0.41600000000000004, 0.842, 0.434, 192.0, 0.0, 0.0, 0.0, 0.0, 0.0, 0.0, 0.0, 0.0, 0.0, 1.730914314300812E9, 0.0, 2024-11-06 14:31:54.300
223.0, -186043.1132964031, -185450.34503344836, -187184.21455433543, -187500.02235174447, -187500.02235174447, -187500.02235174447, -187500.02235174447, -187500.02235174447, 0.41600000000000004, 0.842, 0.434, 192.0, 0.0, 0.0, 0.0, 0.0, 0.0, 0.0, 0.0, 0.0, 0.0, 1.7309143143047223E9, 0.0, 2024-11-06 14:31:54.304
224.0, -186163.85741995065, -186460.3086066614, -186499.0665315469, -187500.02235174447, -187500.02235174447, -187500.02235174447, -187500.02235174447, -187500.02235174447, 0.41600000000000004, 0.842, 0.434, 192.0, 0.0, 0.0, 0.0, 0.0, 0.0, 0.0, 0.0, 0.0, 0.0, 1.73091431430878E9, 0.0, 2024-11-06 14:31:54.308
225.0, -187500.02235174447, -183024.04082108033, -187500.02235174447, -187500.02235174447, -187500.02235174447, -187500.02235174447, -187500.02235174447, -186969.79426977568, 0.41600000000000004, 0.842, 0.434, 192.0, 0.0, 0.0, 0.0, 0.0, 0.0, 0.0, 0.0, 0.0, 0.0, 1.7309143143129356E9, 0.0, 2024-11-06 14:31:54.312
226.0, -187500.02235174447, -181736.02154684326, -187500.02235174447, -187256.6565581151, -187500.02235174447, -187500.02235174447, -187500.02235174447, -186274.8114794268, 0.41600000000000004, 0.842, 0.434, 192.0, 0.0, 0.0, 0.0, 0.0, 0.0, 0.0, 0.0, 0.0, 0.0, 1.7309143143167686E9, 0.0, 2024-11-06 14:31:54.316
227.0, -186343.7889628159, -184841.90819763043, -187500.02235174447, -187500.02235174447, -187500.02235174447, -187500.02235174447, -187500.02235174447, -187500.02235174447, 0.41600000000000004, 0.842, 0.434, 192.0, 0.0, 0.0, 0.0, 0.0, 0.0, 0.0, 0.0, 0.0, 0.0, 1.7309143143218548E9, 0.0, 2024-11-06 14:31:54.321
228.0, -185885.80171892664, -186730.74236282616, -186407.55848974688, -187500.02235174447, -187500.02235174447, -187500.02235174447, -187500.02235174447, -187500.02235174447, 0.418, 0.838, 0.432, 192.0, 13.0, 16.0, 26.0, 48.0, 13.0, 128.0, 0.0, 0.0, 0.0, 1.730914314325912E9, 0.0, 2024-11-06 14:31:54.325
229.0, -187500.02235174447, -183658.22686651075, -187500.02235174447, -187500.02235174447, -187500.02235174447, -187500.02235174447, -187500.02235174447, -187346.04118419185, 0.418, 0.838, 0.432, 192.0, 0.0, 0.0, 0.0, 0.0, 0.0, 0.0, 0.0, 0.0, 0.0, 1.7309143143287938E9, 0.0, 2024-11-06 14:31:54.328
230.0, -187500.02235174447, -181575.13369025395, -187500.02235174447, -187301.4047505146, -187500.02235174447, -187500.02235174447, -187500.02235174447, -186171.00997817636, 0.418, 0.838, 0.432, 192.0, 0.0, 0.0, 0.0, 0.0, 0.0, 0.0, 0.0, 0.0, 0.0, 1.7309143143331127E9, 0.0, 2024-11-06 14:31:54.333
231.0, -186718.69477256475, -184211.41019003515, -187500.02235174447, -187500.02235174447, -187500.02235174447, -187500.02235174447, -187500.02235174447, -187500.02235174447, 0.418, 0.838, 0.432, 192.0, 0.0, 0.0, 0.0, 0.0, 0.0, 0.0, 0.0, 0.0, 0.0, 1.7309143143368015E9, 0.0, 2024-11-06 14:31:54.336
232.0, -185703.61264987144, -186810.38162832044, -186390.97349536105, -187500.02235174447, -187500.02235174447, -187500.02235174447, -187500.02235174447, -187500.02235174447, 0.418, 0.838, 0.432, 192.0, 0.0, 0.0, 0.0, 0.0, 0.0, 0.0, 0.0, 0.0, 0.0, 1.7309143143408728E9, 0.0, 2024-11-06 14:31:54.340
233.0, -187500.02235174447, -184326.54402572443, -187500.02235174447, -187500.02235174447, -187500.02235174447, -187500.02235174447, -187500.02235174447, -187500.02235174447, 0.418, 0.838, 0.432, 192.0, 0.0, 0.0, 0.0, 0.0, 0.0, 0.0, 0.0, 0.0, 0.0, 1.7309143143449428E9, 0.0, 2024-11-06 14:31:54.344
234.0, -187500.02235174447, -181579.00054204473, -187500.02235174447, -187493.58504934135, -187500.02235174447, -187500.02235174447, -187500.02235174447, -186158.2471320924, 0.418, 0.838, 0.432, 192.0, 0.0, 0.0, 0.0, 0.0, 0.0, 0.0, 0.0, 0.0, 0.0, 1.7309143143499238E9, 0.0, 2024-11-06 14:31:54.349
235.0, -187114.90179477952, -183565.5788857435, -187500.02235174447, -187500.02235174447, -187500.02235174447, -187500.02235174447, -187500.02235174447, -187315.44164603253, 0.418, 0.838, 0.432, 192.0, 0.0, 0.0, 0.0, 0.0, 0.0, 0.0, 0.0, 0.0, 0.0, 1.7309143143538113E9, 0.0, 2024-11-06 14:31:54.353
236.0, -185648.560303278, -186677.0087691556, -186485.87900231828, -187500.02235174447, -187500.02235174447, -187500.02235174447, -187500.02235174447, -187500.02235174447, 0.418, 0.838, 0.432, 192.0, 0.0, 0.0, 0.0, 0.0, 0.0, 0.0, 0.0, 0.0, 0.0, 1.7309143143568585E9, 0.0, 2024-11-06 14:31:54.356
237.0, -187329.23267236145, -185006.10411239913, -187236.7411538054, -187500.02235174447, -187500.02235174447, -187500.02235174447, -187500.02235174447, -187500.02235174447, 0.418, 0.838, 0.432, 192.0, 0.0, 0.0, 0.0, 0.0, 0.0, 0.0, 0.0, 0.0, 0.0, 1.7309143143607717E9, 0.0, 2024-11-06 14:31:54.360
238.0, -187500.02235174447, -181773.907753695, -187500.02235174447, -187500.02235174447, -187500.02235174447, -187500.02235174447, -187500.02235174447, -186265.84842990024, 0.41400000000000003, 0.842, 0.424, 192.0, 12.0, 240.0, 26.0, 80.0, 13.0, 64.0, 0.0, 0.0, 0.0, 1.7309143143649032E9, 0.0, 2024-11-06 14:31:54.364
239.0, -187500.02235174447, -182965.25573316286, -187500.02235174447, -187500.02235174447, -187500.02235174447, -187500.02235174447, -187500.02235174447, -186974.1752116889, 0.41400000000000003, 0.842, 0.424, 192.0, 0.0, 0.0, 0.0, 0.0, 0.0, 0.0, 0.0, 0.0, 0.0, 1.73091431436893E9, 0.0, 2024-11-06 14:31:54.368
240.0, -185714.11796976544, -186370.63340790672, -186680.562696524, -187500.02235174447, -187500.02235174447, -187500.02235174447, -187500.02235174447, -187500.02235174447, 0.41400000000000003, 0.842, 0.424, 192.0, 0.0, 0.0, 0.0, 0.0, 0.0, 0.0, 0.0, 0.0, 0.0, 1.7309143143730633E9, 0.0, 2024-11-06 14:31:54.373
241.0, -186872.74299535074, -185620.53121573105, -186922.20740583033, -187500.02235174447, -187500.02235174447, -187500.02235174447, -187500.02235174447, -187500.02235174447, 0.41400000000000003, 0.842, 0.424, 192.0, 0.0, 0.0, 0.0, 0.0, 0.0, 0.0, 0.0, 0.0, 0.0, 1.7309143143779123E9, 0.0, 2024-11-06 14:31:54.377
242.0, -187500.02235174447, -182118.32578400683, -187500.02235174447, -187500.02235174447, -187500.02235174447, -187500.02235174447, -187500.02235174447, -186450.83146701235, 0.41400000000000003, 0.842, 0.424, 192.0, 0.0, 0.0, 0.0, 0.0, 0.0, 0.0, 0.0, 0.0, 0.0, 1.7309143143808348E9, 0.0, 2024-11-06 14:31:54.380
243.0, -187500.02235174447, -182428.9479767022, -187500.02235174447, -187500.02235174447, -187500.02235174447, -187500.02235174447, -187500.02235174447, -186669.56563825198, 0.41400000000000003, 0.842, 0.424, 192.0, 0.0, 0.0, 0.0, 0.0, 0.0, 0.0, 0.0, 0.0, 0.0, 1.730914314384852E9, 0.0, 2024-11-06 14:31:54.384
244.0, -185880.59376246855, -185906.49943429226, -186953.41044108995, -187500.02235174447, -187500.02235174447, -187500.02235174447, -187500.02235174447, -187500.02235174447, 0.41400000000000003, 0.842, 0.424, 192.0, 0.0, 0.0, 0.0, 0.0, 0.0, 0.0, 0.0, 0.0, 0.0, 1.7309143143888533E9, 0.0, 2024-11-06 14:31:54.388
245.0, -186480.20165922662, -186168.97596943093, -186659.46264975818, -187500.02235174447, -187500.02235174447, -187500.02235174447, -187500.02235174447, -187500.02235174447, 0.41400000000000003, 0.842, 0.424, 192.0, 0.0, 0.0, 0.0, 0.0, 0.0, 0.0, 0.0, 0.0, 0.0, 1.7309143143930492E9, 0.0, 2024-11-06 14:31:54.393
246.0, -187500.02235174447, -182615.07095278156, -187500.02235174447, -187500.02235174447, -187500.02235174447, -187500.02235174447, -187500.02235174447, -186733.49162739416, 0.41400000000000003, 0.842, 0.424, 192.0, 0.0, 0.0, 0.0, 0.0, 0.0, 0.0, 0.0, 0.0, 0.0, 1.730914314396835E9, 0.0, 2024-11-06 14:31:54.396
247.0, -187500.02235174447, -181994.8547476357, -187500.02235174447, -187370.94102751507, -187500.02235174447, -187500.02235174447, -187500.02235174447, -186422.46710329858, 0.41400000000000003, 0.842, 0.424, 192.0, 0.0, 0.0, 0.0, 0.0, 0.0, 0.0, 0.0, 0.0, 0.0, 1.7309143144008074E9, 0.0, 2024-11-06 14:31:54.400
248.0, -186140.2763295503, -185333.1995407581, -187287.56902069677, -187500.02235174447, -187500.02235174447, -187500.02235174447, -187500.02235174447, -187500.02235174447, 0.41600000000000004, 0.844, 0.424, 192.0, 13.0, 0.0, 26.0, 96.0, 13.0, 64.0, 0.0, 0.0, 0.0, 1.730914314405913E9, 0.0, 2024-11-06 14:31:54.405
249.0, -186109.27445999082, -186570.21213414814, -186481.4086534272, -187500.02235174447, -187500.02235174447, -187500.02235174447, -187500.02235174447, -187500.02235174447, 0.41600000000000004, 0.844, 0.424, 192.0, 0.0, 0.0, 0.0, 0.0, 0.0, 0.0, 0.0, 0.0, 0.0, 1.7309143144089196E9, 0.0, 2024-11-06 14:31:54.408
250.0, -187500.02235174447, -183193.981134174, -187500.02235174447, -187500.02235174447, -187500.02235174447, -187500.02235174447, -187500.02235174447, -187068.49957329032, 0.41600000000000004, 0.844, 0.424, 192.0, 0.0, 0.0, 0.0, 0.0, 0.0, 0.0, 0.0, 0.0, 0.0, 1.730914314412004E9, 0.0, 2024-11-06 14:31:54.412
251.0, -187500.02235174447, -181704.14795924997, -187500.02235174447, -187282.85280261672, -187500.02235174447, -187500.02235174447, -187500.02235174447, -186251.20803728202, 0.41600000000000004, 0.844, 0.424, 192.0, 0.0, 0.0, 0.0, 0.0, 0.0, 0.0, 0.0, 0.0, 0.0, 1.7309143144168613E9, 0.0, 2024-11-06 14:31:54.416
252.0, -186467.505868376, -184713.2515565457, -187500.02235174447, -187500.02235174447, -187500.02235174447, -187500.02235174447, -187500.02235174447, -187500.02235174447, 0.41600000000000004, 0.844, 0.424, 192.0, 0.0, 0.0, 0.0, 0.0, 0.0, 0.0, 0.0, 0.0, 0.0, 1.730914314420879E9, 0.0, 2024-11-06 14:31:54.420
253.0, -185876.30222753313, -186796.30002931357, -186403.46812051156, -187500.02235174447, -187500.02235174447, -187500.02235174447, -187500.02235174447, -187500.02235174447, 0.41600000000000004, 0.844, 0.424, 192.0, 0.0, 0.0, 0.0, 0.0, 0.0, 0.0, 0.0, 0.0, 0.0, 1.73091431442488E9, 0.0, 2024-11-06 14:31:54.424
254.0, -187500.02235174447, -183852.41882233846, -187500.02235174447, -187500.02235174447, -187500.02235174447, -187500.02235174447, -187500.02235174447, -187466.83001122833, 0.41600000000000004, 0.844, 0.424, 192.0, 0.0, 0.0, 0.0, 0.0, 0.0, 0.0, 0.0, 0.0, 0.0, 1.730914314428835E9, 0.0, 2024-11-06 14:31:54.428
255.0, -187500.02235174447, -181583.40383570243, -187500.02235174447, -187374.76317581692, -187500.02235174447, -187500.02235174447, -187500.02235174447, -186175.77089974534, 0.41600000000000004, 0.844, 0.424, 192.0, 0.0, 0.0, 0.0, 0.0, 0.0, 0.0, 0.0, 0.0, 0.0, 1.7309143144338748E9, 0.0, 2024-11-06 14:31:54.433
0.0, -186855.59920735352, -184066.50383073138, -187500.02235174447, -187500.02235174447, -187500.02235174447, -187500.02235174447, -187500.02235174447, -187500.02235174447, 0.41600000000000004, 0.844, 0.424, 192.0, 0.0, 0.0, 0.0, 0.0, 0.0, 0.0, 0.0, 0.0, 0.0, 1.7309143144368415E9, 0.0, 2024-11-06 14:31:54.436
1.0, -185719.4376849458, -186812.50504404368, -186445.04236519843, -187500.02235174447, -187500.02235174447, -187500.02235174447, -187500.02235174447, -187500.02235174447, 0.41600000000000004, 0.844, 0.424, 192.0, 0.0, 0.0, 0.0, 0.0, 0.0, 0.0, 0.0, 0.0, 0.0, 1.7309143144398966E9, 0.0, 2024-11-06 14:31:54.439
2.0, -187500.02235174447, -184522.300603664, -187500.02235174447, -187500.02235174447, -187500.02235174447, -187500.02235174447, -187500.02235174447, -187500.02235174447, 0.422, 0.846, 0.424, 192.0, 13.0, 48.0, 26.0, 112.0, 13.0, 64.0, 0.0, 0.0, 0.0, 1.7309143144449809E9, 0.0, 2024-11-06 14:31:54.444
3.0, -187500.02235174447, -181635.19282760535, -187500.02235174447, -187500.02235174447, -187500.02235174447, -187500.02235174447, -187500.02235174447, -186194.97104823246, 0.422, 0.846, 0.424, 192.0, 0.0, 0.0, 0.0, 0.0, 0.0, 0.0, 0.0, 0.0, 0.0, 1.730914314448873E9, 0.0, 2024-11-06 14:31:54.448
4.0, -187264.61377914116, -183439.2468260821, -187500.02235174447, -187500.02235174447, -187500.02235174447, -187500.02235174447, -187500.02235174447, -187243.37962190862, 0.422, 0.846, 0.424, 192.0, 0.0, 0.0, 0.0, 0.0, 0.0, 0.0, 0.0, 0.0, 0.0, 1.7309143144531324E9, 0.0, 2024-11-06 14:31:54.453
5.0, -185693.46495788873, -186645.91749261826, -186563.61836953383, -187500.02235174447, -187500.02235174447, -187500.02235174447, -187500.02235174447, -187500.02235174447, 0.422, 0.846, 0.424, 192.0, 0.0, 0.0, 0.0, 0.0, 0.0, 0.0, 0.0, 0.0, 0.0, 1.7309143144570053E9, 0.0, 2024-11-06 14:31:54.457
6.0, -187248.63228185562, -185187.04148376483, -187203.30294410026, -187500.02235174447, -187500.02235174447, -187500.02235174447, -187500.02235174447, -187500.02235174447, 0.422, 0.846, 0.424, 192.0, 0.0, 0.0, 0.0, 0.0, 0.0, 0.0, 0.0, 0.0, 0.0, 1.7309143144620423E9, 0.0, 2024-11-06 14:31:54.462
7.0, -187500.02235174447, -181873.8647548991, -187500.02235174447, -187500.02235174447, -187500.02235174447, -187500.02235174447, -187500.02235174447, -186318.06210494784, 0.422, 0.846, 0.424, 192.0, 0.0, 0.0, 0.0, 0.0, 0.0, 0.0, 0.0, 0.0, 0.0, 1.7309143144648635E9, 0.0, 2024-11-06 14:31:54.464
8.0, -187500.02235174447, -182851.93238877447, -187500.02235174447, -187500.02235174447, -187500.02235174447, -187500.02235174447, -187500.02235174447, -186905.84592888903, 0.422, 0.846, 0.424, 192.0, 0.0, 0.0, 0.0, 0.0, 0.0, 0.0, 0.0, 0.0, 0.0, 1.7309143144678814E9, 0.0, 2024-11-06 14:31:54.467
9.0, -185775.92054318436, -186285.7638342099, -186774.10474706945, -187500.02235174447, -187500.02235174447, -187500.02235174447, -187500.02235174447, -187500.02235174447, 0.422, 0.846, 0.424, 192.0, 0.0, 0.0, 0.0, 0.0, 0.0, 0.0, 0.0, 0.0, 0.0, 1.7309143144730706E9, 0.0, 2024-11-06 14:31:54.473
10.0, -186798.82577643704, -185796.84177599452, -186876.09575701904, -187500.02235174447, -187500.02235174447, -187500.02235174447, -187500.02235174447, -187500.02235174447, 0.422, 0.846, 0.424, 192.0, 0.0, 0.0, 0.0, 0.0, 0.0, 0.0, 0.0, 0.0, 0.0, 1.7309143144768984E9, 0.0, 2024-11-06 14:31:54.476
11.0, -187500.02235174447, -182268.35069279085, -187500.02235174447, -187500.02235174447, -187500.02235174447, -187500.02235174447, -187500.02235174447, -186534.49404650857, 0.422, 0.846, 0.424, 192.0, 0.0, 0.0, 0.0, 0.0, 0.0, 0.0, 0.0, 0.0, 0.0, 1.7309143144809146E9, 0.0, 2024-11-06 14:31:54.480
12.0, -187500.02235174447, -182346.04535651748, -187500.02235174447, -187500.02235174447, -187500.02235174447, -187500.02235174447, -187500.02235174447, -186619.3412684609, 0.41600000000000004, 0.84, 0.43, 192.0, 13.0, 0.0, 26.0, 64.0, 13.0, 112.0, 0.0, 0.0, 0.0, 1.7309143144848747E9, 0.0, 2024-11-06 14:31:54.484
13.0, -185972.10180426858, -185808.68820055583, -187063.24691334332, -187500.02235174447, -187500.02235174447, -187500.02235174447, -187500.02235174447, -187500.02235174447, 0.41600000000000004, 0.84, 0.43, 192.0, 0.0, 0.0, 0.0, 0.0, 0.0, 0.0, 0.0, 0.0, 0.0, 1.730914314490034E9, 0.0, 2024-11-06 14:31:54.490
14.0, -186398.48368149804, -186319.96200322654, -186625.8456260974, -187500.02235174447, -187500.02235174447, -187500.02235174447, -187500.02235174447, -187500.02235174447, 0.41600000000000004, 0.84, 0.43, 192.0, 0.0, 0.0, 0.0, 0.0, 0.0, 0.0, 0.0, 0.0, 0.0, 1.73091431449328E9, 0.0, 2024-11-06 14:31:54.493
15.0, -187500.02235174447, -182805.3960568185, -187500.02235174447, -187500.02235174447, -187500.02235174447, -187500.02235174447, -187500.02235174447, -186848.2007799388, 0.41600000000000004, 0.84, 0.43, 192.0, 0.0, 0.0, 0.0, 0.0, 0.0, 0.0, 0.0, 0.0, 0.0, 1.7309143144959557E9, 0.0, 2024-11-06 14:31:54.495
16.0, -187500.02235174447, -181946.93260752351, -187500.02235174447, -187320.44843679052, -187500.02235174447, -187500.02235174447, -187500.02235174447, -186384.6926551691, 0.41600000000000004, 0.84, 0.43, 192.0, 0.0, 0.0, 0.0, 0.0, 0.0, 0.0, 0.0, 0.0, 0.0, 1.7309143145009415E9, 0.0, 2024-11-06 14:31:54.500
17.0, -186250.62689192616, -185222.02196383738, -187397.02551329441, -187500.02235174447, -187500.02235174447, -187500.02235174447, -187500.02235174447, -187500.02235174447, 0.41600000000000004, 0.84, 0.43, 192.0, 0.0, 0.0, 0.0, 0.0, 0.0, 0.0, 0.0, 0.0, 0.0, 1.7309143145049636E9, 0.0, 2024-11-06 14:31:54.504
18.0, -186070.40477638302, -186676.02529239957, -186478.97231328159, -187500.02235174447, -187500.02235174447, -187500.02235174447, -187500.02235174447, -187500.02235174447, 0.41600000000000004, 0.84, 0.43, 192.0, 0.0, 0.0, 0.0, 0.0, 0.0, 0.0, 0.0, 0.0, 0.0, 1.7309143145089452E9, 0.0, 2024-11-06 14:31:54.508
19.0, -187500.02235174447, -183397.9855058176, -187500.02235174447, -187500.02235174447, -187500.02235174447, -187500.02235174447, -187500.02235174447, -187191.30005732775, 0.41600000000000004, 0.84, 0.43, 192.0, 0.0, 0.0, 0.0, 0.0, 0.0, 0.0, 0.0, 0.0, 0.0, 1.7309143145131867E9, 0.0, 2024-11-06 14:31:54.513
20.0, -187500.02235174447, -181696.72718009082, -187500.02235174447, -187285.19973578452, -187500.02235174447, -187500.02235174447, -187500.02235174447, -186242.13322903315, 0.41600000000000004, 0.84, 0.43, 192.0, 0.0, 0.0, 0.0, 0.0, 0.0, 0.0, 0.0, 0.0, 0.0, 1.730914314516997E9, 0.0, 2024-11-06 14:31:54.516
21.0, -186596.40837864976, -184594.78731093256, -187500.02235174447, -187500.02235174447, -187500.02235174447, -187500.02235174447, -187500.02235174447, -187500.02235174447, 0.41600000000000004, 0.84, 0.43, 192.0, 0.0, 0.0, 0.0, 0.0, 0.0, 0.0, 0.0, 0.0, 0.0, 1.7309143145199373E9, 0.0, 2024-11-06 14:31:54.519
22.0, -185844.7639161067, -186858.03554749914, -186430.67019351368, -187500.02235174447, -187500.02235174447, -187500.02235174447, -187500.02235174447, -187500.02235174447, 0.41400000000000003, 0.838, 0.424, 192.0, 12.0, 240.0, 26.0, 48.0, 13.0, 64.0, 0.0, 0.0, 0.0, 1.7309143145239928E9, 0.0, 2024-11-06 14:31:54.523
23.0, -187500.02235174447, -184047.88482760012, -187500.02235174447, -187500.02235174447, -187500.02235174447, -187500.02235174447, -187500.02235174447, -187500.02235174447, 0.41400000000000003, 0.838, 0.424, 192.0, 0.0, 0.0, 0.0, 0.0, 0.0, 0.0, 0.0, 0.0, 0.0, 1.730914314528982E9, 0.0, 2024-11-06 14:31:54.528
24.0, -187500.02235174447, -181609.0636383371, -187500.02235174447, -187402.8816703417, -187500.02235174447, -187500.02235174447, -187500.02235174447, -186187.48321383994, 0.41400000000000003, 0.838, 0.424, 192.0, 0.0, 0.0, 0.0, 0.0, 0.0, 0.0, 0.0, 0.0, 0.0, 1.7309143145333104E9, 0.0, 2024-11-06 14:31:54.533
25.0, -186965.86036275153, -183941.4234687595, -187500.02235174447, -187500.02235174447, -187500.02235174447, -187500.02235174447, -187500.02235174447, -187500.02235174447, 0.41400000000000003, 0.838, 0.424, 192.0, 0.0, 0.0, 0.0, 0.0, 0.0, 0.0, 0.0, 0.0, 0.0, 1.7309143145369956E9, 0.0, 2024-11-06 14:31:54.536
26.0, -185733.9886705862, -186818.3835528354, -186471.17155446668, -187500.02235174447, -187500.02235174447, -187500.02235174447, -187500.02235174447, -187500.02235174447, 0.41400000000000003, 0.838, 0.424, 192.0, 0.0, 0.0, 0.0, 0.0, 0.0, 0.0, 0.0, 0.0, 0.0, 1.730914314541063E9, 0.0, 2024-11-06 14:31:54.541
27.0, -187500.02235174447, -184728.96483289776, -187463.3431390933, -187500.02235174447, -187500.02235174447, -187500.02235174447, -187500.02235174447, -187500.02235174447, 0.41400000000000003, 0.838, 0.424, 192.0, 0.0, 0.0, 0.0, 0.0, 0.0, 0.0, 0.0, 0.0, 0.0, 1.7309143145440664E9, 0.0, 2024-11-06 14:31:54.544
28.0, -187500.02235174447, -181719.95064257988, -187500.02235174447, -187500.02235174447, -187500.02235174447, -187500.02235174447, -187500.02235174447, -186242.5579121778, 0.41400000000000003, 0.838, 0.424, 192.0, 0.0, 0.0, 0.0, 0.0, 0.0, 0.0, 0.0, 0.0, 0.0, 1.7309143145479743E9, 0.0, 2024-11-06 14:31:54.547
29.0, -187409.67660065612, -183318.63681300127, -187500.02235174447, -187500.02235174447, -187500.02235174447, -187500.02235174447, -187500.02235174447, -187172.9269233855, 0.41400000000000003, 0.838, 0.424, 192.0, 0.0, 0.0, 0.0, 0.0, 0.0, 0.0, 0.0, 0.0, 0.0, 1.7309143145519907E9, 0.0, 2024-11-06 14:31:54.551
30.0, -185735.26272002017, -186602.97979151964, -186623.92337607426, -187500.02235174447, -187500.02235174447, -187500.02235174447, -187500.02235174447, -187500.02235174447, 0.41400000000000003, 0.838, 0.424, 192.0, 0.0, 0.0, 0.0, 0.0, 0.0, 0.0, 0.0, 0.0, 0.0, 1.7309143145561707E9, 0.0, 2024-11-06 14:31:54.556
31.0, -187165.50614422635, -185374.12558485576, -187127.68699260795, -187500.02235174447, -187500.02235174447, -187500.02235174447, -187500.02235174447, -187500.02235174447, 0.41400000000000003, 0.838, 0.424, 192.0, 0.0, 0.0, 0.0, 0.0, 0.0, 0.0, 0.0, 0.0, 0.0, 1.730914314561168E9, 0.0, 2024-11-06 14:31:54.561
32.0, -187500.02235174447, -181985.91404985357, -187500.02235174447, -187500.02235174447, -187500.02235174447, -187500.02235174447, -187500.02235174447, -186380.93756210062, 0.41200000000000003, 0.842, 0.428, 192.0, 12.0, 224.0, 26.0, 80.0, 13.0, 96.0, 0.0, 0.0, 0.0, 1.730914314565216E9, 0.0, 2024-11-06 14:31:54.565
33.0, -187500.02235174447, -182739.12313450853, -187500.02235174447, -187500.02235174447, -187500.02235174447, -187500.02235174447, -187500.02235174447, -186835.594396066, 0.41200000000000003, 0.842, 0.428, 192.0, 0.0, 0.0, 0.0, 0.0, 0.0, 0.0, 0.0, 0.0, 0.0, 1.730914314569116E9, 0.0, 2024-11-06 14:31:54.569
34.0, -185850.32950047607, -186203.8893942701, -186864.96458828027, -187500.02235174447, -187500.02235174447, -187500.02235174447, -187500.02235174447, -187500.02235174447, 0.41200000000000003, 0.842, 0.428, 192.0, 0.0, 0.0, 0.0, 0.0, 0.0, 0.0, 0.0, 0.0, 0.0, 1.7309143145721688E9, 0.0, 2024-11-06 14:31:54.572
35.0, -186722.38281039987, -185958.06490875065, -186849.87716077294, -187500.02235174447, -187500.02235174447, -187500.02235174447, -187500.02235174447, -187500.02235174447, 0.41200000000000003, 0.842, 0.428, 192.0, 0.0, 0.0, 0.0, 0.0, 0.0, 0.0, 0.0, 0.0, 0.0, 1.7309143145761056E9, 0.0, 2024-11-06 14:31:54.576
36.0, -187500.02235174447, -182410.70895322668, -187500.02235174447, -187500.02235174447, -187500.02235174447, -187500.02235174447, -187500.02235174447, -186616.5920038929, 0.41200000000000003, 0.842, 0.428, 192.0, 0.0, 0.0, 0.0, 0.0, 0.0, 0.0, 0.0, 0.0, 0.0, 1.730914314580207E9, 0.0, 2024-11-06 14:31:54.580
37.0, -187500.02235174447, -182250.58105594886, -187500.02235174447, -187500.02235174447, -187500.02235174447, -187500.02235174447, -187500.02235174447, -186561.7855264885, 0.41200000000000003, 0.842, 0.428, 192.0, 0.0, 0.0, 0.0, 0.0, 0.0, 0.0, 0.0, 0.0, 0.0, 1.7309143145842464E9, 0.0, 2024-11-06 14:31:54.584
38.0, -186061.0617472007, -185683.3396176505, -187177.6207897211, -187500.02235174447, -187500.02235174447, -187500.02235174447, -187500.02235174447, -187500.02235174447, 0.41200000000000003, 0.842, 0.428, 192.0, 0.0, 0.0, 0.0, 0.0, 0.0, 0.0, 0.0, 0.0, 0.0, 1.7309143145891025E9, 0.0, 2024-11-06 14:31:54.589
39.0, -186339.13979996918, -186434.22412088205, -186627.298489487, -187500.02235174447, -187500.02235174447, -187500.02235174447, -187500.02235174447, -187500.02235174447, 0.41200000000000003, 0.842, 0.428, 192.0, 0.0, 0.0, 0.0, 0.0, 0.0, 0.0, 0.0, 0.0, 0.0, 1.730914314593454E9, 0.0, 2024-11-06 14:31:54.593
40.0, -187500.02235174447, -182946.32380560922, -187500.02235174447, -187500.02235174447, -187500.02235174447, -187500.02235174447, -187500.02235174447, -186914.58546097105, 0.41200000000000003, 0.842, 0.428, 192.0, 0.0, 0.0, 0.0, 0.0, 0.0, 0.0, 0.0, 0.0, 0.0, 1.730914314597263E9, 0.0, 2024-11-06 14:31:54.597
41.0, -187500.02235174447, -181886.71700796092, -187500.02235174447, -187341.05674517833, -187500.02235174447, -187500.02235174447, -187500.02235174447, -186349.22043671852, 0.41200000000000003, 0.842, 0.428, 192.0, 0.0, 0.0, 0.0, 0.0, 0.0, 0.0, 0.0, 0.0, 0.0, 1.7309143146012652E9, 0.0, 2024-11-06 14:31:54.601
42.0, -186344.5712738718, -185090.8395756292, -187500.02235174447, -187500.02235174447, -187500.02235174447, -187500.02235174447, -187500.02235174447, -187500.02235174447, 0.41600000000000004, 0.84, 0.43, 192.0, 13.0, 0.0, 26.0, 64.0, 13.0, 112.0, 0.0, 0.0, 0.0, 1.730914314604575E9, 0.0, 2024-11-06 14:31:54.604
43.0, -186030.0151741523, -186760.8725143519, -186482.52624064998, -187500.02235174447, -187500.02235174447, -187500.02235174447, -187500.02235174447, -187500.02235174447, 0.41600000000000004, 0.84, 0.43, 192.0, 0.0, 0.0, 0.0, 0.0, 0.0, 0.0, 0.0, 0.0, 0.0, 1.730914314608249E9, 0.0, 2024-11-06 14:31:54.608
44.0, -187500.02235174447, -183562.24847581965, -187500.02235174447, -187500.02235174447, -187500.02235174447, -187500.02235174447, -187500.02235174447, -187281.55640143828, 0.41600000000000004, 0.84, 0.43, 192.0, 0.0, 0.0, 0.0, 0.0, 0.0, 0.0, 0.0, 0.0, 0.0, 1.7309143146122413E9, 0.0, 2024-11-06 14:31:54.612
45.0, -187500.02235174447, -181671.1791361784, -187500.02235174447, -187329.00915491692, -187500.02235174447, -187500.02235174447, -187500.02235174447, -186234.69009812953, 0.41600000000000004, 0.84, 0.43, 192.0, 0.0, 0.0, 0.0, 0.0, 0.0, 0.0, 0.0, 0.0, 0.0, 1.730914314617178E9, 0.0, 2024-11-06 14:31:54.617
46.0, -186695.8736414759, -184450.5962074514, -187500.02235174447, -187500.02235174447, -187500.02235174447, -187500.02235174447, -187500.02235174447, -187500.02235174447, 0.41600000000000004, 0.84, 0.43, 192.0, 0.0, 0.0, 0.0, 0.0, 0.0, 0.0, 0.0, 0.0, 0.0, 1.7309143146212518E9, 0.0, 2024-11-06 14:31:54.621
47.0, -185805.17897667637, -186885.41643445689, -186461.29208341744, -187500.02235174447, -187500.02235174447, -187500.02235174447, -187500.02235174447, -187500.02235174447, 0.41600000000000004, 0.84, 0.43, 192.0, 0.0, 0.0, 0.0, 0.0, 0.0, 0.0, 0.0, 0.0, 0.0, 1.730914314624354E9, 0.0, 2024-11-06 14:31:54.624
48.0, -187500.02235174447, -184237.0923444143, -187500.02235174447, -187500.02235174447, -187500.02235174447, -187500.02235174447, -187500.02235174447, -187500.02235174447, 0.41600000000000004, 0.84, 0.43, 192.0, 0.0, 0.0, 0.0, 0.0, 0.0, 0.0, 0.0, 0.0, 0.0, 1.7309143146292267E9, 0.0, 2024-11-06 14:31:54.629
49.0, -187500.02235174447, -181641.40661256394, -187500.02235174447, -187500.02235174447, -187500.02235174447, -187500.02235174447, -187500.02235174447, -186215.69111534252, 0.41600000000000004, 0.84, 0.43, 192.0, 0.0, 0.0, 0.0, 0.0, 0.0, 0.0, 0.0, 0.0, 0.0, 1.7309143146331763E9, 0.0, 2024-11-06 14:31:54.633
50.0, -187089.21964040038, -183812.3421445301, -187500.02235174447, -187500.02235174447, -187500.02235174447, -187500.02235174447, -187500.02235174447, -187463.76782223795, 0.41600000000000004, 0.84, 0.43, 192.0, 0.0, 0.0, 0.0, 0.0, 0.0, 0.0, 0.0, 0.0, 0.0, 1.730914314637427E9, 0.0, 2024-11-06 14:31:54.637
51.0, -185733.16165604137, -186811.90154694338, -186533.64468021927, -187500.02235174447, -187500.02235174447, -187500.02235174447, -187500.02235174447, -187500.02235174447, 0.41600000000000004, 0.84, 0.43, 192.0, 0.0, 0.0, 0.0, 0.0, 0.0, 0.0, 0.0, 0.0, 0.0, 1.7309143146402457E9, 0.0, 2024-11-06 14:31:54.640
52.0, -187500.02235174447, -184908.42698912942, -187419.10903681625, -187500.02235174447, -187500.02235174447, -187500.02235174447, -187500.02235174447, -187500.02235174447, 0.41200000000000003, 0.842, 0.428, 192.0, 12.0, 224.0, 26.0, 80.0, 13.0, 96.0, 0.0, 0.0, 0.0, 1.7309143146443896E9, 0.0, 2024-11-06 14:31:54.644
53.0, -187500.02235174447, -181783.72016951087, -187500.02235174447, -187500.02235174447, -187500.02235174447, -187500.02235174447, -187500.02235174447, -186286.83671794378, 0.41200000000000003, 0.842, 0.428, 192.0, 0.0, 0.0, 0.0, 0.0, 0.0, 0.0, 0.0, 0.0, 0.0, 1.7309143146481066E9, 0.0, 2024-11-06 14:31:54.648
54.0, -187500.02235174447, -183192.0812358953, -187500.02235174447, -187500.02235174447, -187500.02235174447, -187500.02235174447, -187500.02235174447, -187111.9737162559, 0.41200000000000003, 0.842, 0.428, 192.0, 0.0, 0.0, 0.0, 0.0, 0.0, 0.0, 0.0, 0.0, 0.0, 1.7309143146521287E9, 0.0, 2024-11-06 14:31:54.652
55.0, -185764.87878142344, -186537.39977328776, -186706.08838869195, -187500.02235174447, -187500.02235174447, -187500.02235174447, -187500.02235174447, -187500.02235174447, 0.41200000000000003, 0.842, 0.428, 192.0, 0.0, 0.0, 0.0, 0.0, 0.0, 0.0, 0.0, 0.0, 0.0, 1.7309143146572073E9, 0.0, 2024-11-06 14:31:54.657
56.0, -187067.53844827873, -185545.96579622815, -187075.62977977155, -187500.02235174447, -187500.02235174447, -187500.02235174447, -187500.02235174447, -187500.02235174447, 0.41200000000000003, 0.842, 0.428, 192.0, 0.0, 0.0, 0.0, 0.0, 0.0, 0.0, 0.0, 0.0, 0.0, 1.7309143146612413E9, 0.0, 2024-11-06 14:31:54.661
57.0, -187500.02235174447, -182102.8360250993, -187500.02235174447, -187500.02235174447, -187500.02235174447, -187500.02235174447, -187500.02235174447, -186460.68858631715, 0.41200000000000003, 0.842, 0.428, 192.0, 0.0, 0.0, 0.0, 0.0, 0.0, 0.0, 0.0, 0.0, 0.0, 1.7309143146653385E9, 0.0, 2024-11-06 14:31:54.665
58.0, -187500.02235174447, -182636.57333094758, -187500.02235174447, -187500.02235174447, -187500.02235174447, -187500.02235174447, -187500.02235174447, -186795.40595953536, 0.41200000000000003, 0.842, 0.428, 192.0, 0.0, 0.0, 0.0, 0.0, 0.0, 0.0, 0.0, 0.0, 0.0, 1.7309143146682389E9, 0.0, 2024-11-06 14:31:54.668
59.0, -185905.29244009167, -186111.86726234763, -186952.35990910055, -187500.02235174447, -187500.02235174447, -187500.02235174447, -187500.02235174447, -187500.02235174447, 0.41200000000000003, 0.842, 0.428, 192.0, 0.0, 0.0, 0.0, 0.0, 0.0, 0.0, 0.0, 0.0, 0.0, 1.7309143146722417E9, 0.0, 2024-11-06 14:31:54.672
60.0, -186643.36939375036, -186109.96736406893, -186789.0357123656, -187500.02235174447, -187500.02235174447, -187500.02235174447, -187500.02235174447, -187500.02235174447, 0.41200000000000003, 0.842, 0.428, 192.0, 0.0, 0.0, 0.0, 0.0, 0.0, 0.0, 0.0, 0.0, 0.0, 1.730914314676098E9, 0.0, 2024-11-06 14:31:54.676
61.0, -187500.02235174447, -182546.96518742625, -187500.02235174447, -187500.02235174447, -187500.02235174447, -187500.02235174447, -187500.02235174447, -186713.64327831785, 0.41200000000000003, 0.842, 0.428, 192.0, 0.0, 0.0, 0.0, 0.0, 0.0, 0.0, 0.0, 0.0, 0.0, 1.7309143146803904E9, 0.0, 2024-11-06 14:31:54.680
62.0, -187500.02235174447, -182172.3946538442, -187500.02235174447, -187466.18181063913, -187500.02235174447, -187500.02235174447, -187500.02235174447, -186540.70783146715, 0.41600000000000004, 0.844, 0.43, 192.0, 13.0, 0.0, 26.0, 96.0, 13.0, 112.0, 0.0, 0.0, 0.0, 1.7309143146842444E9, 0.0, 2024-11-06 14:31:54.684
63.0, -186141.10334409517, -185568.58576161694, -187268.16770650956, -187500.02235174447, -187500.02235174447, -187500.02235174447, -187500.02235174447, -187500.02235174447, 0.41600000000000004, 0.844, 0.43, 192.0, 0.0, 0.0, 0.0, 0.0, 0.0, 0.0, 0.0, 0.0, 0.0, 1.7309143146893065E9, 0.0, 2024-11-06 14:31:54.689
64.0, -186283.6180667422, -186552.6213112618, -186597.10128272788, -187500.02235174447, -187500.02235174447, -187500.02235174447, -187500.02235174447, -187500.02235174447, 0.41600000000000004, 0.844, 0.43, 192.0, 0.0, 0.0, 0.0, 0.0, 0.0, 0.0, 0.0, 0.0, 0.0, 1.730914314692227E9, 0.0, 2024-11-06 14:31:54.692
65.0, -187500.02235174447, -183100.59554583975, -187500.02235174447, -187500.02235174447, -187500.02235174447, -187500.02235174447, -187500.02235174447, -187031.8427123836, 0.41600000000000004, 0.844, 0.43, 192.0, 0.0, 0.0, 0.0, 0.0, 0.0, 0.0, 0.0, 0.0, 0.0, 1.7309143146961484E9, 0.0, 2024-11-06 14:31:54.696
66.0, -187500.02235174447, -181835.91149281402, -187500.02235174447, -187334.0159456749, -187500.02235174447, -187500.02235174447, -187500.02235174447, -186349.1757332296, 0.41600000000000004, 0.844, 0.43, 192.0, 0.0, 0.0, 0.0, 0.0, 0.0, 0.0, 0.0, 0.0, 0.0, 1.7309143147002616E9, 0.0, 2024-11-06 14:31:54.700
67.0, -186448.35042337782, -184951.52115243927, -187500.02235174447, -187500.02235174447, -187500.02235174447, -187500.02235174447, -187500.02235174447, -187500.02235174447, 0.41600000000000004, 0.844, 0.43, 192.0, 0.0, 0.0, 0.0, 0.0, 0.0, 0.0, 0.0, 0.0, 0.0, 1.7309143147043269E9, 0.0, 2024-11-06 14:31:54.704
68.0, -185994.20767953488, -186827.3018988731, -186487.0636447744, -187500.02235174447, -187500.02235174447, -187500.02235174447, -187500.02235174447, -187500.02235174447, 0.41600000000000004, 0.844, 0.43, 192.0, 0.0, 0.0, 0.0, 0.0, 0.0, 0.0, 0.0, 0.0, 0.0, 1.7309143147083614E9, 0.0, 2024-11-06 14:31:54.708
69.0, -187500.02235174447, -183740.43658261737, -187500.02235174447, -187500.02235174447, -187500.02235174447, -187500.02235174447, -187500.02235174447, -187410.30244950086, 0.41600000000000004, 0.844, 0.43, 192.0, 0.0, 0.0, 0.0, 0.0, 0.0, 0.0, 0.0, 0.0, 0.0, 1.7309143147122924E9, 0.0, 2024-11-06 14:31:54.712
70.0, -187500.02235174447, -181664.09363318607, -187500.02235174447, -187375.79135606188, -187500.02235174447, -187500.02235174447, -187500.02235174447, -186251.92329310457, 0.41600000000000004, 0.844, 0.43, 192.0, 0.0, 0.0, 0.0, 0.0, 0.0, 0.0, 0.0, 0.0, 0.0, 1.7309143147172885E9, 0.0, 2024-11-06 14:31:54.717
71.0, -186820.082285414, -184307.92502259315, -187500.02235174447, -187500.02235174447, -187500.02235174447, -187500.02235174447, -187500.02235174447, -187500.02235174447, 0.41600000000000004, 0.844, 0.43, 192.0, 0.0, 0.0, 0.0, 0.0, 0.0, 0.0, 0.0, 0.0, 0.0, 1.7309143147201579E9, 0.0, 2024-11-06 14:31:54.720
72.0, -185823.10507572952, -186897.28521076267, -186489.5223366645, -187500.02235174447, -187500.02235174447, -187500.02235174447, -187500.02235174447, -187500.02235174447, 0.41200000000000003, 0.84, 0.428, 192.0, 12.0, 224.0, 26.0, 64.0, 13.0, 96.0, 0.0, 0.0, 0.0, 1.7309143147243102E9, 0.0, 2024-11-06 14:31:54.724
73.0, -187500.02235174447, -184410.09484649837, -187500.02235174447, -187500.02235174447, -187500.02235174447, -187500.02235174447, -187500.02235174447, -187500.02235174447, 0.41200000000000003, 0.84, 0.428, 192.0, 0.0, 0.0, 0.0, 0.0, 0.0, 0.0, 0.0, 0.0, 0.0, 1.7309143147281797E9, 0.0, 2024-11-06 14:31:54.728
74.0, -187500.02235174447, -181679.35987464903, -187500.02235174447, -187500.02235174447, -187500.02235174447, -187500.02235174447, -187500.02235174447, -186246.42476396856, 0.41200000000000003, 0.84, 0.428, 192.0, 0.0, 0.0, 0.0, 0.0, 0.0, 0.0, 0.0, 0.0, 0.0, 1.730914314732193E9, 0.0, 2024-11-06 14:31:54.732
75.0, -187234.05894447077, -183669.2462765272, -187500.02235174447, -187500.02235174447, -187500.02235174447, -187500.02235174447, -187500.02235174447, -187398.29956272835, 0.41200000000000003, 0.84, 0.428, 192.0, 0.0, 0.0, 0.0, 0.0, 0.0, 0.0, 0.0, 0.0, 0.0, 1.7309143147362456E9, 0.0, 2024-11-06 14:31:54.736
76.0, -185761.63777847742, -186779.96090411674, -186576.38121561782, -187500.02235174447, -187500.02235174447, -187500.02235174447, -187500.02235174447, -187500.02235174447, 0.41200000000000003, 0.84, 0.428, 192.0, 0.0, 0.0, 0.0, 0.0, 0.0, 0.0, 0.0, 0.0, 0.0, 1.7309143147401743E9, 0.0, 2024-11-06 14:31:54.740
77.0, -187459.252769858, -185086.90566860506, -187345.63885279166, -187500.02235174447, -187500.02235174447, -187500.02235174447, -187500.02235174447, -187500.02235174447, 0.41200000000000003, 0.84, 0.428, 192.0, 0.0, 0.0, 0.0, 0.0, 0.0, 0.0, 0.0, 0.0, 0.0, 1.7309143147454045E9, 0.0, 2024-11-06 14:31:54.745
78.0, -187500.02235174447, -181859.73845240337, -187500.02235174447, -187500.02235174447, -187500.02235174447, -187500.02235174447, -187500.02235174447, -186339.3186139248, 0.41200000000000003, 0.84, 0.428, 192.0, 0.0, 0.0, 0.0, 0.0, 0.0, 0.0, 0.0, 0.0, 0.0, 1.7309143147483609E9, 0.0, 2024-11-06 14:31:54.748
79.0, -187500.02235174447, -183071.6723885146, -187500.02235174447, -187500.02235174447, -187500.02235174447, -187500.02235174447, -187500.02235174447, -187060.6541109865, 0.41200000000000003, 0.84, 0.428, 192.0, 0.0, 0.0, 0.0, 0.0, 0.0, 0.0, 0.0, 0.0, 0.0, 1.730914314752251E9, 0.0, 2024-11-06 14:31:54.752
80.0, -185818.29945067162, -186469.9645602661, -186777.7927849046, -187500.02235174447, -187500.02235174447, -187500.02235174447, -187500.02235174447, -187500.02235174447, 0.41200000000000003, 0.84, 0.428, 192.0, 0.0, 0.0, 0.0, 0.0, 0.0, 0.0, 0.0, 0.0, 0.0, 1.73091431475623E9, 0.0, 2024-11-06 14:31:54.756
81.0, -186996.54930788866, -185706.3842661839, -187023.8854913575, -187500.02235174447, -187500.02235174447, -187500.02235174447, -187500.02235174447, -187500.02235174447, 0.41200000000000003, 0.84, 0.428, 192.0, 0.0, 0.0, 0.0, 0.0, 0.0, 0.0, 0.0, 0.0, 0.0, 1.7309143147602203E9, 0.0, 2024-11-06 14:31:54.760
82.0, -187500.02235174447, -182205.81051180488, -187500.02235174447, -187500.02235174447, -187500.02235174447, -187500.02235174447, -187500.02235174447, -186527.29678479396, 0.41200000000000003, 0.842, 0.428, 192.0, 12.0, 224.0, 26.0, 80.0, 13.0, 96.0, 0.0, 0.0, 0.0, 1.7309143147643793E9, 0.0, 2024-11-06 14:31:54.764
83.0, -187500.02235174447, -182530.02256512913, -187500.02235174447, -187500.02235174447, -187500.02235174447, -187500.02235174447, -187500.02235174447, -186754.94930207127, 0.41200000000000003, 0.842, 0.428, 192.0, 0.0, 0.0, 0.0, 0.0, 0.0, 0.0, 0.0, 0.0, 0.0, 1.7309143147682261E9, 0.0, 2024-11-06 14:31:54.768
84.0, -185980.17078401695, -186004.17655756196, -187044.33733753412, -187500.02235174447, -187500.02235174447, -187500.02235174447, -187500.02235174447, -187500.02235174447, 0.41200000000000003, 0.842, 0.428, 192.0, 0.0, 0.0, 0.0, 0.0, 0.0, 0.0, 0.0, 0.0, 0.0, 1.7309143147734375E9, 0.0, 2024-11-06 14:31:54.773
85.0, -186578.1917069187, -186254.87372337267, -186749.54017991308, -187500.02235174447, -187500.02235174447, -187500.02235174447, -187500.02235174447, -187500.02235174447, 0.41200000000000003, 0.842, 0.428, 192.0, 0.0, 0.0, 0.0, 0.0, 0.0, 0.0, 0.0, 0.0, 0.0, 1.7309143147762585E9, 0.0, 2024-11-06 14:31:54.776
86.0, -187500.02235174447, -182693.3691136085, -187500.02235174447, -187500.02235174447, -187500.02235174447, -187500.02235174447, -187500.02235174447, -186804.86074743996, 0.41200000000000003, 0.842, 0.428, 192.0, 0.0, 0.0, 0.0, 0.0, 0.0, 0.0, 0.0, 0.0, 0.0, 1.7309143147803934E9, 0.0, 2024-11-06 14:31:54.780
87.0, -187500.02235174447, -182096.30931571833, -187500.02235174447, -187443.20421733908, -187500.02235174447, -187500.02235174447, -187500.02235174447, -186508.9236508517, 0.41200000000000003, 0.842, 0.428, 192.0, 0.0, 0.0, 0.0, 0.0, 0.0, 0.0, 0.0, 0.0, 0.0, 1.7309143147842512E9, 0.0, 2024-11-06 14:31:54.784
88.0, -186237.52876967535, -185444.4665246566, -187366.8730100242, -187500.02235174447, -187500.02235174447, -187500.02235174447, -187500.02235174447, -187500.02235174447, 0.41200000000000003, 0.842, 0.428, 192.0, 0.0, 0.0, 0.0, 0.0, 0.0, 0.0, 0.0, 0.0, 0.0, 1.7309143147884157E9, 0.0, 2024-11-06 14:31:54.788
89.0, -186224.52005440238, -186662.32367304846, -186561.20438113267, -187500.02235174447, -187500.02235174447, -187500.02235174447, -187500.02235174447, -187500.02235174447, 0.41200000000000003, 0.842, 0.428, 192.0, 0.0, 0.0, 0.0, 0.0, 0.0, 0.0, 0.0, 0.0, 0.0, 1.7309143147923217E9, 0.0, 2024-11-06 14:31:54.792
90.0, -187500.02235174447, -183277.0625683144, -187500.02235174447, -187500.02235174447, -187500.02235174447, -187500.02235174447, -187500.02235174447, -187146.82008586172, 0.41200000000000003, 0.842, 0.428, 192.0, 0.0, 0.0, 0.0, 0.0, 0.0, 0.0, 0.0, 0.0, 0.0, 1.7309143147962935E9, 0.0, 2024-11-06 14:31:54.796
91.0, -187500.02235174447, -181797.26532665078, -187500.02235174447, -187354.17721917358, -187500.02235174447, -187500.02235174447, -187500.02235174447, -186337.5304743684, 0.41200000000000003, 0.842, 0.428, 192.0, 0.0, 0.0, 0.0, 0.0, 0.0, 0.0, 0.0, 0.0, 0.0, 1.730914314800288E9, 0.0, 2024-11-06 14:31:54.800
92.0, -186570.6815207817, -184813.14150251646, -187500.02235174447, -187500.02235174447, -187500.02235174447, -187500.02235174447, -187500.02235174447, -187500.02235174447, 0.41400000000000003, 0.84, 0.428, 192.0, 12.0, 240.0, 26.0, 64.0, 13.0, 96.0, 0.0, 0.0, 0.0, 1.7309143148033447E9, 0.0, 2024-11-06 14:31:54.803
93.0, -185973.59937114708, -186883.02479780017, -186477.27358070298, -187500.02235174447, -187500.02235174447, -187500.02235174447, -187500.02235174447, -187500.02235174447, 0.41400000000000003, 0.84, 0.428, 192.0, 0.0, 0.0, 0.0, 0.0, 0.0, 0.0, 0.0, 0.0, 0.0, 1.7309143148082972E9, 0.0, 2024-11-06 14:31:54.808
94.0, -187500.02235174447, -183927.99007034185, -187500.02235174447, -187500.02235174447, -187500.02235174447, -187500.02235174447, -187500.02235174447, -187500.02235174447, 0.41400000000000003, 0.84, 0.428, 192.0, 0.0, 0.0, 0.0, 0.0, 0.0, 0.0, 0.0, 0.0, 0.0, 1.7309143148123052E9, 0.0, 2024-11-06 14:31:54.812
95.0, -187500.02235174447, -181680.142185705, -187500.02235174447, -187442.1313336052, -187500.02235174447, -187500.02235174447, -187500.02235174447, -186263.2556275434, 0.41400000000000003, 0.84, 0.428, 192.0, 0.0, 0.0, 0.0, 0.0, 0.0, 0.0, 0.0, 0.0, 0.0, 1.730914314816249E9, 0.0, 2024-11-06 14:31:54.816
96.0, -186953.65631027895, -184173.30046573884, -187500.02235174447, -187500.02235174447, -187500.02235174447, -187500.02235174447, -187500.02235174447, -187500.02235174447, 0.41400000000000003, 0.84, 0.428, 192.0, 0.0, 0.0, 0.0, 0.0, 0.0, 0.0, 0.0, 0.0, 0.0, 1.7309143148202765E9, 0.0, 2024-11-06 14:31:54.820
97.0, -185831.0622967556, -186907.3211440231, -186515.6291741883, -187500.02235174447, -187500.02235174447, -187500.02235174447, -187500.02235174447, -187500.02235174447, 0.41400000000000003, 0.84, 0.428, 192.0, 0.0, 0.0, 0.0, 0.0, 0.0, 0.0, 0.0, 0.0, 0.0, 1.7309143148243465E9, 0.0, 2024-11-06 14:31:54.824
98.0, -187500.02235174447, -184601.24696508015, -187500.02235174447, -187500.02235174447, -187500.02235174447, -187500.02235174447, -187500.02235174447, -187500.02235174447, 0.41400000000000003, 0.84, 0.428, 192.0, 0.0, 0.0, 0.0, 0.0, 0.0, 0.0, 0.0, 0.0, 0.0, 1.7309143148284109E9, 0.0, 2024-11-06 14:31:54.828
99.0, -187500.02235174447, -181718.60953791256, -187500.02235174447, -187500.02235174447, -187500.02235174447, -187500.02235174447, -187500.02235174447, -186273.9621131375, 0.41400000000000003, 0.84, 0.428, 192.0, 0.0, 0.0, 0.0, 0.0, 0.0, 0.0, 0.0, 0.0, 0.0, 1.7309143148313515E9, 0.0, 2024-11-06 14:31:54.831
100.0, -187370.5163443704, -183536.4769144627, -187500.02235174447, -187500.02235174447, -187500.02235174447, -187500.02235174447, -187500.02235174447, -187333.03246891886, 0.41400000000000003, 0.84, 0.428, 192.0, 0.0, 0.0, 0.0, 0.0, 0.0, 0.0, 0.0, 0.0, 0.0, 1.7309143148352869E9, 0.0, 2024-11-06 14:31:54.835
101.0, -185798.67461903987, -186736.91144429584, -186633.89225410132, -187500.02235174447, -187500.02235174447, -187500.02235174447, -187500.02235174447, -187500.02235174447, 0.41400000000000003, 0.84, 0.428, 192.0, 0.0, 0.0, 0.0, 0.0, 0.0, 0.0, 0.0, 0.0, 0.0, 1.7309143148402855E9, 0.0, 2024-11-06 14:31:54.840
102.0, -187367.78943154687, -185264.0879469023, -187271.54281992232, -187500.02235174447, -187500.02235174447, -187500.02235174447, -187500.02235174447, -187500.02235174447, 0.418, 0.838, 0.43, 192.0, 13.0, 16.0, 26.0, 48.0, 13.0, 112.0, 0.0, 0.0, 0.0, 1.730914314844352E9, 0.0, 2024-11-06 14:31:54.844
103.0, -187500.02235174447, -181959.8519158187, -187500.02235174447, -187500.02235174447, -187500.02235174447, -187500.02235174447, -187500.02235174447, -186403.244603067, 0.418, 0.838, 0.43, 192.0, 0.0, 0.0, 0.0, 0.0, 0.0, 0.0, 0.0, 0.0, 0.0, 1.7309143148483696E9, 0.0, 2024-11-06 14:31:54.848
104.0, -187500.02235174447, -182956.87382899213, -187500.02235174447, -187500.02235174447, -187500.02235174447, -187500.02235174447, -187500.02235174447, -187001.33258120212, 0.418, 0.838, 0.43, 192.0, 0.0, 0.0, 0.0, 0.0, 0.0, 0.0, 0.0, 0.0, 0.0, 1.7309143148523436E9, 0.0, 2024-11-06 14:31:54.852
105.0, -185889.26623931722, -186389.18535580463, -186848.93838750583, -187500.02235174447, -187500.02235174447, -187500.02235174447, -187500.02235174447, -187500.02235174447, 0.418, 0.838, 0.43, 192.0, 0.0, 0.0, 0.0, 0.0, 0.0, 0.0, 0.0, 0.0, 0.0, 1.730914314856359E9, 0.0, 2024-11-06 14:31:54.856
106.0, -186921.20157732983, -185878.2691810452, -186965.65919705146, -187500.02235174447, -187500.02235174447, -187500.02235174447, -187500.02235174447, -187500.02235174447, 0.418, 0.838, 0.43, 192.0, 0.0, 0.0, 0.0, 0.0, 0.0, 0.0, 0.0, 0.0, 0.0, 1.73091431485939E9, 0.0, 2024-11-06 14:31:54.859
107.0, -187500.02235174447, -182339.87627504783, -187500.02235174447, -187500.02235174447, -187500.02235174447, -187500.02235174447, -187500.02235174447, -186608.50067240009, 0.418, 0.838, 0.43, 192.0, 0.0, 0.0, 0.0, 0.0, 0.0, 0.0, 0.0, 0.0, 0.0, 1.7309143148633893E9, 0.0, 2024-11-06 14:31:54.863
108.0, -187500.02235174447, -182441.44260185273, -187500.02235174447, -187500.02235174447, -187500.02235174447, -187500.02235174447, -187500.02235174447, -186707.317734637, 0.418, 0.838, 0.43, 192.0, 0.0, 0.0, 0.0, 0.0, 0.0, 0.0, 0.0, 0.0, 0.0, 1.7309143148683538E9, 0.0, 2024-11-06 14:31:54.868
109.0, -186072.2599711728, -185904.13014938, -187141.27685323678, -187500.02235174447, -187500.02235174447, -187500.02235174447, -187500.02235174447, -187500.02235174447, 0.418, 0.838, 0.43, 192.0, 0.0, 0.0, 0.0, 0.0, 0.0, 0.0, 0.0, 0.0, 0.0, 1.7309143148723416E9, 0.0, 2024-11-06 14:31:54.872
110.0, -186517.59612770035, -186394.23685005153, -186724.7744470566, -187500.02235174447, -187500.02235174447, -187500.02235174447, -187500.02235174447, -187500.02235174447, 0.418, 0.838, 0.43, 192.0, 0.0, 0.0, 0.0, 0.0, 0.0, 0.0, 0.0, 0.0, 0.0, 1.7309143148763978E9, 0.0, 2024-11-06 14:31:54.876
111.0, -187500.02235174447, -182859.48727840034, -187500.02235174447, -187500.02235174447, -187500.02235174447, -187500.02235174447, -187500.02235174447, -186898.872184619, 0.418, 0.838, 0.43, 192.0, 0.0, 0.0, 0.0, 0.0, 0.0, 0.0, 0.0, 0.0, 0.0, 1.7309143148804073E9, 0.0, 2024-11-06 14:31:54.880
112.0, -187500.02235174447, -182041.14521040264, -187500.02235174447, -187429.50259798797, -187500.02235174447, -187500.02235174447, -187500.02235174447, -186475.88777254676, 0.41600000000000004, 0.84, 0.434, 192.0, 13.0, 0.0, 26.0, 64.0, 13.0, 144.0, 0.0, 0.0, 0.0, 1.7309143148845308E9, 0.0, 2024-11-06 14:31:54.884
113.0, -186347.20877971756, -185320.9954882855, -187472.86498223126, -187500.02235174447, -187500.02235174447, -187500.02235174447, -187500.02235174447, -187500.02235174447, 0.41600000000000004, 0.84, 0.434, 192.0, 0.0, 0.0, 0.0, 0.0, 0.0, 0.0, 0.0, 0.0, 0.0, 1.730914314887384E9, 0.0, 2024-11-06 14:31:54.887
114.0, -186189.38311211864, -186762.86181960843, -186553.64949150677, -187500.02235174447, -187500.02235174447, -187500.02235174447, -187500.02235174447, -187500.02235174447, 0.41600000000000004, 0.84, 0.434, 192.0, 0.0, 0.0, 0.0, 0.0, 0.0, 0.0, 0.0, 0.0, 0.0, 1.730914314891353E9, 0.0, 2024-11-06 14:31:54.891
115.0, -187500.02235174447, -183467.8570589849, -187500.02235174447, -187500.02235174447, -187500.02235174447, -187500.02235174447, -187500.02235174447, -187256.83537207072, 0.41600000000000004, 0.84, 0.434, 192.0, 0.0, 0.0, 0.0, 0.0, 0.0, 0.0, 0.0, 0.0, 0.0, 1.7309143148963552E9, 0.0, 2024-11-06 14:31:54.896
116.0, -187500.02235174447, -181780.97090494286, -187500.02235174447, -187380.64168460868, -187500.02235174447, -187500.02235174447, -187500.02235174447, -186322.84537826126, 0.41600000000000004, 0.84, 0.434, 192.0, 0.0, 0.0, 0.0, 0.0, 0.0, 0.0, 0.0, 0.0, 0.0, 1.730914314900423E9, 0.0, 2024-11-06 14:31:54.900
117.0, -186691.09036816246, -184691.81623361306, -187500.02235174447, -187500.02235174447, -187500.02235174447, -187500.02235174447, -187500.02235174447, -187500.02235174447, 0.41600000000000004, 0.84, 0.434, 192.0, 0.0, 0.0, 0.0, 0.0, 0.0, 0.0, 0.0, 0.0, 0.0, 1.7309143149044003E9, 0.0, 2024-11-06 14:31:54.904
118.0, -185951.96288251434, -186942.74865898475, -186501.9722583261, -187500.02235174447, -187500.02235174447, -187500.02235174447, -187500.02235174447, -187500.02235174447, 0.41600000000000004, 0.84, 0.434, 192.0, 0.0, 0.0, 0.0, 0.0, 0.0, 0.0, 0.0, 0.0, 0.0, 1.7309143149073792E9, 0.0, 2024-11-06 14:31:54.907
119.0, -187500.02235174447, -184124.10427619272, -187500.02235174447, -187500.02235174447, -187500.02235174447, -187500.02235174447, -187500.02235174447, -187500.02235174447, 0.41600000000000004, 0.84, 0.434, 192.0, 0.0, 0.0, 0.0, 0.0, 0.0, 0.0, 0.0, 0.0, 0.0, 1.7309143149114108E9, 0.0, 2024-11-06 14:31:54.911
120.0, -187500.02235174447, -181699.56585163664, -187500.02235174447, -187497.07192147637, -187500.02235174447, -187500.02235174447, -187500.02235174447, -186275.39262478266, 0.41600000000000004, 0.84, 0.434, 192.0, 0.0, 0.0, 0.0, 0.0, 0.0, 0.0, 0.0, 0.0, 0.0, 1.7309143149154625E9, 0.0, 2024-11-06 14:31:54.915
121.0, -187080.52481180726, -184041.939263575, -187500.02235174447, -187500.02235174447, -187500.02235174447, -187500.02235174447, -187500.02235174447, -187500.02235174447, 0.41600000000000004, 0.84, 0.434, 192.0, 0.0, 0.0, 0.0, 0.0, 0.0, 0.0, 0.0, 0.0, 0.0, 1.7309143149193988E9, 0.0, 2024-11-06 14:31:54.919
122.0, -185840.02534628217, -186914.25018480423, -186555.86231420783, -187500.02235174447, -187500.02235174447, -187500.02235174447, -187500.02235174447, -187500.02235174447, 0.418, 0.836, 0.436, 192.0, 13.0, 16.0, 26.0, 32.0, 13.0, 160.0, 0.0, 0.0, 0.0, 1.73091431492443E9, 0.0, 2024-11-06 14:31:54.924
123.0, -187500.02235174447, -184800.35630468803, -187500.02235174447, -187500.02235174447, -187500.02235174447, -187500.02235174447, -187500.02235174447, -187500.02235174447, 0.418, 0.836, 0.436, 192.0, 0.0, 0.0, 0.0, 0.0, 0.0, 0.0, 0.0, 0.0, 0.0, 1.730914314928434E9, 0.0, 2024-11-06 14:31:54.928
124.0, -187500.02235174447, -181801.8027307752, -187500.02235174447, -187500.02235174447, -187500.02235174447, -187500.02235174447, -187500.02235174447, -186324.16413118414, 0.418, 0.836, 0.436, 192.0, 0.0, 0.0, 0.0, 0.0, 0.0, 0.0, 0.0, 0.0, 0.0, 1.7309143149324422E9, 0.0, 2024-11-06 14:31:54.932
125.0, -187500.02235174447, -183419.37612526133, -187500.02235174447, -187500.02235174447, -187500.02235174447, -187500.02235174447, -187500.02235174447, -187264.0996890187, 0.418, 0.836, 0.436, 192.0, 0.0, 0.0, 0.0, 0.0, 0.0, 0.0, 0.0, 0.0, 0.0, 1.7309143149354267E9, 0.0, 2024-11-06 14:31:54.935
126.0, -185839.75712534873, -186695.3148478645, -186705.79781601403, -187500.02235174447, -187500.02235174447, -187500.02235174447, -187500.02235174447, -187500.02235174447, 0.418, 0.836, 0.436, 192.0, 0.0, 0.0, 0.0, 0.0, 0.0, 0.0, 0.0, 0.0, 0.0, 1.7309143149394104E9, 0.0, 2024-11-06 14:31:54.939
127.0, -187285.04327357333, -185447.93104504718, -187221.31845013125, -187500.02235174447, -187500.02235174447, -187500.02235174447, -187500.02235174447, -187500.02235174447, 0.418, 0.836, 0.436, 192.0, 0.0, 0.0, 0.0, 0.0, 0.0, 0.0, 0.0, 0.0, 0.0, 1.7309143149434931E9, 0.0, 2024-11-06 14:31:54.943
128.0, -187500.02235174447, -182061.37353913469, -187500.02235174447, -187500.02235174447, -187500.02235174447, -187500.02235174447, -187500.02235174447, -186474.54666787945, 0.418, 0.836, 0.436, 192.0, 0.0, 0.0, 0.0, 0.0, 0.0, 0.0, 0.0, 0.0, 0.0, 1.7309143149474168E9, 0.0, 2024-11-06 14:31:54.947
