%OpenBCI Raw EXG Data
%Number of channels = 8
%Sample Rate = 250 Hz
%Board = OpenBCI_GUI$BoardCytonSerial
Sample Index, EXG Channel 0, EXG Channel 1, EXG Channel 2, EXG Channel 3, EXG Channel 4, EXG Channel 5, EXG Channel 6, EXG Channel 7, Accel Channel 0, Accel Channel 1, Accel Channel 2, Not Used, Digital Channel 0 (D11), Digital Channel 1 (D12), Digital Channel 2 (D13), Digital Channel 3 (D17), Not Used, Digital Channel 4 (D18), Analog Channel 0, Analog Channel 1, Analog Channel 2, Timestamp, Marker Channel, Timestamp (Formatted)
0.0, -185849.3683754645, -179100.03561973997, -186715.29730740754, -184774.83061252008, -187500.02235174447, -187500.02235174447, -187500.02235174447, -183756.14985896944, 0.214, 0.422, 0.216, 192.0, 6.0, 176.0, 13.0, 48.0, 6.0, 192.0, 0.0, 0.0, 0.0, 1.730914301905008E9, 0.0, 2024-11-06 14:31:41.905
1.0, -183588.84705172147, -182203.3071164259, -184975.12459458408, -187024.3325262466, -187500.02235174447, -187500.02235174447, -187500.02235174447, -185520.10482789337, 0.214, 0.422, 0.216, 192.0, 0.0, 0.0, 0.0, 0.0, 0.0, 0.0, 0.0, 0.0, 0.0, 1.7309143019079905E9, 0.0, 2024-11-06 14:31:41.907
2.0, -183167.06963384984, -184069.4989644884, -183861.2924648872, -187500.02235174447, -186647.2585972856, -187500.02235174447, -185697.30945793504, -186564.3336253564, 0.214, 0.422, 0.216, 192.0, 0.0, 0.0, 0.0, 0.0, 0.0, 0.0, 0.0, 0.0, 0.0, 1.7309143019121232E9, 0.0, 2024-11-06 14:31:41.912
3.0, -185489.77351066752, -180983.43831103307, -185470.6851209027, -187500.02235174447, -187500.02235174447, -187500.02235174447, -187500.02235174447, -184781.60319109002, 0.214, 0.422, 0.216, 192.0, 0.0, 0.0, 0.0, 0.0, 0.0, 0.0, 0.0, 0.0, 0.0, 1.7309143019150553E9, 0.0, 2024-11-06 14:31:41.915
4.0, -186135.51540798135, -178924.70853623256, -186794.08720661252, -184808.96172630333, -187500.02235174447, -187500.02235174447, -187500.02235174447, -183643.02768028114, 0.214, 0.422, 0.216, 192.0, 0.0, 0.0, 0.0, 0.0, 0.0, 0.0, 0.0, 0.0, 0.0, 1.7309143019190323E9, 0.0, 2024-11-06 14:31:41.919
5.0, -183940.99878561482, -181560.8062220581, -185342.76608738495, -186467.8634962873, -187500.02235174447, -187500.02235174447, -187500.02235174447, -185160.44290786303, 0.214, 0.422, 0.216, 192.0, 0.0, 0.0, 0.0, 0.0, 0.0, 0.0, 0.0, 0.0, 0.0, 1.7309143019231665E9, 0.0, 2024-11-06 14:31:41.923
6.0, -183013.22257676395, -184144.13143922467, -183850.63068278204, -187500.02235174447, -186421.9530131761, -187500.02235174447, -185671.7837657671, -186604.11973048685, 0.214, 0.422, 0.216, 192.0, 0.0, 0.0, 0.0, 0.0, 0.0, 0.0, 0.0, 0.0, 0.0, 1.730914301928246E9, 0.0, 2024-11-06 14:31:41.928
7.0, -185070.34302596367, -181656.44933658236, -185086.45863371596, -187500.02235174447, -187500.02235174447, -187500.02235174447, -187500.02235174447, -185178.3019516828, 0.314, 0.624, 0.32, 192.0, 9.0, 208.0, 19.0, 128.0, 10.0, 0.0, 0.0, 0.0, 0.0, 1.7309143019320383E9, 0.0, 2024-11-06 14:31:41.932
8.0, -186321.12429393822, -178933.7833444814, -186762.6383021639, -185009.83685372316, -187500.02235174447, -187500.02235174447, -187500.02235174447, -183637.75266858967, 0.314, 0.624, 0.32, 192.0, 0.0, 0.0, 0.0, 0.0, 0.0, 0.0, 0.0, 0.0, 0.0, 1.7309143019351737E9, 0.0, 2024-11-06 14:31:41.935
9.0, -184334.0542118614, -180928.78829583983, -185705.40078942786, -185945.5479318557, -187500.02235174447, -187500.02235174447, -187500.02235174447, -184799.88691805446, 0.314, 0.624, 0.32, 192.0, 0.0, 0.0, 0.0, 0.0, 0.0, 0.0, 0.0, 0.0, 0.0, 1.7309143019390347E9, 0.0, 2024-11-06 14:31:41.939
10.0, -182947.95548295445, -184025.51073140034, -183948.8665996631, -187500.02235174447, -186483.509717406, -187500.02235174447, -185869.619055941, -186533.42116277473, 0.314, 0.624, 0.32, 192.0, 0.0, 0.0, 0.0, 0.0, 0.0, 0.0, 0.0, 0.0, 0.0, 1.7309143019431732E9, 0.0, 2024-11-06 14:31:41.943
11.0, -184622.74934324616, -182325.34764115186, -184726.86376891896, -187500.02235174447, -187500.02235174447, -187500.02235174447, -187464.3489675938, -185571.08915699593, 0.314, 0.624, 0.32, 192.0, 0.0, 0.0, 0.0, 0.0, 0.0, 0.0, 0.0, 0.0, 0.0, 1.7309143019470708E9, 0.0, 2024-11-06 14:31:41.947
12.0, -186386.65960868116, -179115.9724135366, -186639.56959719298, -185371.91276215468, -187500.02235174447, -187500.02235174447, -187500.02235174447, -183728.92543422288, 0.314, 0.624, 0.32, 192.0, 0.0, 0.0, 0.0, 0.0, 0.0, 0.0, 0.0, 0.0, 0.0, 1.7309143019510636E9, 0.0, 2024-11-06 14:31:41.951
13.0, -184761.1066414245, -180330.7673729381, -186056.12201167608, -185492.81334791344, -187500.02235174447, -187500.02235174447, -187500.02235174447, -184466.75651869256, 0.314, 0.624, 0.32, 192.0, 0.0, 0.0, 0.0, 0.0, 0.0, 0.0, 0.0, 0.0, 0.0, 1.7309143019561636E9, 0.0, 2024-11-06 14:31:41.956
14.0, -183008.17108251704, -183711.42401831437, -184142.54446536835, -187500.02235174447, -186838.43306761183, -187500.02235174447, -186283.43925278657, -186364.01729154793, 0.314, 0.624, 0.32, 192.0, 0.0, 0.0, 0.0, 0.0, 0.0, 0.0, 0.0, 0.0, 0.0, 1.7309143019591568E9, 0.0, 2024-11-06 14:31:41.959
15.0, -184169.9253523261, -182954.41513710204, -184407.83732030838, -187500.02235174447, -187500.02235174447, -187500.02235174447, -186832.17457916436, -185943.6927370659, 0.314, 0.624, 0.32, 192.0, 0.0, 0.0, 0.0, 0.0, 0.0, 0.0, 0.0, 0.0, 0.0, 1.7309143019621496E9, 0.0, 2024-11-06 14:31:41.962
16.0, -186314.1281979237, -179468.39236836345, -186419.2037486081, -185859.20314302485, -187500.02235174447, -187500.02235174447, -187500.02235174447, -183914.66843064647, 0.314, 0.624, 0.32, 192.0, 0.0, 0.0, 0.0, 0.0, 0.0, 0.0, 0.0, 0.0, 0.0, 1.7309143019672167E9, 0.0, 2024-11-06 14:31:41.967
17.0, -185195.3116292133, -179791.41977923154, -186367.4371084496, -185117.37109629763, -187500.02235174447, -187500.02235174447, -187500.02235174447, -184159.5764946433, 0.37, 0.732, 0.374, 192.0, 11.0, 144.0, 22.0, 224.0, 11.0, 176.0, 0.0, 0.0, 0.0, 1.7309143019713037E9, 0.0, 2024-11-06 14:31:41.971
18.0, -183127.216473486, -183248.1394109892, -184408.3290586864, -187500.02235174447, -187388.0848155123, -187500.02235174447, -186836.2425966552, -186112.04607630326, 0.37, 0.732, 0.374, 192.0, 0.0, 0.0, 0.0, 0.0, 0.0, 0.0, 0.0, 0.0, 0.0, 1.7309143019752817E9, 0.0, 2024-11-06 14:31:41.975
19.0, -183748.30439666563, -183499.97651576716, -184149.9205410386, -187500.02235174447, -187500.02235174447, -187500.02235174447, -186286.50144177693, -186257.84650538524, 0.37, 0.732, 0.374, 192.0, 0.0, 0.0, 0.0, 0.0, 0.0, 0.0, 0.0, 0.0, 0.0, 1.7309143019791327E9, 0.0, 2024-11-06 14:31:41.979
20.0, -186116.80699787225, -179952.4193945431, -186133.01201260235, -186431.8995394587, -187500.02235174447, -187500.02235174447, -187500.02235174447, -184182.3752739877, 0.37, 0.732, 0.374, 192.0, 0.0, 0.0, 0.0, 0.0, 0.0, 0.0, 0.0, 0.0, 0.0, 1.730914301983238E9, 0.0, 2024-11-06 14:31:41.983
21.0, -185595.8548898524, -179363.07094849003, -186616.52494865956, -184872.17245962293, -187500.02235174447, -187500.02235174447, -187500.02235174447, -183903.7607793523, 0.37, 0.732, 0.374, 192.0, 0.0, 0.0, 0.0, 0.0, 0.0, 0.0, 0.0, 0.0, 0.0, 1.730914301986148E9, 0.0, 2024-11-06 14:31:41.986
22.0, -183382.56280214345, -182696.78893051017, -184736.94440566833, -187474.8542874878, -187500.02235174447, -187500.02235174447, -187482.67739804715, -185795.1430434159, 0.37, 0.732, 0.374, 192.0, 0.0, 0.0, 0.0, 0.0, 0.0, 0.0, 0.0, 0.0, 0.0, 1.7309143019905505E9, 0.0, 2024-11-06 14:31:41.990
23.0, -183390.3412092139, -183912.79088411224, -183960.15423061303, -187500.02235174447, -186996.68341835542, -187500.02235174447, -185886.09229160455, -186481.14043249376, 0.37, 0.732, 0.374, 192.0, 0.0, 0.0, 0.0, 0.0, 0.0, 0.0, 0.0, 0.0, 0.0, 1.7309143019951499E9, 0.0, 2024-11-06 14:31:41.995
24.0, -185803.63670630893, -180530.9719480243, -185774.42297630585, -187077.44027107244, -187500.02235174447, -187500.02235174447, -187500.02235174447, -184520.66892631876, 0.37, 0.732, 0.374, 192.0, 0.0, 0.0, 0.0, 0.0, 0.0, 0.0, 0.0, 0.0, 0.0, 1.7309143019991472E9, 0.0, 2024-11-06 14:31:41.999
25.0, -185950.57707435812, -179057.27673259698, -186764.64995916488, -184779.3233131556, -187500.02235174447, -187500.02235174447, -187500.02235174447, -183749.08670772158, 0.37, 0.732, 0.374, 192.0, 0.0, 0.0, 0.0, 0.0, 0.0, 0.0, 0.0, 0.0, 0.0, 1.7309143020032904E9, 0.0, 2024-11-06 14:31:42.003
26.0, -183695.0625413731, -182062.75934729094, -185088.04560757228, -186889.0597688031, -187500.02235174447, -187500.02235174447, -187500.02235174447, -185459.3751382083, 0.37, 0.732, 0.374, 192.0, 0.0, 0.0, 0.0, 0.0, 0.0, 0.0, 0.0, 0.0, 0.0, 1.7309143020073156E9, 0.0, 2024-11-06 14:31:42.007
27.0, -183158.77713665692, -184126.31709889378, -183870.9484184919, -187500.02235174447, -186587.31121865645, -187500.02235174447, -185694.80606255605, -186613.86509106937, 0.394, 0.784, 0.404, 192.0, 12.0, 80.0, 24.0, 128.0, 12.0, 160.0, 0.0, 0.0, 0.0, 1.7309143020111277E9, 0.0, 2024-11-06 14:31:42.011
28.0, -185417.95735573262, -181174.6127813593, -185392.9010501982, -187500.02235174447, -187500.02235174447, -187500.02235174447, -187500.02235174447, -184912.07032347564, 0.394, 0.784, 0.404, 192.0, 0.0, 0.0, 0.0, 0.0, 0.0, 0.0, 0.0, 0.0, 0.0, 1.730914302015201E9, 0.0, 2024-11-06 14:31:42.015
29.0, -186226.77758059234, -178931.54817003588, -186818.42825632435, -184852.41351752443, -187500.02235174447, -187500.02235174447, -187500.02235174447, -183656.57283742106, 0.394, 0.784, 0.404, 192.0, 0.0, 0.0, 0.0, 0.0, 0.0, 0.0, 0.0, 0.0, 0.0, 1.7309143020181775E9, 0.0, 2024-11-06 14:31:42.018
30.0, -184067.4873074874, -181416.07867671, -185457.8775713298, -186336.05525923436, -187500.02235174447, -187500.02235174447, -187500.02235174447, -185092.18068029653, 0.394, 0.784, 0.404, 192.0, 0.0, 0.0, 0.0, 0.0, 0.0, 0.0, 0.0, 0.0, 0.0, 1.7309143020232992E9, 0.0, 2024-11-06 14:31:42.023
31.0, -183019.59282393372, -184147.4618491485, -183886.48288088833, -187500.02235174447, -186445.08706868734, -187500.02235174447, -185745.47746723623, -186619.02834403855, 0.394, 0.784, 0.404, 192.0, 0.0, 0.0, 0.0, 0.0, 0.0, 0.0, 0.0, 0.0, 0.0, 1.730914302027184E9, 0.0, 2024-11-06 14:31:42.027
32.0, -184974.29758003922, -181855.49162095686, -185002.72899898636, -187500.02235174447, -187500.02235174447, -187500.02235174447, -187500.02235174447, -185309.73020908, 0.394, 0.784, 0.404, 192.0, 0.0, 0.0, 0.0, 0.0, 0.0, 0.0, 0.0, 0.0, 0.0, 1.730914302031156E9, 0.0, 2024-11-06 14:31:42.031
33.0, -186374.25439050846, -178995.87649057826, -186754.39050845988, -185105.50231999188, -187500.02235174447, -187500.02235174447, -187500.02235174447, -183680.66801794388, 0.394, 0.784, 0.404, 192.0, 0.0, 0.0, 0.0, 0.0, 0.0, 0.0, 0.0, 0.0, 0.0, 1.7309143020351617E9, 0.0, 2024-11-06 14:31:42.035
34.0, -184480.81576595496, -180799.25993672133, -185817.09245647103, -185819.8640727835, -187500.02235174447, -187500.02235174447, -187500.02235174447, -184734.73158296724, 0.394, 0.784, 0.404, 192.0, 0.0, 0.0, 0.0, 0.0, 0.0, 0.0, 0.0, 0.0, 0.0, 1.7309143020391626E9, 0.0, 2024-11-06 14:31:42.039
35.0, -182981.0807682372, -183988.11626292663, -184004.61185033465, -187500.02235174447, -186576.31416038444, -187500.02235174447, -185984.77524337475, -186527.92263363872, 0.394, 0.784, 0.404, 192.0, 0.0, 0.0, 0.0, 0.0, 0.0, 0.0, 0.0, 0.0, 0.0, 1.7309143020444808E9, 0.0, 2024-11-06 14:31:42.044
36.0, -184530.77191481256, -182515.76215216663, -184662.11076523195, -187500.02235174447, -187500.02235174447, -187500.02235174447, -187316.9615646555, -185702.49506264867, 0.394, 0.784, 0.404, 192.0, 0.0, 0.0, 0.0, 0.0, 0.0, 0.0, 0.0, 0.0, 0.0, 1.7309143020461457E9, 0.0, 2024-11-06 14:31:42.046
37.0, -186406.6420682242, -179217.42698161924, -186613.52981490255, -185488.96884786713, -187500.02235174447, -187500.02235174447, -187500.02235174447, -183791.9350018424, 0.41000000000000003, 0.81, 0.418, 192.0, 12.0, 208.0, 25.0, 80.0, 13.0, 16.0, 0.0, 0.0, 0.0, 1.730914302051154E9, 0.0, 2024-11-06 14:31:42.051
38.0, -184912.6961723204, -180212.21372034715, -186168.05954790825, -185387.58133501787, -187500.02235174447, -187500.02235174447, -187500.02235174447, -184395.94619225815, 0.41000000000000003, 0.81, 0.418, 192.0, 0.0, 0.0, 0.0, 0.0, 0.0, 0.0, 0.0, 0.0, 0.0, 1.7309143020551856E9, 0.0, 2024-11-06 14:31:42.055
39.0, -183057.47903078547, -183641.3960029359, -184225.3353268308, -187500.02235174447, -186985.3957874055, -187500.02235174447, -186418.46614104108, -186328.9250527531, 0.41000000000000003, 0.81, 0.418, 192.0, 0.0, 0.0, 0.0, 0.0, 0.0, 0.0, 0.0, 0.0, 0.0, 1.7309143020592785E9, 0.0, 2024-11-06 14:31:42.059
40.0, -184094.3094008338, -183126.63532813019, -184356.67417725018, -187500.02235174447, -187500.02235174447, -187500.02235174447, -186692.9232112078, -186050.914055218, 0.41000000000000003, 0.81, 0.418, 192.0, 0.0, 0.0, 0.0, 0.0, 0.0, 0.0, 0.0, 0.0, 0.0, 1.730914302063258E9, 0.0, 2024-11-06 14:31:42.063
41.0, -186303.980505941, -179599.53005308274, -186372.0415678074, -186012.6031652216, -187500.02235174447, -187500.02235174447, -187500.02235174447, -184000.8791090106, 0.41000000000000003, 0.81, 0.418, 192.0, 0.0, 0.0, 0.0, 0.0, 0.0, 0.0, 0.0, 0.0, 0.0, 1.730914302066224E9, 0.0, 2024-11-06 14:31:42.066
42.0, -185332.17136051314, -179693.5638420062, -186457.89461826024, -185057.44606941298, -187500.02235174447, -187500.02235174447, -187500.02235174447, -184112.81664524277, 0.41000000000000003, 0.81, 0.418, 192.0, 0.0, 0.0, 0.0, 0.0, 0.0, 0.0, 0.0, 0.0, 0.0, 1.7309143020702076E9, 0.0, 2024-11-06 14:31:42.070
43.0, -183244.2949109429, -183133.85494158923, -184511.549414581, -187500.02235174447, -187500.02235174447, -187500.02235174447, -187007.68047662743, -186057.17254366548, 0.41000000000000003, 0.81, 0.418, 192.0, 0.0, 0.0, 0.0, 0.0, 0.0, 0.0, 0.0, 0.0, 0.0, 1.7309143020741715E9, 0.0, 2024-11-06 14:31:42.074
44.0, -183704.67379148887, -183632.1423807314, -184108.27924111835, -187500.02235174447, -187469.3557583518, -187500.02235174447, -186180.91180097006, -186343.7219075825, 0.41000000000000003, 0.81, 0.418, 192.0, 0.0, 0.0, 0.0, 0.0, 0.0, 0.0, 0.0, 0.0, 0.0, 1.7309143020791452E9, 0.0, 2024-11-06 14:31:42.079
45.0, -186071.99175023937, -180120.10218144683, -186053.08217443016, -186612.3451724464, -187500.02235174447, -187500.02235174447, -187500.02235174447, -184292.97170555257, 0.41000000000000003, 0.81, 0.418, 192.0, 0.0, 0.0, 0.0, 0.0, 0.0, 0.0, 0.0, 0.0, 0.0, 1.7309143020838003E9, 0.0, 2024-11-06 14:31:42.083
46.0, -185741.81178114554, -179297.28976455805, -186680.13801337936, -184848.34550003358, -187500.02235174447, -187500.02235174447, -187500.02235174447, -183874.7929185382, 0.41000000000000003, 0.81, 0.418, 192.0, 0.0, 0.0, 0.0, 0.0, 0.0, 0.0, 0.0, 0.0, 0.0, 1.7309143020872507E9, 0.0, 2024-11-06 14:31:42.087
47.0, -183477.73653003413, -182570.97096097123, -184841.9752528638, -187340.2744341224, -187500.02235174447, -187500.02235174447, -187500.02235174447, -185732.6922694078, 0.41600000000000004, 0.8240000000000001, 0.428, 192.0, 13.0, 0.0, 25.0, 192.0, 13.0, 96.0, 0.0, 0.0, 0.0, 1.7309143020912783E9, 0.0, 2024-11-06 14:31:42.091
48.0, -183334.5736067979, -184007.674039325, -183955.6168264886, -187500.02235174447, -186900.28034451968, -187500.02235174447, -185831.28581420015, -186548.21801760411, 0.41600000000000004, 0.8240000000000001, 0.428, 192.0, 0.0, 0.0, 0.0, 0.0, 0.0, 0.0, 0.0, 0.0, 0.0, 1.730914302094208E9, 0.0, 2024-11-06 14:31:42.094
49.0, -185748.11497308195, -180707.9083571325, -185707.59126038448, -187247.58174986622, -187500.02235174447, -187500.02235174447, -187500.02235174447, -184630.1254189164, 0.41600000000000004, 0.8240000000000001, 0.428, 192.0, 0.0, 0.0, 0.0, 0.0, 0.0, 0.0, 0.0, 0.0, 0.0, 1.730914302098215E9, 0.0, 2024-11-06 14:31:42.098
50.0, -186056.74786052085, -179033.47212475206, -186813.10854114397, -184794.83542380756, -187500.02235174447, -187500.02235174447, -187500.02235174447, -183717.92837595087, 0.41600000000000004, 0.8240000000000001, 0.428, 192.0, 0.0, 0.0, 0.0, 0.0, 0.0, 0.0, 0.0, 0.0, 0.0, 1.730914302102198E9, 0.0, 2024-11-06 14:31:42.102
51.0, -183808.20707180587, -181929.83352301523, -185209.52733868686, -186777.72572967122, -187500.02235174447, -187500.02235174447, -187500.02235174447, -185374.1032331113, 0.41600000000000004, 0.8240000000000001, 0.428, 192.0, 0.0, 0.0, 0.0, 0.0, 0.0, 0.0, 0.0, 0.0, 0.0, 1.7309143021062768E9, 0.0, 2024-11-06 14:31:42.106
52.0, -183148.27181676292, -184181.21298327603, -183906.24182298683, -187500.02235174447, -186557.65045376428, -187500.02235174447, -185681.6855885608, -186634.3616407349, 0.41600000000000004, 0.8240000000000001, 0.428, 192.0, 0.0, 0.0, 0.0, 0.0, 0.0, 0.0, 0.0, 0.0, 0.0, 1.7309143021115532E9, 0.0, 2024-11-06 14:31:42.111
53.0, -185342.72138389605, -181368.35770229792, -185331.56786341284, -187500.02235174447, -187500.02235174447, -187500.02235174447, -187500.02235174447, -185019.62691779458, 0.41600000000000004, 0.8240000000000001, 0.428, 192.0, 0.0, 0.0, 0.0, 0.0, 0.0, 0.0, 0.0, 0.0, 0.0, 1.7309143021153271E9, 0.0, 2024-11-06 14:31:42.115
54.0, -186305.14279665265, -178948.490792333, -186849.0054427392, -184934.84675107562, -187500.02235174447, -187500.02235174447, -187500.02235174447, -183661.22200026776, 0.41600000000000004, 0.8240000000000001, 0.428, 192.0, 0.0, 0.0, 0.0, 0.0, 0.0, 0.0, 0.0, 0.0, 0.0, 1.7309143021193728E9, 0.0, 2024-11-06 14:31:42.119
55.0, -184195.45104449405, -181278.4813378431, -185589.9540293162, -186219.8485398112, -187500.02235174447, -187500.02235174447, -187500.02235174447, -185004.62889726507, 0.41600000000000004, 0.8240000000000001, 0.428, 192.0, 0.0, 0.0, 0.0, 0.0, 0.0, 0.0, 0.0, 0.0, 0.0, 1.73091430212223E9, 0.0, 2024-11-06 14:31:42.122
56.0, -182979.2926286808, -184149.85348580522, -183941.80344841522, -187500.02235174447, -186475.507792891, -187500.02235174447, -185773.12657512745, -186615.5861753924, 0.41600000000000004, 0.8240000000000001, 0.428, 192.0, 0.0, 0.0, 0.0, 0.0, 0.0, 0.0, 0.0, 0.0, 0.0, 1.7309143021262097E9, 0.0, 2024-11-06 14:31:42.126
57.0, -184876.01695966924, -182036.2725301114, -184951.901132095, -187500.02235174447, -187500.02235174447, -187500.02235174447, -187500.02235174447, -185415.766884776, 0.41200000000000003, 0.8320000000000001, 0.428, 192.0, 12.0, 224.0, 26.0, 0.0, 13.0, 96.0, 0.0, 0.0, 0.0, 1.730914302130303E9, 0.0, 2024-11-06 14:31:42.130
58.0, -186418.28732708542, -179044.37977604626, -186768.89679061138, -185202.28537348335, -187500.02235174447, -187500.02235174447, -187500.02235174447, -183705.94784092283, 0.41200000000000003, 0.8320000000000001, 0.428, 192.0, 0.0, 0.0, 0.0, 0.0, 0.0, 0.0, 0.0, 0.0, 0.0, 1.7309143021343236E9, 0.0, 2024-11-06 14:31:42.134
59.0, -184590.76399693062, -180665.1047665006, -185942.17281844292, -185729.71948739522, -187500.02235174447, -187500.02235174447, -187500.02235174447, -184662.78131756562, 0.41200000000000003, 0.8320000000000001, 0.428, 192.0, 0.0, 0.0, 0.0, 0.0, 0.0, 0.0, 0.0, 0.0, 0.0, 1.7309143021392903E9, 0.0, 2024-11-06 14:31:42.139
60.0, -182965.56865758525, -183938.0036518578, -184083.4017495396, -187500.02235174447, -186688.31875185, -187500.02235174447, -186085.5145556348, -186499.04417980244, 0.41200000000000003, 0.8320000000000001, 0.428, 192.0, 0.0, 0.0, 0.0, 0.0, 0.0, 0.0, 0.0, 0.0, 0.0, 1.7309143021433053E9, 0.0, 2024-11-06 14:31:42.143
61.0, -184404.9762970181, -182695.35841886504, -184603.90682267034, -187500.02235174447, -187500.02235174447, -187500.02235174447, -187170.91526638452, -185809.47051161178, 0.41200000000000003, 0.8320000000000001, 0.428, 192.0, 0.0, 0.0, 0.0, 0.0, 0.0, 0.0, 0.0, 0.0, 0.0, 1.7309143021472335E9, 0.0, 2024-11-06 14:31:42.147
62.0, -186395.93558263013, -179317.071058401, -186586.61831457834, -185635.97627114967, -187500.02235174447, -187500.02235174447, -187500.02235174447, -183851.52475256025, 0.41200000000000003, 0.8320000000000001, 0.428, 192.0, 0.0, 0.0, 0.0, 0.0, 0.0, 0.0, 0.0, 0.0, 0.0, 1.7309143021502757E9, 0.0, 2024-11-06 14:31:42.150
63.0, -185010.73092350137, -180089.6591054987, -186268.9553223795, -185321.57663364132, -187500.02235174447, -187500.02235174447, -187500.02235174447, -184337.27286306297, 0.41200000000000003, 0.8320000000000001, 0.428, 192.0, 0.0, 0.0, 0.0, 0.0, 0.0, 0.0, 0.0, 0.0, 0.0, 1.7309143021543684E9, 0.0, 2024-11-06 14:31:42.154
64.0, -183078.53437406235, -183537.19217028527, -184314.94347035213, -187500.02235174447, -187157.21364703344, -187500.02235174447, -186583.19849767667, -186277.40428178362, 0.41200000000000003, 0.8320000000000001, 0.428, 192.0, 0.0, 0.0, 0.0, 0.0, 0.0, 0.0, 0.0, 0.0, 0.0, 1.7309143021582468E9, 0.0, 2024-11-06 14:31:42.158
65.0, -183979.53319305577, -183279.45420497112, -184301.77829286794, -187500.02235174447, -187500.02235174447, -187500.02235174447, -186572.7378812716, -186145.1266580971, 0.41200000000000003, 0.8320000000000001, 0.428, 192.0, 0.0, 0.0, 0.0, 0.0, 0.0, 0.0, 0.0, 0.0, 0.0, 1.7309143021622577E9, 0.0, 2024-11-06 14:31:42.162
66.0, -186256.68421467356, -179732.07589770269, -186318.91147123714, -186166.22670486293, -187500.02235174447, -187500.02235174447, -187500.02235174447, -184081.3900925386, 0.41200000000000003, 0.8320000000000001, 0.428, 192.0, 0.0, 0.0, 0.0, 0.0, 0.0, 0.0, 0.0, 0.0, 0.0, 1.730914302167359E9, 0.0, 2024-11-06 14:31:42.167
67.0, -185421.69009705665, -179599.30653563817, -186535.7233924536, -185017.34703986015, -187500.02235174447, -187500.02235174447, -187500.02235174447, -184068.82841215475, 0.41200000000000003, 0.8320000000000001, 0.426, 192.0, 12.0, 224.0, 26.0, 0.0, 13.0, 80.0, 0.0, 0.0, 0.0, 1.730914302171396E9, 0.0, 2024-11-06 14:31:42.171
68.0, -183280.48238521605, -183020.50924545637, -184606.99136340516, -187500.02235174447, -187500.02235174447, -187500.02235174447, -187192.26118233934, -185998.7003801704, 0.41200000000000003, 0.8320000000000001, 0.426, 192.0, 0.0, 0.0, 0.0, 0.0, 0.0, 0.0, 0.0, 0.0, 0.0, 1.73091430217429E9, 0.0, 2024-11-06 14:31:42.174
69.0, -183591.5292610561, -183758.630902604, -184075.9362668915, -187500.02235174447, -187328.2715473499, -187500.02235174447, -186097.5844976407, -186424.99285042202, 0.41200000000000003, 0.8320000000000001, 0.426, 192.0, 0.0, 0.0, 0.0, 0.0, 0.0, 0.0, 0.0, 0.0, 0.0, 1.7309143021784737E9, 0.0, 2024-11-06 14:31:42.178
70.0, -186001.06966508267, -180260.98522674863, -185990.38553123304, -186792.05319786706, -187500.02235174447, -187500.02235174447, -187500.02235174447, -184387.9219159987, 0.41200000000000003, 0.8320000000000001, 0.426, 192.0, 0.0, 0.0, 0.0, 0.0, 0.0, 0.0, 0.0, 0.0, 0.0, 1.7309143021824052E9, 0.0, 2024-11-06 14:31:42.182
71.0, -185816.0195727372, -179213.06839145048, -186739.95128154175, -184843.5398749757, -187500.02235174447, -187500.02235174447, -187500.02235174447, -183846.16033389096, 0.41200000000000003, 0.8320000000000001, 0.426, 192.0, 0.0, 0.0, 0.0, 0.0, 0.0, 0.0, 0.0, 0.0, 0.0, 1.7309143021863654E9, 0.0, 2024-11-06 14:31:42.186
72.0, -183551.16201056982, -182407.19972934722, -184950.33650998314, -187217.02691519583, -187500.02235174447, -187500.02235174447, -187500.02235174447, -185659.64676852786, 0.41200000000000003, 0.8320000000000001, 0.426, 192.0, 0.0, 0.0, 0.0, 0.0, 0.0, 0.0, 0.0, 0.0, 0.0, 1.7309143021904228E9, 0.0, 2024-11-06 14:31:42.190
73.0, -183280.34827474933, -184071.8906011451, -183947.8607711626, -187500.02235174447, -186805.97833466274, -187500.02235174447, -185793.3996073484, -186596.58719260542, 0.41200000000000003, 0.8320000000000001, 0.426, 192.0, 0.0, 0.0, 0.0, 0.0, 0.0, 0.0, 0.0, 0.0, 0.0, 1.7309143021954165E9, 0.0, 2024-11-06 14:31:42.195
74.0, -185632.60115773694, -180880.57558304974, -185625.78387567805, -187450.26736858697, -187500.02235174447, -187500.02235174447, -187500.02235174447, -184749.2602168632, 0.41200000000000003, 0.8320000000000001, 0.426, 192.0, 0.0, 0.0, 0.0, 0.0, 0.0, 0.0, 0.0, 0.0, 0.0, 1.730914302199434E9, 0.0, 2024-11-06 14:31:42.199
75.0, -186129.50278872286, -179002.91729008168, -186851.9558730073, -184841.70703193033, -187500.02235174447, -187500.02235174447, -187500.02235174447, -183712.65336425943, 0.41200000000000003, 0.8320000000000001, 0.426, 192.0, 0.0, 0.0, 0.0, 0.0, 0.0, 0.0, 0.0, 0.0, 0.0, 1.730914302202414E9, 0.0, 2024-11-06 14:31:42.202
76.0, -183893.88130830304, -181771.06908214916, -185324.5941191428, -186649.9631583647, -187500.02235174447, -187500.02235174447, -187500.02235174447, -185298.64374383018, 0.41200000000000003, 0.8320000000000001, 0.426, 192.0, 0.0, 0.0, 0.0, 0.0, 0.0, 0.0, 0.0, 0.0, 0.0, 1.730914302206401E9, 0.0, 2024-11-06 14:31:42.206
77.0, -183081.10482467472, -184197.41799800613, -183916.45657020292, -187500.02235174447, -186536.39394478727, -187500.02235174447, -185735.55329269808, -186657.62980671285, 0.41200000000000003, 0.838, 0.424, 192.0, 12.0, 224.0, 26.0, 48.0, 13.0, 64.0, 0.0, 0.0, 0.0, 1.7309143022103033E9, 0.0, 2024-11-06 14:31:42.210
78.0, -185208.3203444863, -181555.2629894332, -185241.28916755787, -187500.02235174447, -187500.02235174447, -187500.02235174447, -187500.02235174447, -185149.15527691308, 0.41200000000000003, 0.838, 0.424, 192.0, 0.0, 0.0, 0.0, 0.0, 0.0, 0.0, 0.0, 0.0, 0.0, 1.7309143022144685E9, 0.0, 2024-11-06 14:31:42.214
79.0, -186329.2826806644, -178977.52570838045, -186847.21730318278, -185021.90679572904, -187500.02235174447, -187500.02235174447, -187500.02235174447, -183699.13055886395, 0.41200000000000003, 0.838, 0.424, 192.0, 0.0, 0.0, 0.0, 0.0, 0.0, 0.0, 0.0, 0.0, 0.0, 1.7309143022184548E9, 0.0, 2024-11-06 14:31:42.218
80.0, -184296.32446722084, -181132.0103564275, -185694.29197243357, -186114.10243679315, -187500.02235174447, -187500.02235174447, -187500.02235174447, -184942.15577151248, 0.41200000000000003, 0.838, 0.424, 192.0, 0.0, 0.0, 0.0, 0.0, 0.0, 0.0, 0.0, 0.0, 0.0, 1.730914302222464E9, 0.0, 2024-11-06 14:31:42.222
81.0, -183006.449998194, -184124.707773293, -183990.66436179454, -187500.02235174447, -186518.69136317866, -187500.02235174447, -185858.44318371336, -186618.51425391607, 0.41200000000000003, 0.838, 0.424, 192.0, 0.0, 0.0, 0.0, 0.0, 0.0, 0.0, 0.0, 0.0, 0.0, 1.730914302227372E9, 0.0, 2024-11-06 14:31:42.227
82.0, -184776.75286254322, -182223.69190736912, -184885.38234059603, -187500.02235174447, -187500.02235174447, -187500.02235174447, -187500.02235174447, -185539.41673510274, 0.41200000000000003, 0.838, 0.424, 192.0, 0.0, 0.0, 0.0, 0.0, 0.0, 0.0, 0.0, 0.0, 0.0, 1.73091430223045E9, 0.0, 2024-11-06 14:31:42.230
83.0, -186434.73821100453, -179104.84124479786, -186754.34580497097, -185310.64663060269, -187500.02235174447, -187500.02235174447, -187500.02235174447, -183758.76501307072, 0.41200000000000003, 0.838, 0.424, 192.0, 0.0, 0.0, 0.0, 0.0, 0.0, 0.0, 0.0, 0.0, 0.0, 1.7309143022344947E9, 0.0, 2024-11-06 14:31:42.234
84.0, -184711.12814082243, -180512.5094071042, -186053.909188975, -185636.15508510533, -187500.02235174447, -187500.02235174447, -187500.02235174447, -184600.24113657966, 0.41200000000000003, 0.838, 0.424, 192.0, 0.0, 0.0, 0.0, 0.0, 0.0, 0.0, 0.0, 0.0, 0.0, 1.7309143022384014E9, 0.0, 2024-11-06 14:31:42.238
85.0, -183020.95628034548, -183850.42951708194, -184153.720337596, -187500.02235174447, -186779.80444190555, -187500.02235174447, -186205.5434233598, -186480.9616185381, 0.41200000000000003, 0.838, 0.424, 192.0, 0.0, 0.0, 0.0, 0.0, 0.0, 0.0, 0.0, 0.0, 0.0, 1.7309143022423956E9, 0.0, 2024-11-06 14:31:42.242
86.0, -184328.26511004748, -182864.0693860137, -184541.79132482904, -187500.02235174447, -187500.02235174447, -187500.02235174447, -187026.81356988117, -185924.6266990455, 0.41200000000000003, 0.838, 0.424, 192.0, 0.0, 0.0, 0.0, 0.0, 0.0, 0.0, 0.0, 0.0, 0.0, 1.7309143022463892E9, 0.0, 2024-11-06 14:31:42.246
87.0, -186404.38454203424, -179418.7044404393, -186551.14609612778, -185781.97786593175, -187500.02235174447, -187500.02235174447, -187500.02235174447, -183924.07851506217, 0.40800000000000003, 0.844, 0.424, 192.0, 12.0, 192.0, 26.0, 96.0, 13.0, 64.0, 0.0, 0.0, 0.0, 1.730914302250481E9, 0.0, 2024-11-06 14:31:42.250
88.0, -185143.36617509916, -179963.2823423484, -186364.35256771478, -185249.35814730622, -187500.02235174447, -187500.02235174447, -187500.02235174447, -184287.92021130567, 0.40800000000000003, 0.844, 0.424, 192.0, 0.0, 0.0, 0.0, 0.0, 0.0, 0.0, 0.0, 0.0, 0.0, 1.730914302255398E9, 0.0, 2024-11-06 14:31:42.255
89.0, -183161.34758726927, -183426.52868348703, -184396.79555854746, -187500.02235174447, -187297.47084349048, -187500.02235174447, -186746.7238601117, -186241.48502844395, 0.40800000000000003, 0.844, 0.424, 192.0, 0.0, 0.0, 0.0, 0.0, 0.0, 0.0, 0.0, 0.0, 0.0, 1.730914302258412E9, 0.0, 2024-11-06 14:31:42.258
90.0, -183906.7112096204, -183427.91449164326, -184254.30318764487, -187500.02235174447, -187500.02235174447, -187500.02235174447, -186455.01124322548, -186249.50930470342, 0.40800000000000003, 0.844, 0.424, 192.0, 0.0, 0.0, 0.0, 0.0, 0.0, 0.0, 0.0, 0.0, 0.0, 1.7309143022623734E9, 0.0, 2024-11-06 14:31:42.262
91.0, -186247.60940642472, -179867.41571037957, -186264.82024965528, -186328.16509344164, -187500.02235174447, -187500.02235174447, -187500.02235174447, -184161.476392922, 0.40800000000000003, 0.844, 0.424, 192.0, 0.0, 0.0, 0.0, 0.0, 0.0, 0.0, 0.0, 0.0, 0.0, 1.730914302266398E9, 0.0, 2024-11-06 14:31:42.266
92.0, -185557.94633125621, -179499.7295140898, -186617.5531289045, -184968.93316136996, -187500.02235174447, -187500.02235174447, -187500.02235174447, -184016.21240570693, 0.40800000000000003, 0.844, 0.424, 192.0, 0.0, 0.0, 0.0, 0.0, 0.0, 0.0, 0.0, 0.0, 0.0, 1.7309143022705984E9, 0.0, 2024-11-06 14:31:42.270
93.0, -183378.2265637191, -182883.29188624525, -184712.29043153411, -187500.02235174447, -187500.02235174447, -187500.02235174447, -187396.4890714275, -185933.7909142722, 0.40800000000000003, 0.844, 0.424, 192.0, 0.0, 0.0, 0.0, 0.0, 0.0, 0.0, 0.0, 0.0, 0.0, 1.7309143022744572E9, 0.0, 2024-11-06 14:31:42.274
94.0, -183553.82186816, -183874.97173249387, -184061.31822601776, -187500.02235174447, -187176.36909203161, -187500.02235174447, -186032.406810809, -186496.5631361679, 0.40800000000000003, 0.844, 0.424, 192.0, 0.0, 0.0, 0.0, 0.0, 0.0, 0.0, 0.0, 0.0, 0.0, 1.7309143022783933E9, 0.0, 2024-11-06 14:31:42.278
95.0, -185950.4429638914, -180437.27343526762, -185924.8725682345, -186981.81950829262, -187500.02235174447, -187500.02235174447, -187500.02235174447, -184498.98773419712, 0.40800000000000003, 0.844, 0.424, 192.0, 0.0, 0.0, 0.0, 0.0, 0.0, 0.0, 0.0, 0.0, 0.0, 1.7309143022824595E9, 0.0, 2024-11-06 14:31:42.282
96.0, -185938.9318154969, -179167.82846067293, -186800.65861948236, -184846.3338430326, -187500.02235174447, -187500.02235174447, -187500.02235174447, -183841.01943266625, 0.40800000000000003, 0.844, 0.424, 192.0, 0.0, 0.0, 0.0, 0.0, 0.0, 0.0, 0.0, 0.0, 0.0, 1.7309143022854257E9, 0.0, 2024-11-06 14:31:42.285
97.0, -183679.0586923431, -182277.20198359515, -185063.6375026271, -187093.1088439356, -187500.02235174447, -187500.02235174447, -187500.02235174447, -185601.04049456603, 0.418, 0.834, 0.432, 192.0, 13.0, 16.0, 26.0, 16.0, 13.0, 128.0, 0.0, 0.0, 0.0, 1.7309143022904851E9, 0.0, 2024-11-06 14:31:42.290
98.0, -183279.09657705983, -184150.92636953908, -183954.58864624368, -187500.02235174447, -186712.59274632845, -187500.02235174447, -185795.61243004948, -186651.08074558745, 0.418, 0.834, 0.432, 192.0, 0.0, 0.0, 0.0, 0.0, 0.0, 0.0, 0.0, 0.0, 0.0, 1.7309143022945936E9, 0.0, 2024-11-06 14:31:42.294
99.0, -185568.56340987247, -181073.76171037694, -185550.97258698614, -187500.02235174447, -187500.02235174447, -187500.02235174447, -187500.02235174447, -184881.82841322763, 0.418, 0.834, 0.432, 192.0, 0.0, 0.0, 0.0, 0.0, 0.0, 0.0, 0.0, 0.0, 0.0, 1.730914302298393E9, 0.0, 2024-11-06 14:31:42.298
100.0, -186234.48893242943, -178998.17872025713, -186886.2658007462, -184893.04898894418, -187500.02235174447, -187500.02235174447, -187500.02235174447, -183737.64261456046, 0.418, 0.834, 0.432, 192.0, 0.0, 0.0, 0.0, 0.0, 0.0, 0.0, 0.0, 0.0, 0.0, 1.730914302302658E9, 0.0, 2024-11-06 14:31:42.302
101.0, -184047.88482760012, -181627.50382751273, -185443.39364092276, -186520.63596494627, -187500.02235174447, -187500.02235174447, -187500.02235174447, -185241.28916755787, 0.418, 0.834, 0.432, 192.0, 0.0, 0.0, 0.0, 0.0, 0.0, 0.0, 0.0, 0.0, 0.0, 1.7309143023064504E9, 0.0, 2024-11-06 14:31:42.306
102.0, -183103.1212929632, -184223.05544889637, -183953.672224721, -187500.02235174447, -186490.03642678697, -187500.02235174447, -185752.8982463954, -186696.65595253182, 0.418, 0.834, 0.432, 192.0, 0.0, 0.0, 0.0, 0.0, 0.0, 0.0, 0.0, 0.0, 0.0, 1.7309143023104482E9, 0.0, 2024-11-06 14:31:42.310
103.0, -185156.17372467206, -181743.57643646916, -185182.32526568478, -187500.02235174447, -187500.02235174447, -187500.02235174447, -187500.02235174447, -185275.0850051743, 0.418, 0.834, 0.432, 192.0, 0.0, 0.0, 0.0, 0.0, 0.0, 0.0, 0.0, 0.0, 0.0, 1.730914302313477E9, 0.0, 2024-11-06 14:31:42.313
104.0, -186422.13182713173, -179009.0640198069, -186867.60209412602, -185077.16030802255, -187500.02235174447, -187500.02235174447, -187500.02235174447, -183725.103285921, 0.418, 0.834, 0.432, 192.0, 0.0, 0.0, 0.0, 0.0, 0.0, 0.0, 0.0, 0.0, 0.0, 1.7309143023184817E9, 0.0, 2024-11-06 14:31:42.318
105.0, -184432.60305316487, -181000.2691746079, -185814.72317155878, -185998.38745574802, -187500.02235174447, -187500.02235174447, -187500.02235174447, -184885.11411966255, 0.418, 0.834, 0.432, 192.0, 0.0, 0.0, 0.0, 0.0, 0.0, 0.0, 0.0, 0.0, 0.0, 1.7309143023224905E9, 0.0, 2024-11-06 14:31:42.322
106.0, -182996.23525097792, -184103.74183699393, -184043.57094092024, -187500.02235174447, -186559.1256688983, -187500.02235174447, -185960.12126924054, -186625.48799818612, 0.418, 0.834, 0.432, 192.0, 0.0, 0.0, 0.0, 0.0, 0.0, 0.0, 0.0, 0.0, 0.0, 1.730914302326458E9, 0.0, 2024-11-06 14:31:42.326
107.0, -184676.2370677277, -182410.66424973778, -184812.94033681636, -187500.02235174447, -187500.02235174447, -187500.02235174447, -187500.02235174447, -185674.30951289053, 0.41600000000000004, 0.84, 0.432, 192.0, 13.0, 0.0, 26.0, 64.0, 13.0, 128.0, 0.0, 0.0, 0.0, 1.7309143023304543E9, 0.0, 2024-11-06 14:31:42.330
108.0, -186469.9645602661, -179193.06358016297, -186736.35265068445, -185445.4723531571, -187500.02235174447, -187500.02235174447, -187500.02235174447, -183818.60063297758, 0.41600000000000004, 0.84, 0.432, 192.0, 0.0, 0.0, 0.0, 0.0, 0.0, 0.0, 0.0, 0.0, 0.0, 1.7309143023346963E9, 0.0, 2024-11-06 14:31:42.334
109.0, -184857.26384607123, -180391.586469601, -186163.20921936145, -185551.24080791962, -187500.02235174447, -187500.02235174447, -187500.02235174447, -184537.92447303826, 0.41600000000000004, 0.84, 0.432, 192.0, 0.0, 0.0, 0.0, 0.0, 0.0, 0.0, 0.0, 0.0, 0.0, 1.7309143023385432E9, 0.0, 2024-11-06 14:31:42.338
110.0, -183072.3205891038, -183777.74164411327, -184244.37901310672, -187500.02235174447, -186924.10730410903, -187500.02235174447, -186378.43416672162, -186446.98696696604, 0.41600000000000004, 0.84, 0.432, 192.0, 0.0, 0.0, 0.0, 0.0, 0.0, 0.0, 0.0, 0.0, 0.0, 1.7309143023414857E9, 0.0, 2024-11-06 14:31:42.341
111.0, -184219.1885971056, -183028.01943159336, -184500.30648712, -187500.02235174447, -187500.02235174447, -187500.02235174447, -186908.50578647922, -186041.63808126905, 0.41600000000000004, 0.84, 0.432, 192.0, 0.0, 0.0, 0.0, 0.0, 0.0, 0.0, 0.0, 0.0, 0.0, 1.730914302346501E9, 0.0, 2024-11-06 14:31:42.346
112.0, -186374.7908323754, -179542.6672151884, -186511.04706657495, -185957.12613548353, -187500.02235174447, -187500.02235174447, -187500.02235174447, -184014.67013533952, 0.41600000000000004, 0.84, 0.432, 192.0, 0.0, 0.0, 0.0, 0.0, 0.0, 0.0, 0.0, 0.0, 0.0, 1.7309143023507092E9, 0.0, 2024-11-06 14:31:42.350
113.0, -185290.17243268163, -179847.43325083653, -186475.6195516133, -185191.69064661153, -187500.02235174447, -187500.02235174447, -187500.02235174447, -184235.86299846924, 0.41600000000000004, 0.84, 0.432, 192.0, 0.0, 0.0, 0.0, 0.0, 0.0, 0.0, 0.0, 0.0, 0.0, 1.730914302354565E9, 0.0, 2024-11-06 14:31:42.354
114.0, -183231.37560264775, -183305.82926342837, -184506.96730696768, -187500.02235174447, -187472.5520578089, -187500.02235174447, -186938.09949613805, -186190.9924377194, 0.41600000000000004, 0.84, 0.432, 192.0, 0.0, 0.0, 0.0, 0.0, 0.0, 0.0, 0.0, 0.0, 0.0, 1.7309143023585167E9, 0.0, 2024-11-06 14:31:42.358
115.0, -183827.2954615707, -183575.25719109265, -184226.5870245203, -187500.02235174447, -187500.02235174447, -187500.02235174447, -186354.9424832991, -186348.79575357388, 0.41600000000000004, 0.84, 0.432, 192.0, 0.0, 0.0, 0.0, 0.0, 0.0, 0.0, 0.0, 0.0, 0.0, 1.7309143023625908E9, 0.0, 2024-11-06 14:31:42.362
116.0, -186192.08767319773, -180025.0402122784, -186214.21590020848, -186532.03535461848, -187500.02235174447, -187500.02235174447, -187500.02235174447, -184278.4877751455, 0.41600000000000004, 0.84, 0.432, 192.0, 0.0, 0.0, 0.0, 0.0, 0.0, 0.0, 0.0, 0.0, 0.0, 1.730914302366665E9, 0.0, 2024-11-06 14:31:42.366
117.0, -185683.85370777294, -179423.01832711915, -186707.6306590594, -184956.08090830815, -187500.02235174447, -187500.02235174447, -187500.02235174447, -183998.01808572034, 0.424, 0.836, 0.43, 192.0, 13.0, 64.0, 26.0, 32.0, 13.0, 112.0, 0.0, 0.0, 0.0, 1.730914302369483E9, 0.0, 2024-11-06 14:31:42.369
118.0, -183469.1981636522, -182751.30483523666, -184828.34068874607, -187500.02235174447, -187500.02235174447, -187500.02235174447, -187500.02235174447, -185883.0301026142, 0.424, 0.836, 0.43, 192.0, 0.0, 0.0, 0.0, 0.0, 0.0, 0.0, 0.0, 0.0, 0.0, 1.7309143023735268E9, 0.0, 2024-11-06 14:31:42.373
119.0, -183464.83957348342, -183984.49528032486, -184044.48736244292, -187500.02235174447, -187070.37711982455, -187500.02235174447, -185972.21356299086, -186577.6999685407, 0.424, 0.836, 0.43, 192.0, 0.0, 0.0, 0.0, 0.0, 0.0, 0.0, 0.0, 0.0, 0.0, 1.7309143023785782E9, 0.0, 2024-11-06 14:31:42.378
120.0, -185869.3284832631, -180613.1816641309, -185854.44222145586, -187169.5741617172, -187500.02235174447, -187500.02235174447, -187500.02235174447, -184618.86013971095, 0.424, 0.836, 0.43, 192.0, 0.0, 0.0, 0.0, 0.0, 0.0, 0.0, 0.0, 0.0, 0.0, 1.7309143023825731E9, 0.0, 2024-11-06 14:31:42.382
121.0, -186039.29114810124, -179128.26587298702, -186857.58851261003, -184860.72836646182, -187500.02235174447, -187500.02235174447, -187500.02235174447, -183828.7483249603, 0.424, 0.836, 0.43, 192.0, 0.0, 0.0, 0.0, 0.0, 0.0, 0.0, 0.0, 0.0, 0.0, 1.7309143023865287E9, 0.0, 2024-11-06 14:31:42.386
122.0, -183783.93307732738, -182131.22274055754, -185184.18046047457, -186957.7243277698, -187500.02235174447, -187500.02235174447, -187500.02235174447, -185538.52266532453, 0.424, 0.836, 0.43, 192.0, 0.0, 0.0, 0.0, 0.0, 0.0, 0.0, 0.0, 0.0, 0.0, 1.730914302390525E9, 0.0, 2024-11-06 14:31:42.390
123.0, -183228.58163459084, -184207.0292481219, -183953.64987297653, -187500.02235174447, -186658.50152474662, -187500.02235174447, -185760.2966738101, -186706.15544392532, 0.424, 0.836, 0.43, 192.0, 0.0, 0.0, 0.0, 0.0, 0.0, 0.0, 0.0, 0.0, 0.0, 1.7309143023946648E9, 0.0, 2024-11-06 14:31:42.394
124.0, -185483.80559489795, -181260.4881835566, -185470.01456856902, -187500.02235174447, -187500.02235174447, -187500.02235174447, -187500.02235174447, -185008.13812114456, 0.424, 0.836, 0.43, 192.0, 0.0, 0.0, 0.0, 0.0, 0.0, 0.0, 0.0, 0.0, 0.0, 1.7309143023975632E9, 0.0, 2024-11-06 14:31:42.397
125.0, -186310.1272356662, -179006.2029965166, -186904.370713755, -184938.87006507756, -187500.02235174447, -187500.02235174447, -187500.02235174447, -183741.88944600697, 0.424, 0.836, 0.43, 192.0, 0.0, 0.0, 0.0, 0.0, 0.0, 0.0, 0.0, 0.0, 0.0, 1.7309143024015703E9, 0.0, 2024-11-06 14:31:42.401
126.0, -184156.78252658638, -181486.50902348864, -185553.38657538733, -186404.07161761186, -187500.02235174447, -187500.02235174447, -187500.02235174447, -185168.57894284476, 0.424, 0.836, 0.43, 192.0, 0.0, 0.0, 0.0, 0.0, 0.0, 0.0, 0.0, 0.0, 0.0, 1.7309143024065104E9, 0.0, 2024-11-06 14:31:42.406
127.0, -183092.54891783584, -184226.6764314981, -183985.43405359198, -187500.02235174447, -186528.63788946127, -187500.02235174447, -185805.13427318743, -186706.825996259, 0.42, 0.838, 0.43, 192.0, 13.0, 32.0, 26.0, 48.0, 13.0, 112.0, 0.0, 0.0, 0.0, 1.730914302411047E9, 0.0, 2024-11-06 14:31:42.411
128.0, -185050.8746565431, -181933.7897817838, -185097.05336058777, -187500.02235174447, -187500.02235174447, -187500.02235174447, -187500.02235174447, -185398.4219310787, 0.42, 0.838, 0.43, 192.0, 0.0, 0.0, 0.0, 0.0, 0.0, 0.0, 0.0, 0.0, 0.0, 1.7309143024144871E9, 0.0, 2024-11-06 14:31:42.414
129.0, -186450.98792922354, -179062.99877917752, -186850.7041753178, -185190.9083355556, -187500.02235174447, -187500.02235174447, -187500.02235174447, -183769.27033296472, 0.42, 0.838, 0.43, 192.0, 0.0, 0.0, 0.0, 0.0, 0.0, 0.0, 0.0, 0.0, 0.0, 1.7309143024175391E9, 0.0, 2024-11-06 14:31:42.417
130.0, -184569.35102574242, -180858.11207987217, -185921.6762687774, -185892.55194575214, -187500.02235174447, -187500.02235174447, -187500.02235174447, -184813.00739204974, 0.42, 0.838, 0.43, 192.0, 0.0, 0.0, 0.0, 0.0, 0.0, 0.0, 0.0, 0.0, 0.0, 1.7309143024216208E9, 0.0, 2024-11-06 14:31:42.421
131.0, -183049.58886499272, -184047.99658632238, -184101.52901429284, -187500.02235174447, -186678.77455696758, -187500.02235174447, -186067.1190699481, -186607.85247181088, 0.42, 0.838, 0.43, 192.0, 0.0, 0.0, 0.0, 0.0, 0.0, 0.0, 0.0, 0.0, 0.0, 1.7309143024256692E9, 0.0, 2024-11-06 14:31:42.425
132.0, -184587.21006956222, -182582.25859192119, -184742.15236212642, -187500.02235174447, -187500.02235174447, -187500.02235174447, -187393.76215860393, -185789.97979044676, 0.42, 0.838, 0.43, 192.0, 0.0, 0.0, 0.0, 0.0, 0.0, 0.0, 0.0, 0.0, 0.0, 1.730914302429561E9, 0.0, 2024-11-06 14:31:42.429
133.0, -186492.3610082103, -179280.95063936122, -186701.5286328231, -185553.36422364286, -187500.02235174447, -187500.02235174447, -187500.02235174447, -183881.07375873017, 0.42, 0.838, 0.43, 192.0, 0.0, 0.0, 0.0, 0.0, 0.0, 0.0, 0.0, 0.0, 0.0, 1.730914302434576E9, 0.0, 2024-11-06 14:31:42.434
134.0, -184974.0517108502, -180268.96479951916, -186249.68811865905, -185463.10787953233, -187500.02235174447, -187500.02235174447, -187500.02235174447, -184493.0868736609, 0.42, 0.838, 0.43, 192.0, 0.0, 0.0, 0.0, 0.0, 0.0, 0.0, 0.0, 0.0, 0.0, 1.7309143024385903E9, 0.0, 2024-11-06 14:31:42.438
135.0, -183130.94921481004, -183696.9624396518, -184304.6616679027, -187500.02235174447, -187072.18761112544, -187500.02235174447, -186510.60003168584, -186421.64008875372, 0.42, 0.838, 0.43, 192.0, 0.0, 0.0, 0.0, 0.0, 0.0, 0.0, 0.0, 0.0, 0.0, 1.7309143024426455E9, 0.0, 2024-11-06 14:31:42.442
136.0, -184160.2693987214, -183199.3902563322, -184422.1871402487, -187500.02235174447, -187500.02235174447, -187500.02235174447, -186775.3340930145, -186151.1392773556, 0.42, 0.838, 0.43, 192.0, 0.0, 0.0, 0.0, 0.0, 0.0, 0.0, 0.0, 0.0, 0.0, 1.7309143024456873E9, 0.0, 2024-11-06 14:31:42.445
137.0, -186389.54298371592, -179666.27236202627, -186449.35625187831, -186078.89843927603, -187500.02235174447, -187500.02235174447, -187500.02235174447, -184088.0062088974, 0.422, 0.84, 0.428, 192.0, 13.0, 48.0, 26.0, 64.0, 13.0, 96.0, 0.0, 0.0, 0.0, 1.7309143024495845E9, 0.0, 2024-11-06 14:31:42.449
138.0, -185411.74357077404, -179754.04766250227, -186537.80210468796, -185122.6461079891, -187500.02235174447, -187500.02235174447, -187500.02235174447, -184197.3285910283, 0.422, 0.84, 0.428, 192.0, 0.0, 0.0, 0.0, 0.0, 0.0, 0.0, 0.0, 0.0, 0.0, 1.7309143024535587E9, 0.0, 2024-11-06 14:31:42.453
139.0, -183276.54847819192, -183201.51367205544, -184592.88741265386, -187500.02235174447, -187500.02235174447, -187500.02235174447, -187102.34011439566, -186147.80886743177, 0.422, 0.84, 0.428, 192.0, 0.0, 0.0, 0.0, 0.0, 0.0, 0.0, 0.0, 0.0, 0.0, 1.7309143024575932E9, 0.0, 2024-11-06 14:31:42.457
140.0, -183716.27434686117, -183710.82052121407, -184187.67263742362, -187500.02235174447, -187500.02235174447, -187500.02235174447, -186241.37326972166, -186453.93835949164, 0.422, 0.84, 0.428, 192.0, 0.0, 0.0, 0.0, 0.0, 0.0, 0.0, 0.0, 0.0, 0.0, 1.7309143024625895E9, 0.0, 2024-11-06 14:31:42.462
141.0, -186152.7486029564, -180178.99902808655, -186145.99837613088, -186694.4207780863, -187500.02235174447, -187500.02235174447, -187500.02235174447, -184385.53027934197, 0.422, 0.84, 0.428, 192.0, 0.0, 0.0, 0.0, 0.0, 0.0, 0.0, 0.0, 0.0, 0.0, 1.730914302466728E9, 0.0, 2024-11-06 14:31:42.466
142.0, -185800.08277894056, -179349.65990181683, -186769.70145341178, -184917.32298342264, -187500.02235174447, -187500.02235174447, -187500.02235174447, -183972.0230069188, 0.422, 0.84, 0.428, 192.0, 0.0, 0.0, 0.0, 0.0, 0.0, 0.0, 0.0, 0.0, 0.0, 1.7309143024707668E9, 0.0, 2024-11-06 14:31:42.470
143.0, -183531.44777196026, -182614.91449057037, -184931.33752719613, -187406.21208026554, -187500.02235174447, -187500.02235174447, -187500.02235174447, -185828.80477056562, 0.422, 0.84, 0.428, 192.0, 0.0, 0.0, 0.0, 0.0, 0.0, 0.0, 0.0, 0.0, 0.0, 1.7309143024736888E9, 0.0, 2024-11-06 14:31:42.473
144.0, -183414.3469827589, -184070.30362728878, -184026.85183606768, -187500.02235174447, -186957.00907194725, -187500.02235174447, -185919.55285305416, -186650.1643240648, 0.422, 0.84, 0.428, 192.0, 0.0, 0.0, 0.0, 0.0, 0.0, 0.0, 0.0, 0.0, 0.0, 1.7309143024776647E9, 0.0, 2024-11-06 14:31:42.477
145.0, -185781.1955548758, -180796.28715470879, -185765.01289189016, -187353.14903892865, -187500.02235174447, -187500.02235174447, -187500.02235174447, -184749.01434767418, 0.422, 0.84, 0.428, 192.0, 0.0, 0.0, 0.0, 0.0, 0.0, 0.0, 0.0, 0.0, 0.0, 1.7309143024815974E9, 0.0, 2024-11-06 14:31:42.481
146.0, -186135.04602134778, -179105.24357619806, -186890.89261184845, -184878.67681725943, -187500.02235174447, -187500.02235174447, -187500.02235174447, -183817.01365912124, 0.422, 0.84, 0.428, 192.0, 0.0, 0.0, 0.0, 0.0, 0.0, 0.0, 0.0, 0.0, 0.0, 1.7309143024856498E9, 0.0, 2024-11-06 14:31:42.485
147.0, -183872.4906888593, -181991.16670980057, -185288.51840359194, -186823.03271568211, -187500.02235174447, -187500.02235174447, -187500.02235174447, -185465.0748330444, 0.424, 0.84, 0.426, 192.0, 13.0, 64.0, 26.0, 64.0, 13.0, 80.0, 0.0, 0.0, 0.0, 1.7309143024906077E9, 0.0, 2024-11-06 14:31:42.490
148.0, -183158.10658432325, -184250.52574283193, -183965.3845388156, -187500.02235174447, -186616.68141087075, -187500.02235174447, -185803.14496793092, -186741.6276623759, 0.424, 0.84, 0.426, 192.0, 0.0, 0.0, 0.0, 0.0, 0.0, 0.0, 0.0, 0.0, 0.0, 1.7309143024947124E9, 0.0, 2024-11-06 14:31:42.494
149.0, -185380.0487971364, -181444.89007531287, -185394.6668380102, -187500.02235174447, -187500.02235174447, -187500.02235174447, -187500.02235174447, -185131.72091623794, 0.424, 0.84, 0.426, 192.0, 0.0, 0.0, 0.0, 0.0, 0.0, 0.0, 0.0, 0.0, 0.0, 1.7309143024986353E9, 0.0, 2024-11-06 14:31:42.498
150.0, -186361.20097174658, -179015.8142466324, -186919.18992032885, -184989.74263545783, -187500.02235174447, -187500.02235174447, -187500.02235174447, -183761.60368461654, 0.424, 0.84, 0.426, 192.0, 0.0, 0.0, 0.0, 0.0, 0.0, 0.0, 0.0, 0.0, 0.0, 1.7309143025016308E9, 0.0, 2024-11-06 14:31:42.501
151.0, -184261.56750459285, -181340.5074287066, -185662.7313092627, -186282.05344463032, -187500.02235174447, -187500.02235174447, -187500.02235174447, -185105.3458577807, 0.424, 0.84, 0.426, 192.0, 0.0, 0.0, 0.0, 0.0, 0.0, 0.0, 0.0, 0.0, 0.0, 1.7309143025056477E9, 0.0, 2024-11-06 14:31:42.505
152.0, -183069.23604836894, -184209.24207082298, -184008.14342595858, -187500.02235174447, -186533.778790686, -187500.02235174447, -185878.9844368678, -186724.3721156564, 0.424, 0.84, 0.426, 192.0, 0.0, 0.0, 0.0, 0.0, 0.0, 0.0, 0.0, 0.0, 0.0, 1.730914302509782E9, 0.0, 2024-11-06 14:31:42.509
153.0, -184937.3054429657, -182109.3403827358, -185011.4685310684, -187500.02235174447, -187500.02235174447, -187500.02235174447, -187500.02235174447, -185529.6490227758, 0.424, 0.84, 0.426, 192.0, 0.0, 0.0, 0.0, 0.0, 0.0, 0.0, 0.0, 0.0, 0.0, 1.7309143025137088E9, 0.0, 2024-11-06 14:31:42.513
154.0, -186484.8731738178, -179116.66531761474, -186830.2523291412, -185280.22590639902, -187500.02235174447, -187500.02235174447, -187500.02235174447, -183801.34508625808, 0.424, 0.84, 0.426, 192.0, 0.0, 0.0, 0.0, 0.0, 0.0, 0.0, 0.0, 0.0, 0.0, 1.7309143025177858E9, 0.0, 2024-11-06 14:31:42.517
155.0, -184680.61800964095, -180715.5973572251, -186017.5652524907, -185789.71156951328, -187500.02235174447, -187500.02235174447, -187500.02235174447, -184743.00172841572, 0.424, 0.84, 0.426, 192.0, 0.0, 0.0, 0.0, 0.0, 0.0, 0.0, 0.0, 0.0, 0.0, 1.73091430252266E9, 0.0, 2024-11-06 14:31:42.522
156.0, -183054.77446970638, -183991.2231554059, -184156.715471353, -187500.02235174447, -186749.0707932795, -187500.02235174447, -186205.02933323735, -186595.58136410493, 0.424, 0.84, 0.426, 192.0, 0.0, 0.0, 0.0, 0.0, 0.0, 0.0, 0.0, 0.0, 0.0, 1.7309143025267856E9, 0.0, 2024-11-06 14:31:42.526
157.0, -184468.00821638206, -182776.62936170452, -184678.20402123977, -187500.02235174447, -187500.02235174447, -187500.02235174447, -187255.87424705914, -185917.36238209755, 0.42, 0.838, 0.422, 192.0, 13.0, 32.0, 26.0, 48.0, 13.0, 48.0, 0.0, 0.0, 0.0, 1.7309143025297444E9, 0.0, 2024-11-06 14:31:42.529
158.0, -186472.9149905342, -179399.70545765228, -186659.01561486907, -185724.35506872597, -187500.02235174447, -187500.02235174447, -187500.02235174447, -183955.8626956776, 0.42, 0.838, 0.422, 192.0, 0.0, 0.0, 0.0, 0.0, 0.0, 0.0, 0.0, 0.0, 0.0, 1.7309143025336115E9, 0.0, 2024-11-06 14:31:42.533
159.0, -185120.61209924368, -180150.85818181734, -186357.31176821134, -185382.23926809302, -187500.02235174447, -187500.02235174447, -187500.02235174447, -184423.55059666047, 0.42, 0.838, 0.422, 192.0, 0.0, 0.0, 0.0, 0.0, 0.0, 0.0, 0.0, 0.0, 0.0, 1.730914302537606E9, 0.0, 2024-11-06 14:31:42.537
160.0, -183171.40587227416, -183602.2357466502, -184394.44862537965, -187500.02235174447, -187204.0405516673, -187500.02235174447, -186678.43928080075, -186380.55758244486, 0.42, 0.838, 0.422, 192.0, 0.0, 0.0, 0.0, 0.0, 0.0, 0.0, 0.0, 0.0, 0.0, 1.7309143025416608E9, 0.0, 2024-11-06 14:31:42.541
161.0, -184055.41736548155, -183352.29854015095, -184388.70422705464, -187500.02235174447, -187500.02235174447, -187500.02235174447, -186651.7065944322, -186256.70656641803, 0.42, 0.838, 0.422, 192.0, 0.0, 0.0, 0.0, 0.0, 0.0, 0.0, 0.0, 0.0, 0.0, 1.7309143025458584E9, 0.0, 2024-11-06 14:31:42.545
162.0, -186355.41186993264, -179803.82499740424, -186409.3466293033, -186243.38492672265, -187500.02235174447, -187500.02235174447, -187500.02235174447, -184173.16635527211, 0.42, 0.838, 0.422, 192.0, 0.0, 0.0, 0.0, 0.0, 0.0, 0.0, 0.0, 0.0, 0.0, 1.7309143025507889E9, 0.0, 2024-11-06 14:31:42.550
163.0, -185515.1427406243, -179672.150870818, -186626.47147494217, -185088.58204943922, -187500.02235174447, -187500.02235174447, -187500.02235174447, -184158.39185218714, 0.42, 0.838, 0.422, 192.0, 0.0, 0.0, 0.0, 0.0, 0.0, 0.0, 0.0, 0.0, 0.0, 1.7309143025536416E9, 0.0, 2024-11-06 14:31:42.553
164.0, -183375.18672647318, -183086.40218811063, -184696.26423075967, -187500.02235174447, -187500.02235174447, -187500.02235174447, -187287.14433755213, -186095.90811680653, 0.42, 0.838, 0.422, 192.0, 0.0, 0.0, 0.0, 0.0, 0.0, 0.0, 0.0, 0.0, 0.0, 1.7309143025577452E9, 0.0, 2024-11-06 14:31:42.557
165.0, -183681.42797725534, -183840.66180475496, -184161.63285513318, -187500.02235174447, -187376.59601886227, -187500.02235174447, -186167.9924926749, -186531.09658135136, 0.42, 0.838, 0.422, 192.0, 0.0, 0.0, 0.0, 0.0, 0.0, 0.0, 0.0, 0.0, 0.0, 1.7309143025616963E9, 0.0, 2024-11-06 14:31:42.561
166.0, -186092.10832024913, -180353.20852437124, -186076.1715264525, -186880.4543471878, -187500.02235174447, -187500.02235174447, -187500.02235174447, -184486.91779219126, 0.42, 0.838, 0.422, 192.0, 0.0, 0.0, 0.0, 0.0, 0.0, 0.0, 0.0, 0.0, 0.0, 1.730914302565823E9, 0.0, 2024-11-06 14:31:42.565
167.0, -185919.44109433188, -179301.13426460436, -186831.1016954305, -184920.31811717965, -187500.02235174447, -187500.02235174447, -187500.02235174447, -183933.17567505548, 0.418, 0.836, 0.424, 192.0, 13.0, 16.0, 26.0, 32.0, 13.0, 64.0, 0.0, 0.0, 0.0, 1.7309143025697813E9, 0.0, 2024-11-06 14:31:42.569
168.0, -183649.37557570645, -182480.89343081636, -185042.4704006279, -187294.94509636704, -187500.02235174447, -187500.02235174447, -187500.02235174447, -185751.601845217, 0.418, 0.836, 0.424, 192.0, 0.0, 0.0, 0.0, 0.0, 0.0, 0.0, 0.0, 0.0, 0.0, 1.730914302573776E9, 0.0, 2024-11-06 14:31:42.573
169.0, -183360.54633385496, -184150.34522418323, -184038.27357748433, -187500.02235174447, -186867.22211447026, -187500.02235174447, -185875.117585077, -186696.99122869867, 0.418, 0.836, 0.424, 192.0, 0.0, 0.0, 0.0, 0.0, 0.0, 0.0, 0.0, 0.0, 0.0, 1.7309143025788124E9, 0.0, 2024-11-06 14:31:42.578
170.0, -185717.56013841156, -180973.93881963956, -185709.62526912993, -187500.02235174447, -187500.02235174447, -187500.02235174447, -187500.02235174447, -184848.61372096703, 0.418, 0.836, 0.424, 192.0, 0.0, 0.0, 0.0, 0.0, 0.0, 0.0, 0.0, 0.0, 0.0, 1.730914302581839E9, 0.0, 2024-11-06 14:31:42.581
171.0, -186229.951528305, -179088.63623006776, -186941.58636827307, -184912.91968976494, -187500.02235174447, -187500.02235174447, -187500.02235174447, -183811.67159219642, 0.418, 0.836, 0.424, 192.0, 0.0, 0.0, 0.0, 0.0, 0.0, 0.0, 0.0, 0.0, 0.0, 1.7309143025857356E9, 0.0, 2024-11-06 14:31:42.585
172.0, -184006.06471372425, -181845.38863246306, -185418.76201853302, -186713.7773887846, -187500.02235174447, -187500.02235174447, -187500.02235174447, -185393.48219555407, 0.418, 0.836, 0.424, 192.0, 0.0, 0.0, 0.0, 0.0, 0.0, 0.0, 0.0, 0.0, 0.0, 1.7309143025898266E9, 0.0, 2024-11-06 14:31:42.589
173.0, -183175.20566883156, -184278.1972024676, -183999.5827078322, -187500.02235174447, -186578.9963697191, -187500.02235174447, -185798.67461903987, -186772.00368309068, 0.418, 0.836, 0.424, 192.0, 0.0, 0.0, 0.0, 0.0, 0.0, 0.0, 0.0, 0.0, 0.0, 1.7309143025937486E9, 0.0, 2024-11-06 14:31:42.593
174.0, -185315.6310696162, -181633.76231596022, -185329.2432819895, -187500.02235174447, -187500.02235174447, -187500.02235174447, -187500.02235174447, -185250.16281010662, 0.418, 0.836, 0.424, 192.0, 0.0, 0.0, 0.0, 0.0, 0.0, 0.0, 0.0, 0.0, 0.0, 1.7309143025978854E9, 0.0, 2024-11-06 14:31:42.597
175.0, -186451.63612981274, -179052.09112788335, -186941.29579559516, -185067.8843340736, -187500.02235174447, -187500.02235174447, -187500.02235174447, -183780.66972263693, 0.418, 0.836, 0.424, 192.0, 0.0, 0.0, 0.0, 0.0, 0.0, 0.0, 0.0, 0.0, 0.0, 1.7309143026018765E9, 0.0, 2024-11-06 14:31:42.601
176.0, -184390.91704975572, -181209.14622654274, -185782.53665954314, -186180.46476608096, -187500.02235174447, -187500.02235174447, -187500.02235174447, -185034.53553134628, 0.418, 0.836, 0.424, 192.0, 0.0, 0.0, 0.0, 0.0, 0.0, 0.0, 0.0, 0.0, 0.0, 1.7309143026067026E9, 0.0, 2024-11-06 14:31:42.606
177.0, -183087.67623754457, -184205.24110856547, -184063.97808360794, -187500.02235174447, -186569.92156147023, -187500.02235174447, -185948.02897549022, -186727.90369128034, 0.418, 0.834, 0.424, 192.0, 13.0, 16.0, 26.0, 16.0, 13.0, 64.0, 0.0, 0.0, 0.0, 1.7309143026097298E9, 0.0, 2024-11-06 14:31:42.609
178.0, -184863.45527928535, -182307.15332116524, -184951.8564286061, -187500.02235174447, -187500.02235174447, -187500.02235174447, -187500.02235174447, -185658.2609603716, 0.418, 0.834, 0.424, 192.0, 0.0, 0.0, 0.0, 0.0, 0.0, 0.0, 0.0, 0.0, 0.0, 1.7309143026137476E9, 0.0, 2024-11-06 14:31:42.613
179.0, -186553.00129091757, -179183.9887719141, -186835.01325071018, -185386.88843093973, -187500.02235174447, -187500.02235174447, -187500.02235174447, -183857.6938340299, 0.418, 0.834, 0.424, 192.0, 0.0, 0.0, 0.0, 0.0, 0.0, 0.0, 0.0, 0.0, 0.0, 1.730914302617782E9, 0.0, 2024-11-06 14:31:42.617
180.0, -184808.31352571413, -180593.4227220324, -186132.34146026868, -185714.69911512127, -187500.02235174447, -187500.02235174447, -187500.02235174447, -184706.3001640201, 0.418, 0.834, 0.424, 192.0, 0.0, 0.0, 0.0, 0.0, 0.0, 0.0, 0.0, 0.0, 0.0, 1.730914302621806E9, 0.0, 2024-11-06 14:31:42.621
181.0, -183095.00760972593, -183923.22914877287, -184241.495638072, -187500.02235174447, -186857.47675388775, -187500.02235174447, -186317.90564273664, -186589.45698612416, 0.418, 0.834, 0.424, 192.0, 0.0, 0.0, 0.0, 0.0, 0.0, 0.0, 0.0, 0.0, 0.0, 1.7309143026258664E9, 0.0, 2024-11-06 14:31:42.625
182.0, -184401.84705279436, -182932.80100021375, -184632.04766893957, -187500.02235174447, -187500.02235174447, -187500.02235174447, -187112.13017846708, -186046.9130929605, 0.418, 0.834, 0.424, 192.0, 0.0, 0.0, 0.0, 0.0, 0.0, 0.0, 0.0, 0.0, 0.0, 1.7309143026297216E9, 0.0, 2024-11-06 14:31:42.629
183.0, -186510.08594156336, -179494.3203919316, -186641.46949547165, -185854.77749762268, -187500.02235174447, -187500.02235174447, -187500.02235174447, -184020.8839202981, 0.418, 0.834, 0.424, 192.0, 0.0, 0.0, 0.0, 0.0, 0.0, 0.0, 0.0, 0.0, 0.0, 1.7309143026348715E9, 0.0, 2024-11-06 14:31:42.634
184.0, -185237.35526053375, -180041.22287526404, -186452.93253099115, -185331.7466773685, -187500.02235174447, -187500.02235174447, -187500.02235174447, -184377.6177618048, 0.418, 0.834, 0.424, 192.0, 0.0, 0.0, 0.0, 0.0, 0.0, 0.0, 0.0, 0.0, 0.0, 1.7309143026377616E9, 0.0, 2024-11-06 14:31:42.637
185.0, -183204.5982127903, -183495.08148373145, -184484.16852762326, -187500.02235174447, -187364.39196638967, -187500.02235174447, -186848.42429738335, -186346.6276343617, 0.418, 0.834, 0.424, 192.0, 0.0, 0.0, 0.0, 0.0, 0.0, 0.0, 0.0, 0.0, 0.0, 1.730914302640784E9, 0.0, 2024-11-06 14:31:42.640
186.0, -183945.1115065946, -183506.39146642585, -184329.62856645926, -187500.02235174447, -187500.02235174447, -187500.02235174447, -186542.09363962337, -186373.11445154125, 0.418, 0.834, 0.424, 192.0, 0.0, 0.0, 0.0, 0.0, 0.0, 0.0, 0.0, 0.0, 0.0, 1.730914302645794E9, 0.0, 2024-11-06 14:31:42.645
187.0, -186321.61603231623, -179951.45826953155, -186344.75008782747, -186443.94712972012, -187500.02235174447, -187500.02235174447, -187500.02235174447, -184284.3439321928, 0.41600000000000004, 0.836, 0.428, 192.0, 13.0, 0.0, 26.0, 32.0, 13.0, 96.0, 0.0, 0.0, 0.0, 1.730914302649852E9, 0.0, 2024-11-06 14:31:42.649
188.0, -185653.23181786918, -179579.81581447314, -186704.3673043689, -185064.59862763865, -187500.02235174447, -187500.02235174447, -187500.02235174447, -184127.211168672, 0.41600000000000004, 0.836, 0.428, 192.0, 0.0, 0.0, 0.0, 0.0, 0.0, 0.0, 0.0, 0.0, 0.0, 1.730914302653894E9, 0.0, 2024-11-06 14:31:42.653
189.0, -183442.53253251704, -182949.94478821097, -184801.80916807763, -187500.02235174447, -187500.02235174447, -187500.02235174447, -187471.38976709722, -186050.80229649573, 0.41600000000000004, 0.836, 0.428, 192.0, 0.0, 0.0, 0.0, 0.0, 0.0, 0.0, 0.0, 0.0, 0.0, 1.7309143026577685E9, 0.0, 2024-11-06 14:31:42.657
190.0, -183594.74791225768, -183939.92590188098, -184146.0089857589, -187500.02235174447, -187238.41753463956, -187500.02235174447, -186096.9362970515, -186627.07497204246, 0.41600000000000004, 0.836, 0.428, 192.0, 0.0, 0.0, 0.0, 0.0, 0.0, 0.0, 0.0, 0.0, 0.0, 1.7309143026617696E9, 0.0, 2024-11-06 14:31:42.661
191.0, -186015.93357514543, -180515.102209461, -186005.2494412958, -187080.34599785163, -187500.02235174447, -187500.02235174447, -187500.02235174447, -184613.65218325285, 0.41600000000000004, 0.836, 0.428, 192.0, 0.0, 0.0, 0.0, 0.0, 0.0, 0.0, 0.0, 0.0, 0.0, 1.7309143026647997E9, 0.0, 2024-11-06 14:31:42.664
192.0, -186025.34365956113, -179245.21019997718, -186887.33868448006, -184931.76221034076, -187500.02235174447, -187500.02235174447, -187500.02235174447, -183924.52554995127, 0.41600000000000004, 0.836, 0.428, 192.0, 0.0, 0.0, 0.0, 0.0, 0.0, 0.0, 0.0, 0.0, 0.0, 1.7309143026697764E9, 0.0, 2024-11-06 14:31:42.669
193.0, -183743.78934428567, -182334.26598718954, -185154.96673047147, -187175.89970539807, -187500.02235174447, -187500.02235174447, -187500.02235174447, -185696.52714687912, 0.41600000000000004, 0.836, 0.428, 192.0, 0.0, 0.0, 0.0, 0.0, 0.0, 0.0, 0.0, 0.0, 0.0, 1.7309143026738238E9, 0.0, 2024-11-06 14:31:42.673
194.0, -183303.12470234928, -184210.49376851248, -184024.90723430004, -187500.02235174447, -186769.74615690068, -187500.02235174447, -185847.73669811926, -186770.81904063452, 0.41600000000000004, 0.836, 0.428, 192.0, 0.0, 0.0, 0.0, 0.0, 0.0, 0.0, 0.0, 0.0, 0.0, 1.730914302678002E9, 0.0, 2024-11-06 14:31:42.678
195.0, -185611.6128696934, -181159.23478117405, -185616.4184947513, -187500.02235174447, -187500.02235174447, -187500.02235174447, -187500.02235174447, -184997.5210425283, 0.41600000000000004, 0.836, 0.428, 192.0, 0.0, 0.0, 0.0, 0.0, 0.0, 0.0, 0.0, 0.0, 0.0, 1.7309143026819327E9, 0.0, 2024-11-06 14:31:42.681
196.0, -186316.05044794685, -179089.91027950172, -186963.5357813282, -184985.98754238934, -187500.02235174447, -187500.02235174447, -187500.02235174447, -183821.4393045234, 0.41600000000000004, 0.836, 0.428, 192.0, 0.0, 0.0, 0.0, 0.0, 0.0, 0.0, 0.0, 0.0, 0.0, 1.7309143026858432E9, 0.0, 2024-11-06 14:31:42.685
197.0, -184116.37057261117, -181704.7961598392, -185527.3467930969, -186611.85343406838, -187500.02235174447, -187500.02235174447, -187500.02235174447, -185327.9468808111, 0.41400000000000003, 0.842, 0.43, 192.0, 12.0, 240.0, 26.0, 80.0, 13.0, 112.0, 0.0, 0.0, 0.0, 1.730914302688904E9, 0.0, 2024-11-06 14:31:42.688
198.0, -183154.9326366106, -184290.8929933182, -184021.50976914284, -187500.02235174447, -186564.80301198998, -187500.02235174447, -185839.9135875599, -186802.35735206096, 0.41400000000000003, 0.842, 0.43, 192.0, 0.0, 0.0, 0.0, 0.0, 0.0, 0.0, 0.0, 0.0, 0.0, 1.7309143026931603E9, 0.0, 2024-11-06 14:31:42.693
199.0, -185205.30285898483, -181818.99122226133, -185238.80812392334, -187500.02235174447, -187500.02235174447, -187500.02235174447, -187500.02235174447, -185386.24023035052, 0.41400000000000003, 0.842, 0.43, 192.0, 0.0, 0.0, 0.0, 0.0, 0.0, 0.0, 0.0, 0.0, 0.0, 1.7309143026968243E9, 0.0, 2024-11-06 14:31:42.696
200.0, -186490.43875818717, -179093.39715163675, -186927.59417624405, -185187.8684983097, -187500.02235174447, -187500.02235174447, -187500.02235174447, -183823.2497958243, 0.41400000000000003, 0.842, 0.43, 192.0, 0.0, 0.0, 0.0, 0.0, 0.0, 0.0, 0.0, 0.0, 0.0, 1.730914302701948E9, 0.0, 2024-11-06 14:31:42.701
201.0, -184513.47166460415, -181066.11741377323, -185885.75701543773, -186082.7652910668, -187500.02235174447, -187500.02235174447, -187500.02235174447, -184970.2072108039, 0.41400000000000003, 0.842, 0.43, 192.0, 0.0, 0.0, 0.0, 0.0, 0.0, 0.0, 0.0, 0.0, 0.0, 1.7309143027059965E9, 0.0, 2024-11-06 14:31:42.705
202.0, -183071.04653966983, -184161.5657998998, -184108.703924263, -187500.02235174447, -186642.810600139, -187500.02235174447, -186045.32611910417, -186729.35655466994, 0.41400000000000003, 0.842, 0.43, 192.0, 0.0, 0.0, 0.0, 0.0, 0.0, 0.0, 0.0, 0.0, 0.0, 1.7309143027098484E9, 0.0, 2024-11-06 14:31:42.709
203.0, -184755.13872565495, -182479.50762266014, -184879.77205273774, -187500.02235174447, -187500.02235174447, -187500.02235174447, -187500.02235174447, -185781.7990519761, 0.41400000000000003, 0.842, 0.43, 192.0, 0.0, 0.0, 0.0, 0.0, 0.0, 0.0, 0.0, 0.0, 0.0, 1.730914302713964E9, 0.0, 2024-11-06 14:31:42.713
204.0, -186560.26560786553, -179270.49002295616, -186804.25725033967, -185521.60239477188, -187500.02235174447, -187500.02235174447, -187500.02235174447, -183911.78505561175, 0.41400000000000003, 0.842, 0.43, 192.0, 0.0, 0.0, 0.0, 0.0, 0.0, 0.0, 0.0, 0.0, 0.0, 1.7309143027168436E9, 0.0, 2024-11-06 14:31:42.716
205.0, -184930.42110567345, -180471.49395602872, -186228.67747887105, -185627.57201523447, -187500.02235174447, -187500.02235174447, -187500.02235174447, -184640.5413318326, 0.41400000000000003, 0.842, 0.43, 192.0, 0.0, 0.0, 0.0, 0.0, 0.0, 0.0, 0.0, 0.0, 0.0, 1.7309143027209716E9, 0.0, 2024-11-06 14:31:42.720
206.0, -183135.5313224234, -183850.67538627094, -184310.09314180532, -187500.02235174447, -186992.8389183091, -187500.02235174447, -186458.05108047143, -186561.9419886997, 0.41400000000000003, 0.842, 0.43, 192.0, 0.0, 0.0, 0.0, 0.0, 0.0, 0.0, 0.0, 0.0, 0.0, 1.73091430272487E9, 0.0, 2024-11-06 14:31:42.724
207.0, -184319.39146749873, -183097.42159812708, -184566.2217815187, -187500.02235174447, -187500.02235174447, -187500.02235174447, -186987.89918278446, -186157.7330419699, 0.418, 0.842, 0.432, 192.0, 13.0, 16.0, 26.0, 80.0, 13.0, 128.0, 0.0, 0.0, 0.0, 1.73091430272992E9, 0.0, 2024-11-06 14:31:42.729
208.0, -186489.18706049767, -179613.03050673372, -186586.01481747805, -186008.8480721531, -187500.02235174447, -187500.02235174447, -187500.02235174447, -184096.4551683015, 0.418, 0.842, 0.432, 192.0, 0.0, 0.0, 0.0, 0.0, 0.0, 0.0, 0.0, 0.0, 0.0, 1.7309143027338831E9, 0.0, 2024-11-06 14:31:42.733
209.0, -185352.3996892452, -179940.6176734707, -186532.59414822987, -185268.49124056, -187500.02235174447, -187500.02235174447, -187500.02235174447, -184330.25441530402, 0.418, 0.842, 0.432, 192.0, 0.0, 0.0, 0.0, 0.0, 0.0, 0.0, 0.0, 0.0, 0.0, 1.730914302737828E9, 0.0, 2024-11-06 14:31:42.737
210.0, -183273.1063095458, -183388.776587102, -184579.1634415583, -187500.02235174447, -187500.02235174447, -187500.02235174447, -187022.47733145684, -186293.8775174472, 0.418, 0.842, 0.432, 192.0, 0.0, 0.0, 0.0, 0.0, 0.0, 0.0, 0.0, 0.0, 0.0, 1.7309143027418883E9, 0.0, 2024-11-06 14:31:42.741
211.0, -183864.4887643443, -183646.46984892726, -184296.43622594312, -187500.02235174447, -187500.02235174447, -187500.02235174447, -186438.9626907066, -186463.61666484078, 0.418, 0.842, 0.432, 192.0, 0.0, 0.0, 0.0, 0.0, 0.0, 0.0, 0.0, 0.0, 0.0, 1.73091430274486E9, 0.0, 2024-11-06 14:31:42.744
212.0, -186256.90773211812, -180111.273242387, -186279.1253661067, -186611.4511026682, -187500.02235174447, -187500.02235174447, -187500.02235174447, -184386.20083167564, 0.418, 0.842, 0.432, 192.0, 0.0, 0.0, 0.0, 0.0, 0.0, 0.0, 0.0, 0.0, 0.0, 1.7309143027490053E9, 0.0, 2024-11-06 14:31:42.749
213.0, -185773.1489268719, -179509.60898513903, -186779.46916573873, -185022.04090619576, -187500.02235174447, -187500.02235174447, -187500.02235174447, -184088.96733390898, 0.418, 0.842, 0.432, 192.0, 0.0, 0.0, 0.0, 0.0, 0.0, 0.0, 0.0, 0.0, 0.0, 1.7309143027530615E9, 0.0, 2024-11-06 14:31:42.753
214.0, -183547.20575180123, -182830.36295537508, -184900.0897884476, -187500.02235174447, -187500.02235174447, -187500.02235174447, -187500.02235174447, -185985.31168524167, 0.418, 0.842, 0.432, 192.0, 0.0, 0.0, 0.0, 0.0, 0.0, 0.0, 0.0, 0.0, 0.0, 1.7309143027578492E9, 0.0, 2024-11-06 14:31:42.757
215.0, -183540.54493195354, -184045.0908595432, -184117.28699413384, -187500.02235174447, -187136.44887643444, -187500.02235174447, -186052.27751162977, -186695.6724757758, 0.418, 0.842, 0.432, 192.0, 0.0, 0.0, 0.0, 0.0, 0.0, 0.0, 0.0, 0.0, 0.0, 1.7309143027619376E9, 0.0, 2024-11-06 14:31:42.761
216.0, -185930.4381526039, -180698.36416225007, -185919.70931526535, -187273.1521455231, -187500.02235174447, -187500.02235174447, -187500.02235174447, -184734.70923122278, 0.418, 0.842, 0.432, 192.0, 0.0, 0.0, 0.0, 0.0, 0.0, 0.0, 0.0, 0.0, 0.0, 1.730914302765914E9, 0.0, 2024-11-06 14:31:42.765
217.0, -186134.3307655252, -179219.19276943122, -186932.4221530464, -184945.03914654723, -187500.02235174447, -187500.02235174447, -187500.02235174447, -183911.02509630026, 0.41600000000000004, 0.842, 0.432, 192.0, 13.0, 0.0, 26.0, 80.0, 13.0, 128.0, 0.0, 0.0, 0.0, 1.730914302769942E9, 0.0, 2024-11-06 14:31:42.769
218.0, -183875.82109878317, -182211.53255838546, -185261.85277245674, -187039.86698864307, -187500.02235174447, -187500.02235174447, -187500.02235174447, -185627.77318093457, 0.41600000000000004, 0.842, 0.432, 192.0, 0.0, 0.0, 0.0, 0.0, 0.0, 0.0, 0.0, 0.0, 0.0, 1.7309143027730896E9, 0.0, 2024-11-06 14:31:42.773
219.0, -183296.28506854596, -184274.35270242128, -184043.34742347567, -187500.02235174447, -186732.35168842695, -187500.02235174447, -185849.8601138425, -186810.3369248315, 0.41600000000000004, 0.842, 0.432, 192.0, 0.0, 0.0, 0.0, 0.0, 0.0, 0.0, 0.0, 0.0, 0.0, 1.730914302777064E9, 0.0, 2024-11-06 14:31:42.777
220.0, -185543.8423805049, -181342.42967872974, -185556.2475986776, -187500.02235174447, -187500.02235174447, -187500.02235174447, -187500.02235174447, -185115.2476805744, 0.41600000000000004, 0.842, 0.432, 192.0, 0.0, 0.0, 0.0, 0.0, 0.0, 0.0, 0.0, 0.0, 0.0, 1.7309143027809432E9, 0.0, 2024-11-06 14:31:42.780
221.0, -186401.90349839968, -179095.38645689326, -186995.36466543254, -185020.94567071745, -187500.02235174447, -187500.02235174447, -187500.02235174447, -183832.52576977323, 0.41600000000000004, 0.842, 0.432, 192.0, 0.0, 0.0, 0.0, 0.0, 0.0, 0.0, 0.0, 0.0, 0.0, 1.7309143027849548E9, 0.0, 2024-11-06 14:31:42.784
222.0, -184241.98737645, -181570.19395472933, -185648.0238614111, -186467.68468233166, -187500.02235174447, -187500.02235174447, -187500.02235174447, -185255.9295601761, 0.41600000000000004, 0.842, 0.432, 192.0, 0.0, 0.0, 0.0, 0.0, 0.0, 0.0, 0.0, 0.0, 0.0, 1.7309143027902176E9, 0.0, 2024-11-06 14:31:42.790
223.0, -183135.9783573125, -184305.68984814762, -184061.78761265133, -187500.02235174447, -186588.58526809042, -187500.02235174447, -185901.87262319002, -186816.30484060108, 0.41600000000000004, 0.842, 0.432, 192.0, 0.0, 0.0, 0.0, 0.0, 0.0, 0.0, 0.0, 0.0, 0.0, 1.730914302794103E9, 0.0, 2024-11-06 14:31:42.794
224.0, -185112.65487821758, -182006.701172197, -185175.23976269245, -187500.02235174447, -187500.02235174447, -187500.02235174447, -187500.02235174447, -185511.94644116718, 0.41600000000000004, 0.842, 0.432, 192.0, 0.0, 0.0, 0.0, 0.0, 0.0, 0.0, 0.0, 0.0, 0.0, 1.730914302797197E9, 0.0, 2024-11-06 14:31:42.797
225.0, -186547.50276178156, -179137.0724603024, -186938.27831009368, -185256.1307258762, -187500.02235174447, -187500.02235174447, -187500.02235174447, -183856.86681948506, 0.41600000000000004, 0.842, 0.432, 192.0, 0.0, 0.0, 0.0, 0.0, 0.0, 0.0, 0.0, 0.0, 0.0, 1.7309143028010497E9, 0.0, 2024-11-06 14:31:42.801
226.0, -184653.2818261721, -180929.4141446846, -186006.27762154076, -185959.40601341796, -187500.02235174447, -187500.02235174447, -187500.02235174447, -184905.9459454949, 0.41600000000000004, 0.842, 0.432, 192.0, 0.0, 0.0, 0.0, 0.0, 0.0, 0.0, 0.0, 0.0, 0.0, 1.730914302805402E9, 0.0, 2024-11-06 14:31:42.805
227.0, -183125.76361009642, -184117.66697378957, -184181.5259076984, -187500.02235174447, -186727.83663604697, -187500.02235174447, -186140.6786609505, -186719.99117374315, 0.422, 0.84, 0.426, 192.0, 13.0, 48.0, 26.0, 64.0, 13.0, 80.0, 0.0, 0.0, 0.0, 1.7309143028090804E9, 0.0, 2024-11-06 14:31:42.809
228.0, -184672.66078861486, -182665.18356385035, -184821.45635145385, -187500.02235174447, -187500.02235174447, -187500.02235174447, -187463.7007670046, -185904.19720461336, 0.422, 0.84, 0.426, 192.0, 0.0, 0.0, 0.0, 0.0, 0.0, 0.0, 0.0, 0.0, 0.0, 1.7309143028131597E9, 0.0, 2024-11-06 14:31:42.813
229.0, -186585.18780293321, -179369.62000961544, -186784.92299138583, -185633.49522751514, -187500.02235174447, -187500.02235174447, -187500.02235174447, -183967.99969291684, 0.422, 0.84, 0.426, 192.0, 0.0, 0.0, 0.0, 0.0, 0.0, 0.0, 0.0, 0.0, 0.0, 1.7309143028181057E9, 0.0, 2024-11-06 14:31:42.818
230.0, -185077.16030802255, -180357.25419011764, -186339.81035230285, -185532.0853629214, -187500.02235174447, -187500.02235174447, -187500.02235174447, -184571.85442112142, 0.422, 0.84, 0.426, 192.0, 0.0, 0.0, 0.0, 0.0, 0.0, 0.0, 0.0, 0.0, 0.0, 1.7309143028220816E9, 0.0, 2024-11-06 14:31:42.822
231.0, -183211.37079136024, -183780.04387379216, -184392.21345093413, -187500.02235174447, -187137.16413225702, -187500.02235174447, -186596.56484086096, -186519.16074981223, 0.422, 0.84, 0.426, 192.0, 0.0, 0.0, 0.0, 0.0, 0.0, 0.0, 0.0, 0.0, 0.0, 1.7309143028250985E9, 0.0, 2024-11-06 14:31:42.825
232.0, -184225.8941204422, -183286.38324575225, -184501.78170225403, -187500.02235174447, -187500.02235174447, -187500.02235174447, -186833.13570417592, -186262.4062612541, 0.422, 0.84, 0.426, 192.0, 0.0, 0.0, 0.0, 0.0, 0.0, 0.0, 0.0, 0.0, 0.0, 1.7309143028291364E9, 0.0, 2024-11-06 14:31:42.829
233.0, -186485.2084499846, -179750.73960432288, -186536.03631687598, -186159.32001582623, -187500.02235174447, -187500.02235174447, -187500.02235174447, -184179.71541639752, 0.422, 0.84, 0.426, 192.0, 0.0, 0.0, 0.0, 0.0, 0.0, 0.0, 0.0, 0.0, 0.0, 1.7309143028332512E9, 0.0, 2024-11-06 14:31:42.833
234.0, -185509.10776962136, -179841.48768681142, -186623.7445621186, -185194.52931815738, -187500.02235174447, -187500.02235174447, -187500.02235174447, -184282.62284786976, 0.422, 0.84, 0.426, 192.0, 0.0, 0.0, 0.0, 0.0, 0.0, 0.0, 0.0, 0.0, 0.0, 1.730914302836942E9, 0.0, 2024-11-06 14:31:42.836
235.0, -183362.06625247793, -183282.60580093932, -184668.838640313, -187500.02235174447, -187500.02235174447, -187500.02235174447, -187192.50705152834, -186243.85431335622, 0.422, 0.84, 0.426, 192.0, 0.0, 0.0, 0.0, 0.0, 0.0, 0.0, 0.0, 0.0, 0.0, 1.7309143028409464E9, 0.0, 2024-11-06 14:31:42.840
236.0, -183800.4733682243, -183785.00596106125, -184261.00871098146, -187500.02235174447, -187500.02235174447, -187500.02235174447, -186333.88714002218, -186555.95172118567, 0.422, 0.84, 0.426, 192.0, 0.0, 0.0, 0.0, 0.0, 0.0, 0.0, 0.0, 0.0, 0.0, 1.7309143028460293E9, 0.0, 2024-11-06 14:31:42.846
237.0, -186220.6979061005, -180272.00463676508, -186212.4054089076, -186790.0415408661, -187500.02235174447, -187500.02235174447, -187500.02235174447, -184486.15783287978, 0.424, 0.84, 0.428, 192.0, 13.0, 64.0, 26.0, 64.0, 13.0, 96.0, 0.0, 0.0, 0.0, 1.7309143028500402E9, 0.0, 2024-11-06 14:31:42.850
238.0, -185906.94646918136, -179443.20195236232, -186846.56910259355, -185003.13133038656, -187500.02235174447, -187500.02235174447, -187500.02235174447, -184049.00241482287, 0.424, 0.84, 0.428, 192.0, 0.0, 0.0, 0.0, 0.0, 0.0, 0.0, 0.0, 0.0, 0.0, 1.7309143028532407E9, 0.0, 2024-11-06 14:31:42.853
239.0, -183631.091848742, -182703.4273986134, -185006.97583043287, -187497.98834299904, -187500.02235174447, -187500.02235174447, -187500.02235174447, -185914.72487625183, 0.424, 0.84, 0.428, 192.0, 0.0, 0.0, 0.0, 0.0, 0.0, 0.0, 0.0, 0.0, 0.0, 1.730914302857002E9, 0.0, 2024-11-06 14:31:42.857
240.0, -183489.40414063982, -184151.4181079171, -184101.0149241704, -187500.02235174447, -187036.78244790822, -187500.02235174447, -185971.69947286838, -186749.33901421298, 0.424, 0.84, 0.428, 192.0, 0.0, 0.0, 0.0, 0.0, 0.0, 0.0, 0.0, 0.0, 0.0, 1.7309143028610554E9, 0.0, 2024-11-06 14:31:42.861
241.0, -185891.16613759592, -180867.3433503322, -185851.15651502094, -187429.92728113264, -187500.02235174447, -187500.02235174447, -187500.02235174447, -184830.1735317914, 0.424, 0.84, 0.428, 192.0, 0.0, 0.0, 0.0, 0.0, 0.0, 0.0, 0.0, 0.0, 0.0, 1.730914302865044E9, 0.0, 2024-11-06 14:31:42.865
242.0, -186230.33150796074, -179189.01791441656, -186969.10136569757, -184953.71162339588, -187500.02235174447, -187500.02235174447, -187500.02235174447, -183906.84532008713, 0.424, 0.84, 0.428, 192.0, 0.0, 0.0, 0.0, 0.0, 0.0, 0.0, 0.0, 0.0, 0.0, 1.7309143028690257E9, 0.0, 2024-11-06 14:31:42.869
243.0, -183962.41175680302, -182072.30354217335, -185369.20820107558, -186916.7312284388, -187500.02235174447, -187500.02235174447, -187500.02235174447, -185564.16011621477, 0.424, 0.84, 0.428, 192.0, 0.0, 0.0, 0.0, 0.0, 0.0, 0.0, 0.0, 0.0, 0.0, 1.7309143028742764E9, 0.0, 2024-11-06 14:31:42.874
244.0, -183258.1976959941, -184330.23206355955, -184058.65836842757, -187500.02235174447, -186694.1749088973, -187500.02235174447, -185841.94759630534, -186847.0161374827, 0.424, 0.84, 0.428, 192.0, 0.0, 0.0, 0.0, 0.0, 0.0, 0.0, 0.0, 0.0, 0.0, 1.730914302878057E9, 0.0, 2024-11-06 14:31:42.878
245.0, -185461.61031265382, -181543.93065499433, -185474.6860831602, -187500.02235174447, -187500.02235174447, -187500.02235174447, -187500.02235174447, -185237.75759193394, 0.424, 0.84, 0.428, 192.0, 0.0, 0.0, 0.0, 0.0, 0.0, 0.0, 0.0, 0.0, 0.0, 1.7309143028810167E9, 0.0, 2024-11-06 14:31:42.881
246.0, -186470.79157481095, -179124.75664910756, -187004.4394736814, -185082.43531971402, -187500.02235174447, -187500.02235174447, -187500.02235174447, -183859.10199393058, 0.424, 0.84, 0.428, 192.0, 0.0, 0.0, 0.0, 0.0, 0.0, 0.0, 0.0, 0.0, 0.0, 1.7309143028851545E9, 0.0, 2024-11-06 14:31:42.885
247.0, -184369.28056112299, -181443.57132239002, -185753.1441155844, -186360.82099209083, -187500.02235174447, -187500.02235174447, -187500.02235174447, -185194.12698675718, 0.422, 0.846, 0.434, 192.0, 13.0, 48.0, 26.0, 112.0, 13.0, 144.0, 0.0, 0.0, 0.0, 1.7309143028894763E9, 0.0, 2024-11-06 14:31:42.889
248.0, -183158.21834304553, -184312.1047988063, -184097.17042412405, -187500.02235174447, -186612.56868989096, -187500.02235174447, -185940.11645795303, -186828.3524308625, 0.422, 0.846, 0.434, 192.0, 0.0, 0.0, 0.0, 0.0, 0.0, 0.0, 0.0, 0.0, 0.0, 1.7309143028932838E9, 0.0, 2024-11-06 14:31:42.893
249.0, -185039.7211360599, -182197.96504950107, -185104.0941600912, -187500.02235174447, -187500.02235174447, -187500.02235174447, -187500.02235174447, -185630.47774201367, 0.422, 0.846, 0.434, 192.0, 0.0, 0.0, 0.0, 0.0, 0.0, 0.0, 0.0, 0.0, 0.0, 1.730914302897123E9, 0.0, 2024-11-06 14:31:42.897
250.0, -186601.48222464113, -179205.6923157802, -186927.34830705504, -185346.63293917573, -187500.02235174447, -187500.02235174447, -187500.02235174447, -183896.0047240263, 0.422, 0.846, 0.434, 192.0, 0.0, 0.0, 0.0, 0.0, 0.0, 0.0, 0.0, 0.0, 0.0, 1.7309143029021795E9, 0.0, 2024-11-06 14:31:42.902
251.0, -184768.92975198387, -180820.35998348714, -186101.25018373135, -185873.1729833094, -187500.02235174447, -187500.02235174447, -187500.02235174447, -184853.86638091403, 0.422, 0.846, 0.434, 192.0, 0.0, 0.0, 0.0, 0.0, 0.0, 0.0, 0.0, 0.0, 0.0, 1.7309143029051776E9, 0.0, 2024-11-06 14:31:42.905
252.0, -183146.97541558451, -184087.8944501751, -184240.5345130604, -187500.02235174447, -186830.5429018191, -187500.02235174447, -186262.62977869867, -186708.2788596486, 0.422, 0.846, 0.434, 192.0, 0.0, 0.0, 0.0, 0.0, 0.0, 0.0, 0.0, 0.0, 0.0, 1.7309143029081607E9, 0.0, 2024-11-06 14:31:42.908
253.0, -184570.89329610983, -182858.2579324553, -184758.22326638977, -187500.02235174447, -187500.02235174447, -187500.02235174447, -187324.98584091495, -186024.159017105, 0.422, 0.846, 0.434, 192.0, 0.0, 0.0, 0.0, 0.0, 0.0, 0.0, 0.0, 0.0, 0.0, 1.7309143029132848E9, 0.0, 2024-11-06 14:31:42.913
254.0, -186594.50848037106, -179489.15713896242, -186749.98721480218, -185774.60179026148, -187500.02235174447, -187500.02235174447, -187500.02235174447, -184039.5923304072, 0.422, 0.846, 0.434, 192.0, 0.0, 0.0, 0.0, 0.0, 0.0, 0.0, 0.0, 0.0, 0.0, 1.730914302917153E9, 0.0, 2024-11-06 14:31:42.917
255.0, -185198.6196873927, -180265.47792738414, -186430.6031382803, -185465.4324609557, -187500.02235174447, -187500.02235174447, -187500.02235174447, -184523.28408042004, 0.422, 0.846, 0.434, 192.0, 0.0, 0.0, 0.0, 0.0, 0.0, 0.0, 0.0, 0.0, 0.0, 1.7309143029212873E9, 0.0, 2024-11-06 14:31:42.921
0.0, -183231.84498928132, -183709.01002991322, -184473.01500714006, -187500.02235174447, -187298.43196850206, -187500.02235174447, -186739.14661874136, -186482.68270286117, 0.422, 0.846, 0.434, 192.0, 0.0, 0.0, 0.0, 0.0, 0.0, 0.0, 0.0, 0.0, 0.0, 1.730914302925141E9, 0.0, 2024-11-06 14:31:42.925
1.0, -184107.78750274034, -183455.9882826791, -184456.20649530966, -187500.02235174447, -187500.02235174447, -187500.02235174447, -186716.90663300833, -186364.53138167041, 0.424, 0.84, 0.43, 192.0, 13.0, 64.0, 26.0, 64.0, 13.0, 112.0, 0.0, 0.0, 0.0, 1.7309143029292884E9, 0.0, 2024-11-06 14:31:42.929
2.0, -186423.22706261004, -179920.50110346093, -186473.63024635677, -186350.8297623193, -187500.02235174447, -187500.02235174447, -187500.02235174447, -184278.6442373567, 0.424, 0.84, 0.43, 192.0, 0.0, 0.0, 0.0, 0.0, 0.0, 0.0, 0.0, 0.0, 0.0, 1.73091430293334E9, 0.0, 2024-11-06 14:31:42.933
3.0, -185621.49234074264, -179780.35566572615, -186704.4790630912, -185164.22035267597, -187500.02235174447, -187500.02235174447, -187500.02235174447, -184240.4451060826, 0.424, 0.84, 0.43, 192.0, 0.0, 0.0, 0.0, 0.0, 0.0, 0.0, 0.0, 0.0, 0.0, 1.7309143029363627E9, 0.0, 2024-11-06 14:31:42.936
4.0, -183453.3507768334, -183199.56907028783, -184769.2203246618, -187500.02235174447, -187500.02235174447, -187500.02235174447, -187355.719489541, -186191.61828656416, 0.424, 0.84, 0.43, 192.0, 0.0, 0.0, 0.0, 0.0, 0.0, 0.0, 0.0, 0.0, 0.0, 1.7309143029411452E9, 0.0, 2024-11-06 14:31:42.941
5.0, -183740.8165622731, -183938.33892802466, -184234.9912804355, -187500.02235174447, -187470.003958941, -187500.02235174447, -186238.73576387594, -186632.64055641182, 0.424, 0.84, 0.43, 192.0, 0.0, 0.0, 0.0, 0.0, 0.0, 0.0, 0.0, 0.0, 0.0, 1.730914302945128E9, 0.0, 2024-11-06 14:31:42.945
6.0, -186167.32194034124, -180451.62325520793, -186146.91479765353, -186966.5309150852, -187500.02235174447, -187500.02235174447, -187500.02235174447, -184589.24407830765, 0.424, 0.84, 0.43, 192.0, 0.0, 0.0, 0.0, 0.0, 0.0, 0.0, 0.0, 0.0, 0.0, 1.7309143029492757E9, 0.0, 2024-11-06 14:31:42.949
7.0, -186008.53514773073, -179397.15735878437, -186906.3153155226, -184989.5638215022, -187500.02235174447, -187500.02235174447, -187500.02235174447, -184037.4465629395, 0.424, 0.84, 0.43, 192.0, 0.0, 0.0, 0.0, 0.0, 0.0, 0.0, 0.0, 0.0, 0.0, 1.7309143029531653E9, 0.0, 2024-11-06 14:31:42.953
8.0, -183729.48422783427, -182588.13710071292, -185113.97363114043, -187363.43084137808, -187500.02235174447, -187500.02235174447, -187500.02235174447, -185858.37612847998, 0.424, 0.84, 0.43, 192.0, 0.0, 0.0, 0.0, 0.0, 0.0, 0.0, 0.0, 0.0, 0.0, 1.7309143029570813E9, 0.0, 2024-11-06 14:31:42.957
9.0, -183437.95042490368, -184252.78326902192, -184098.33271483573, -187500.02235174447, -186953.65631027895, -187500.02235174447, -185943.2457021768, -186810.24751785368, 0.424, 0.84, 0.43, 192.0, 0.0, 0.0, 0.0, 0.0, 0.0, 0.0, 0.0, 0.0, 0.0, 1.7309143029613004E9, 0.0, 2024-11-06 14:31:42.961
10.0, -185813.42677038035, -181062.87641082722, -185779.6979879973, -187500.02235174447, -187500.02235174447, -187500.02235174447, -187500.02235174447, -184949.66595764947, 0.424, 0.84, 0.43, 192.0, 0.0, 0.0, 0.0, 0.0, 0.0, 0.0, 0.0, 0.0, 0.0, 1.7309143029642549E9, 0.0, 2024-11-06 14:31:42.964
11.0, -186314.95521246854, -179189.21908011666, -187006.74170336028, -184976.5104027403, -187500.02235174447, -187500.02235174447, -187500.02235174447, -183901.14562525103, 0.41400000000000003, 0.842, 0.434, 192.0, 12.0, 240.0, 26.0, 80.0, 13.0, 144.0, 0.0, 0.0, 0.0, 1.7309143029692698E9, 0.0, 2024-11-06 14:31:42.969
12.0, -184082.194755339, -181958.8907908071, -185479.89403961826, -186796.18827059132, -187500.02235174447, -187500.02235174447, -187500.02235174447, -185494.37797002532, 0.41400000000000003, 0.842, 0.434, 192.0, 0.0, 0.0, 0.0, 0.0, 0.0, 0.0, 0.0, 0.0, 0.0, 1.730914302973256E9, 0.0, 2024-11-06 14:31:42.973
13.0, -183268.63596065473, -184376.65663679322, -184069.7448336774, -187500.02235174447, -186684.04956865901, -187500.02235174447, -185874.80466065463, -186869.09966100453, 0.41400000000000003, 0.842, 0.434, 192.0, 0.0, 0.0, 0.0, 0.0, 0.0, 0.0, 0.0, 0.0, 0.0, 1.7309143029771435E9, 0.0, 2024-11-06 14:31:42.977
14.0, -185395.58325953284, -181726.03031707174, -185394.9574106881, -187500.02235174447, -187500.02235174447, -187500.02235174447, -187500.02235174447, -185347.05762232037, 0.41400000000000003, 0.842, 0.434, 192.0, 0.0, 0.0, 0.0, 0.0, 0.0, 0.0, 0.0, 0.0, 0.0, 1.7309143029811828E9, 0.0, 2024-11-06 14:31:42.981
15.0, -186530.69424995116, -179150.05882383094, -187003.45599692536, -185152.50803858138, -187500.02235174447, -187500.02235174447, -187500.02235174447, -183871.3060464032, 0.41400000000000003, 0.842, 0.434, 192.0, 0.0, 0.0, 0.0, 0.0, 0.0, 0.0, 0.0, 0.0, 0.0, 1.7309143029851909E9, 0.0, 2024-11-06 14:31:42.985
16.0, -184488.9518009367, -181304.81169281146, -185851.08945978756, -186254.67255767257, -187500.02235174447, -187500.02235174447, -187500.02235174447, -185118.01929688684, 0.41400000000000003, 0.842, 0.434, 192.0, 0.0, 0.0, 0.0, 0.0, 0.0, 0.0, 0.0, 0.0, 0.0, 1.7309143029892647E9, 0.0, 2024-11-06 14:31:42.989
17.0, -183175.8315176763, -184292.32350496337, -184145.1149159807, -187500.02235174447, -186675.89118193285, -187500.02235174447, -186020.47097926988, -186815.45547431178, 0.41400000000000003, 0.842, 0.434, 192.0, 0.0, 0.0, 0.0, 0.0, 0.0, 0.0, 0.0, 0.0, 0.0, 1.7309143029922676E9, 0.0, 2024-11-06 14:31:42.992
18.0, -184958.13726879805, -182390.547679728, -185034.80375227975, -187500.02235174447, -187500.02235174447, -187500.02235174447, -187500.02235174447, -185737.45319097678, 0.41400000000000003, 0.842, 0.434, 192.0, 0.0, 0.0, 0.0, 0.0, 0.0, 0.0, 0.0, 0.0, 0.0, 1.730914302997334E9, 0.0, 2024-11-06 14:31:42.997
19.0, -186636.3509459914, -179288.6172877094, -186907.1646818119, -185457.13996376278, -187500.02235174447, -187500.02235174447, -187500.02235174447, -183936.57314021268, 0.41400000000000003, 0.842, 0.434, 192.0, 0.0, 0.0, 0.0, 0.0, 0.0, 0.0, 0.0, 0.0, 0.0, 1.7309143030012736E9, 0.0, 2024-11-06 14:31:43.001
20.0, -184901.72146579286, -180705.33790652012, -186203.3529524032, -185790.4938805692, -187500.02235174447, -187500.02235174447, -187500.02235174447, -184781.357321901, 0.41400000000000003, 0.842, 0.434, 192.0, 0.0, 0.0, 0.0, 0.0, 0.0, 0.0, 0.0, 0.0, 0.0, 1.7309143030051928E9, 0.0, 2024-11-06 14:31:43.005
21.0, -183196.90921269768, -184037.20069375046, -184315.30109826342, -187500.02235174447, -186959.8700952375, -187500.02235174447, -186383.48566096852, -186668.71627196268, 0.41600000000000004, 0.844, 0.436, 192.0, 13.0, 0.0, 26.0, 96.0, 13.0, 160.0, 0.0, 0.0, 0.0, 1.7309143030092149E9, 0.0, 2024-11-06 14:31:43.009
22.0, -184485.30846659048, -183043.37508003417, -184710.56934721104, -187500.02235174447, -187500.02235174447, -187500.02235174447, -187185.175679347, -186122.10436130816, 0.41600000000000004, 0.844, 0.436, 192.0, 0.0, 0.0, 0.0, 0.0, 0.0, 0.0, 0.0, 0.0, 0.0, 1.730914303013502E9, 0.0, 2024-11-06 14:31:43.013
23.0, -186601.16930021875, -179598.5912798156, -186718.85123477594, -185921.05041993267, -187500.02235174447, -187500.02235174447, -187500.02235174447, -184096.6563340016, 0.41600000000000004, 0.844, 0.436, 192.0, 0.0, 0.0, 0.0, 0.0, 0.0, 0.0, 0.0, 0.0, 0.0, 1.730914303017217E9, 0.0, 2024-11-06 14:31:43.017
24.0, -185331.5902151573, -180147.90775154924, -186528.63788946127, -185403.4063700922, -187500.02235174447, -187500.02235174447, -187500.02235174447, -184454.61952145334, 0.41600000000000004, 0.844, 0.436, 192.0, 0.0, 0.0, 0.0, 0.0, 0.0, 0.0, 0.0, 0.0, 0.0, 1.7309143030202143E9, 0.0, 2024-11-06 14:31:43.020
25.0, -183336.7193742656, -183603.75566527317, -184565.35006348492, -187500.02235174447, -187463.56665653785, -187500.02235174447, -186905.53300446668, -186424.255242855, 0.41600000000000004, 0.844, 0.436, 192.0, 0.0, 0.0, 0.0, 0.0, 0.0, 0.0, 0.0, 0.0, 0.0, 1.7309143030252154E9, 0.0, 2024-11-06 14:31:43.025
26.0, -184077.5902959812, -183609.8800432539, -184435.01704156603, -187500.02235174447, -187500.02235174447, -187500.02235174447, -186612.4345794242, -186442.04723144142, 0.41600000000000004, 0.844, 0.436, 192.0, 0.0, 0.0, 0.0, 0.0, 0.0, 0.0, 0.0, 0.0, 0.0, 1.7309143030293992E9, 0.0, 2024-11-06 14:31:43.029
27.0, -186421.12599863127, -180054.67862542614, -186437.3086616169, -186516.85852013333, -187500.02235174447, -187500.02235174447, -187500.02235174447, -184350.32628182488, 0.41600000000000004, 0.844, 0.436, 192.0, 0.0, 0.0, 0.0, 0.0, 0.0, 0.0, 0.0, 0.0, 0.0, 1.7309143030333345E9, 0.0, 2024-11-06 14:31:43.033
28.0, -185754.88755165192, -179686.07600761368, -186795.96475314675, -185142.29329136532, -187500.02235174447, -187500.02235174447, -187500.02235174447, -184190.91364036963, 0.41600000000000004, 0.844, 0.436, 192.0, 0.0, 0.0, 0.0, 0.0, 0.0, 0.0, 0.0, 0.0, 0.0, 1.7309143030372484E9, 0.0, 2024-11-06 14:31:43.037
29.0, -183539.7626208976, -183065.39154832263, -184889.65152378698, -187500.02235174447, -187500.02235174447, -187500.02235174447, -187500.02235174447, -186118.3269164952, 0.41600000000000004, 0.844, 0.436, 192.0, 0.0, 0.0, 0.0, 0.0, 0.0, 0.0, 0.0, 0.0, 0.0, 1.7309143030402515E9, 0.0, 2024-11-06 14:31:43.040
30.0, -183684.44546275682, -184052.24341776888, -184231.2808908559, -187500.02235174447, -187348.99161445996, -187500.02235174447, -186175.05564392277, -186690.17394663978, 0.41600000000000004, 0.844, 0.436, 192.0, 0.0, 0.0, 0.0, 0.0, 0.0, 0.0, 0.0, 0.0, 0.0, 1.730914303044233E9, 0.0, 2024-11-06 14:31:43.044
31.0, -186130.64272769008, -180613.09225715307, -186100.4231691865, -187154.26321676534, -187500.02235174447, -187500.02235174447, -187500.02235174447, -184676.4382334278, 0.418, 0.842, 0.43, 192.0, 13.0, 16.0, 26.0, 80.0, 13.0, 112.0, 0.0, 0.0, 0.0, 1.7309143030481708E9, 0.0, 2024-11-06 14:31:43.048
32.0, -186120.07035256273, -179350.3751576394, -186974.376377389, -185008.49574905584, -187500.02235174447, -187500.02235174447, -187500.02235174447, -184002.3319724002, 0.418, 0.842, 0.43, 192.0, 0.0, 0.0, 0.0, 0.0, 0.0, 0.0, 0.0, 0.0, 0.0, 1.7309143030521936E9, 0.0, 2024-11-06 14:31:43.052
33.0, -183832.50341802876, -182455.34538690394, -185236.8188186668, -187265.84312508622, -187500.02235174447, -187500.02235174447, -187500.02235174447, -185774.37827281695, 0.418, 0.842, 0.43, 192.0, 0.0, 0.0, 0.0, 0.0, 0.0, 0.0, 0.0, 0.0, 0.0, 1.7309143030572655E9, 0.0, 2024-11-06 14:31:43.057
34.0, -183422.1477415738, -184325.78406641295, -184116.99642145593, -187500.02235174447, -186884.18708851186, -187500.02235174447, -185939.11062945257, -186839.43889611232, 0.418, 0.842, 0.43, 192.0, 0.0, 0.0, 0.0, 0.0, 0.0, 0.0, 0.0, 0.0, 0.0, 1.7309143030612547E9, 0.0, 2024-11-06 14:31:43.061
35.0, -185734.3910019864, -181252.19568636367, -185715.61553664395, -187500.02235174447, -187500.02235174447, -187500.02235174447, -187500.02235174447, -185066.16324975053, 0.418, 0.842, 0.43, 192.0, 0.0, 0.0, 0.0, 0.0, 0.0, 0.0, 0.0, 0.0, 0.0, 1.7309143030652971E9, 0.0, 2024-11-06 14:31:43.065
36.0, -186414.91221367268, -179177.88674567782, -187054.3062155612, -185061.80465958174, -187500.02235174447, -187500.02235174447, -187500.02235174447, -183908.76757011027, 0.418, 0.842, 0.43, 192.0, 0.0, 0.0, 0.0, 0.0, 0.0, 0.0, 0.0, 0.0, 0.0, 1.7309143030682588E9, 0.0, 2024-11-06 14:31:43.068
37.0, -184207.29746905537, -181803.47911160937, -185614.2727272836, -186704.23319390218, -187500.02235174447, -187500.02235174447, -187500.02235174447, -185416.90682374322, 0.418, 0.842, 0.43, 192.0, 0.0, 0.0, 0.0, 0.0, 0.0, 0.0, 0.0, 0.0, 0.0, 1.7309143030723765E9, 0.0, 2024-11-06 14:31:43.072
38.0, -183246.68654759965, -184391.00645673354, -184127.05470646083, -187500.02235174447, -186668.22453358467, -187500.02235174447, -185906.47708254782, -186882.22013499978, 0.418, 0.842, 0.43, 192.0, 0.0, 0.0, 0.0, 0.0, 0.0, 0.0, 0.0, 0.0, 0.0, 1.7309143030762696E9, 0.0, 2024-11-06 14:31:43.076
39.0, -185324.0353255314, -181905.67128725903, -185356.84768639182, -187500.02235174447, -187500.02235174447, -187500.02235174447, -187500.02235174447, -185457.4305364407, 0.418, 0.842, 0.43, 192.0, 0.0, 0.0, 0.0, 0.0, 0.0, 0.0, 0.0, 0.0, 0.0, 1.7309143030804584E9, 0.0, 2024-11-06 14:31:43.080
40.0, -186593.81557629295, -179178.55729801147, -187039.30819503168, -185247.1676763496, -187500.02235174447, -187500.02235174447, -187500.02235174447, -183897.92697404945, 0.418, 0.842, 0.43, 192.0, 0.0, 0.0, 0.0, 0.0, 0.0, 0.0, 0.0, 0.0, 0.0, 1.7309143030853205E9, 0.0, 2024-11-06 14:31:43.085
41.0, -184592.19450857575, -181173.98693251456, -185985.46814745286, -186174.56390554475, -187500.02235174447, -187500.02235174447, -187500.02235174447, -185062.0281770263, 0.418, 0.838, 0.428, 192.0, 13.0, 16.0, 26.0, 48.0, 13.0, 96.0, 0.0, 0.0, 0.0, 1.7309143030894084E9, 0.0, 2024-11-06 14:31:43.089
42.0, -183177.26202932146, -184273.61509485426, -184218.09336162728, -187500.02235174447, -186726.20495870174, -187500.02235174447, -186104.75940761084, -186812.1921196213, 0.418, 0.838, 0.428, 192.0, 0.0, 0.0, 0.0, 0.0, 0.0, 0.0, 0.0, 0.0, 0.0, 1.7309143030934553E9, 0.0, 2024-11-06 14:31:43.093
43.0, -184857.1297356045, -182577.18474592982, -184986.2110598339, -187500.02235174447, -187500.02235174447, -187500.02235174447, -187500.02235174447, -185863.5170297047, 0.418, 0.838, 0.428, 192.0, 0.0, 0.0, 0.0, 0.0, 0.0, 0.0, 0.0, 0.0, 0.0, 1.7309143030963347E9, 0.0, 2024-11-06 14:31:43.096
44.0, -186655.23817005614, -179363.65209384586, -186910.89742313593, -185614.4738929837, -187500.02235174447, -187500.02235174447, -187500.02235174447, -183999.00156247636, 0.418, 0.838, 0.428, 192.0, 0.0, 0.0, 0.0, 0.0, 0.0, 0.0, 0.0, 0.0, 0.0, 1.7309143031002908E9, 0.0, 2024-11-06 14:31:43.100
45.0, -185027.74060103187, -180569.32754150958, -186334.73650631148, -185720.8905483354, -187500.02235174447, -187500.02235174447, -187500.02235174447, -184728.11546660846, 0.418, 0.838, 0.428, 192.0, 0.0, 0.0, 0.0, 0.0, 0.0, 0.0, 0.0, 0.0, 0.0, 1.7309143031044748E9, 0.0, 2024-11-06 14:31:43.104
46.0, -183234.52719861595, -183955.7732886998, -184410.18425347618, -187500.02235174447, -187082.02237868577, -187500.02235174447, -186522.73702892507, -186645.89514087382, 0.418, 0.838, 0.428, 192.0, 0.0, 0.0, 0.0, 0.0, 0.0, 0.0, 0.0, 0.0, 0.0, 1.7309143031093671E9, 0.0, 2024-11-06 14:31:43.109
47.0, -184406.25034645206, -183202.6983145116, -184663.22835245472, -187500.02235174447, -187500.02235174447, -187500.02235174447, -187060.22942784184, -186238.04285979783, 0.418, 0.838, 0.428, 192.0, 0.0, 0.0, 0.0, 0.0, 0.0, 0.0, 0.0, 0.0, 0.0, 1.7309143031133237E9, 0.0, 2024-11-06 14:31:43.113
48.0, -186571.26266613754, -179718.39663009605, -186678.2604668451, -186108.71566637943, -187500.02235174447, -187500.02235174447, -187500.02235174447, -184192.16533805913, 0.418, 0.838, 0.428, 192.0, 0.0, 0.0, 0.0, 0.0, 0.0, 0.0, 0.0, 0.0, 0.0, 1.7309143031174412E9, 0.0, 2024-11-06 14:31:43.117
49.0, -185467.89115284578, -180033.26565423797, -186637.8485128699, -185349.71747991056, -187500.02235174447, -187500.02235174447, -187500.02235174447, -184420.7342768591, 0.418, 0.838, 0.428, 192.0, 0.0, 0.0, 0.0, 0.0, 0.0, 0.0, 0.0, 0.0, 0.0, 1.730914303121343E9, 0.0, 2024-11-06 14:31:43.121
50.0, -183382.56280214345, -183490.96876275167, -184677.22054448375, -187500.02235174447, -187500.02235174447, -187500.02235174447, -187089.1078816781, -186388.69361742662, 0.418, 0.838, 0.428, 192.0, 0.0, 0.0, 0.0, 0.0, 0.0, 0.0, 0.0, 0.0, 0.0, 1.7309143031243696E9, 0.0, 2024-11-06 14:31:43.124
51.0, -183988.18331815998, -183748.9749489993, -184395.49915736905, -187500.02235174447, -187500.02235174447, -187500.02235174447, -186504.9226885942, -186553.3812705733, 0.42, 0.844, 0.426, 192.0, 13.0, 32.0, 26.0, 96.0, 13.0, 80.0, 0.0, 0.0, 0.0, 1.7309143031284432E9, 0.0, 2024-11-06 14:31:43.128
52.0, -186355.65773912167, -180215.45472329317, -186371.5498294294, -186721.51109236613, -187500.02235174447, -187500.02235174447, -187500.02235174447, -184473.93142866273, 0.42, 0.844, 0.426, 192.0, 0.0, 0.0, 0.0, 0.0, 0.0, 0.0, 0.0, 0.0, 0.0, 1.730914303132369E9, 0.0, 2024-11-06 14:31:43.132
53.0, -185896.37409405402, -179601.5417100837, -186882.98009431126, -185114.77829394082, -187500.02235174447, -187500.02235174447, -187500.02235174447, -184162.3704627002, 0.42, 0.844, 0.426, 192.0, 0.0, 0.0, 0.0, 0.0, 0.0, 0.0, 0.0, 0.0, 0.0, 1.7309143031363676E9, 0.0, 2024-11-06 14:31:43.136
54.0, -183644.9946337932, -182926.85543618863, -185000.44912105193, -187500.02235174447, -187500.02235174447, -187500.02235174447, -187500.02235174447, -186070.65064557202, 0.42, 0.844, 0.426, 192.0, 0.0, 0.0, 0.0, 0.0, 0.0, 0.0, 0.0, 0.0, 0.0, 1.7309143031413574E9, 0.0, 2024-11-06 14:31:43.141
55.0, -183636.65743311137, -184151.59692187273, -184217.06518138232, -187500.02235174447, -187215.10466517266, -187500.02235174447, -186118.19280602847, -186776.31756977053, 0.42, 0.844, 0.426, 192.0, 0.0, 0.0, 0.0, 0.0, 0.0, 0.0, 0.0, 0.0, 0.0, 1.7309143031453376E9, 0.0, 2024-11-06 14:31:43.145
56.0, -186063.34162513516, -180789.7157418389, -186028.18233110695, -187345.90707372513, -187500.02235174447, -187500.02235174447, -187500.02235174447, -184796.40004591944, 0.42, 0.844, 0.426, 192.0, 0.0, 0.0, 0.0, 0.0, 0.0, 0.0, 0.0, 0.0, 0.0, 1.7309143031493666E9, 0.0, 2024-11-06 14:31:43.149
57.0, -186241.30621448832, -179313.33831707697, -187029.62988968252, -185024.34313587466, -187500.02235174447, -187500.02235174447, -187500.02235174447, -183995.09000719668, 0.42, 0.844, 0.426, 192.0, 0.0, 0.0, 0.0, 0.0, 0.0, 0.0, 0.0, 0.0, 0.0, 1.7309143031523116E9, 0.0, 2024-11-06 14:31:43.152
58.0, -183951.5711607422, -182310.17080666672, -185357.96527361457, -187138.70640262443, -187500.02235174447, -187500.02235174447, -187500.02235174447, -185719.54944366807, 0.42, 0.844, 0.426, 192.0, 0.0, 0.0, 0.0, 0.0, 0.0, 0.0, 0.0, 0.0, 0.0, 1.7309143031563632E9, 0.0, 2024-11-06 14:31:43.156
59.0, -183361.95449375565, -184384.81502351942, -184131.39094488515, -187500.02235174447, -186809.66637249786, -187500.02235174447, -185927.59948105807, -186899.69919916382, 0.42, 0.844, 0.426, 192.0, 0.0, 0.0, 0.0, 0.0, 0.0, 0.0, 0.0, 0.0, 0.0, 1.730914303160392E9, 0.0, 2024-11-06 14:31:43.160
60.0, -185666.44169884227, -181440.21856072173, -185651.6671957573, -187500.02235174447, -187500.02235174447, -187500.02235174447, -187500.02235174447, -185187.48851865393, 0.42, 0.844, 0.426, 192.0, 0.0, 0.0, 0.0, 0.0, 0.0, 0.0, 0.0, 0.0, 0.0, 1.7309143031644068E9, 0.0, 2024-11-06 14:31:43.164
61.0, -186500.80996761442, -179188.28030684954, -187084.23520138685, -185106.1281688366, -187500.02235174447, -187500.02235174447, -187500.02235174447, -183920.92691909397, 0.42, 0.844, 0.426, 192.0, 0.0, 0.0, 0.0, 0.0, 0.0, 0.0, 0.0, 0.0, 0.0, 1.7309143031693816E9, 0.0, 2024-11-06 14:31:43.169
62.0, -184332.19901707163, -181669.99449372228, -185734.36865024193, -186581.9467999872, -187500.02235174447, -187500.02235174447, -187500.02235174447, -185358.56877071486, 0.41600000000000004, 0.84, 0.424, 192.0, 13.0, 0.0, 26.0, 64.0, 13.0, 64.0, 0.0, 0.0, 0.0, 1.7309143031735065E9, 0.0, 2024-11-06 14:31:43.173
63.0, -183237.47762888405, -184407.81496856394, -184156.80487833082, -187500.02235174447, -186675.5112022771, -187500.02235174447, -185973.10763276907, -186913.24435630374, 0.41600000000000004, 0.84, 0.424, 192.0, 0.0, 0.0, 0.0, 0.0, 0.0, 0.0, 0.0, 0.0, 0.0, 1.730914303176485E9, 0.0, 2024-11-06 14:31:43.176
64.0, -185220.01030683643, -182109.5415484359, -185269.8323452273, -187500.02235174447, -187500.02235174447, -187500.02235174447, -187500.02235174447, -185594.69259914072, 0.41600000000000004, 0.84, 0.424, 192.0, 0.0, 0.0, 0.0, 0.0, 0.0, 0.0, 0.0, 0.0, 0.0, 1.7309143031804924E9, 0.0, 2024-11-06 14:31:43.180
65.0, -186651.5054287321, -179238.23645570714, -187026.52299720325, -185362.502677739, -187500.02235174447, -187500.02235174447, -187500.02235174447, -183941.93755888197, 0.41600000000000004, 0.84, 0.424, 192.0, 0.0, 0.0, 0.0, 0.0, 0.0, 0.0, 0.0, 0.0, 0.0, 1.7309143031846664E9, 0.0, 2024-11-06 14:31:43.184
66.0, -184750.89189420844, -181024.20789291954, -186098.99265754136, -186067.23082867038, -187500.02235174447, -187500.02235174447, -187500.02235174447, -184998.63862975105, 0.41600000000000004, 0.84, 0.424, 192.0, 0.0, 0.0, 0.0, 0.0, 0.0, 0.0, 0.0, 0.0, 0.0, 1.7309143031885264E9, 0.0, 2024-11-06 14:31:43.188
67.0, -183210.63318379322, -184218.85332093877, -184266.6413505842, -187500.02235174447, -186823.61386103797, -187500.02235174447, -186235.85238884122, -186813.91320394436, 0.41600000000000004, 0.84, 0.424, 192.0, 0.0, 0.0, 0.0, 0.0, 0.0, 0.0, 0.0, 0.0, 0.0, 1.7309143031924007E9, 0.0, 2024-11-06 14:31:43.192
68.0, -184755.71987101078, -182779.8480129061, -184898.4804628468, -187500.02235174447, -187500.02235174447, -187500.02235174447, -187500.02235174447, -186000.1979470489, 0.41600000000000004, 0.84, 0.424, 192.0, 0.0, 0.0, 0.0, 0.0, 0.0, 0.0, 0.0, 0.0, 0.0, 1.7309143031976635E9, 0.0, 2024-11-06 14:31:43.197
69.0, -186692.3644175964, -179464.97255146177, -186867.04330051463, -185748.2937870376, -187500.02235174447, -187500.02235174447, -187500.02235174447, -184063.50869697437, 0.41600000000000004, 0.84, 0.424, 192.0, 0.0, 0.0, 0.0, 0.0, 0.0, 0.0, 0.0, 0.0, 0.0, 1.7309143032014425E9, 0.0, 2024-11-06 14:31:43.201
70.0, -185181.83352730676, -180451.3550342745, -186425.08225739983, -185641.89948343034, -187500.02235174447, -187500.02235174447, -187500.02235174447, -184670.96205603625, 0.41600000000000004, 0.84, 0.424, 192.0, 0.0, 0.0, 0.0, 0.0, 0.0, 0.0, 0.0, 0.0, 0.0, 1.730914303204553E9, 0.0, 2024-11-06 14:31:43.204
71.0, -183309.1596733522, -183875.1505464495, -184483.56503052296, -187500.02235174447, -187235.02006948236, -187500.02235174447, -186697.0135804431, -186621.91171907328, 0.41600000000000004, 0.84, 0.424, 192.0, 0.0, 0.0, 0.0, 0.0, 0.0, 0.0, 0.0, 0.0, 0.0, 1.730914303208558E9, 0.0, 2024-11-06 14:31:43.208
72.0, -184337.71989795208, -183374.56087762845, -184608.13130237238, -187500.02235174447, -187500.02235174447, -187500.02235174447, -186937.45129554885, -186352.77436408692, 0.41400000000000003, 0.842, 0.428, 192.0, 12.0, 240.0, 26.0, 80.0, 13.0, 96.0, 0.0, 0.0, 0.0, 1.7309143032124312E9, 0.0, 2024-11-06 14:31:43.212
73.0, -186578.8846109968, -179850.83071599374, -186627.4549516982, -186286.18851735457, -187500.02235174447, -187500.02235174447, -187500.02235174447, -184271.4469756421, 0.41400000000000003, 0.842, 0.428, 192.0, 0.0, 0.0, 0.0, 0.0, 0.0, 0.0, 0.0, 0.0, 0.0, 1.7309143032165804E9, 0.0, 2024-11-06 14:31:43.216
74.0, -185626.92381464527, -179931.02877509937, -186729.46831339222, -185305.99746775598, -187500.02235174447, -187500.02235174447, -187500.02235174447, -184368.65471227822, 0.41400000000000003, 0.842, 0.428, 192.0, 0.0, 0.0, 0.0, 0.0, 0.0, 0.0, 0.0, 0.0, 0.0, 1.730914303220612E9, 0.0, 2024-11-06 14:31:43.220
75.0, -183484.44205337073, -183374.04678750597, -184773.13187994147, -187500.02235174447, -187500.02235174447, -187500.02235174447, -187275.96846532446, -186339.89975928067, 0.41400000000000003, 0.842, 0.428, 192.0, 0.0, 0.0, 0.0, 0.0, 0.0, 0.0, 0.0, 0.0, 0.0, 1.7309143032255497E9, 0.0, 2024-11-06 14:31:43.225
76.0, -183934.1144483226, -183878.36919765107, -184352.58380801487, -187500.02235174447, -187500.02235174447, -187500.02235174447, -186420.5001497865, -186644.5540362065, 0.41400000000000003, 0.842, 0.428, 192.0, 0.0, 0.0, 0.0, 0.0, 0.0, 0.0, 0.0, 0.0, 0.0, 1.730914303229572E9, 0.0, 2024-11-06 14:31:43.229
77.0, -186340.2797389364, -180372.69924553626, -186300.985372184, -186899.118053808, -187500.02235174447, -187500.02235174447, -187500.02235174447, -184571.63090367688, 0.41400000000000003, 0.842, 0.428, 192.0, 0.0, 0.0, 0.0, 0.0, 0.0, 0.0, 0.0, 0.0, 0.0, 1.7309143032325861E9, 0.0, 2024-11-06 14:31:43.232
78.0, -186039.42525856796, -179539.6273779425, -186944.64855726346, -185106.86577640366, -187500.02235174447, -187500.02235174447, -187500.02235174447, -184137.09063972125, 0.41400000000000003, 0.842, 0.428, 192.0, 0.0, 0.0, 0.0, 0.0, 0.0, 0.0, 0.0, 0.0, 0.0, 1.730914303236622E9, 0.0, 2024-11-06 14:31:43.236
79.0, -183780.15563251445, -182796.38830380302, -185110.50911074987, -187500.02235174447, -187500.02235174447, -187500.02235174447, -187500.02235174447, -186010.23388030933, 0.41400000000000003, 0.842, 0.428, 192.0, 0.0, 0.0, 0.0, 0.0, 0.0, 0.0, 0.0, 0.0, 0.0, 1.7309143032405784E9, 0.0, 2024-11-06 14:31:43.240
80.0, -183631.6953458423, -184247.57531256383, -184199.25084105146, -187500.02235174447, -187137.63351889057, -187500.02235174447, -186080.19484045447, -186841.6964223023, 0.41400000000000003, 0.842, 0.428, 192.0, 0.0, 0.0, 0.0, 0.0, 0.0, 0.0, 0.0, 0.0, 0.0, 1.730914303244726E9, 0.0, 2024-11-06 14:31:43.244
81.0, -186009.92095588698, -180977.73861619696, -185936.36136488456, -187500.02235174447, -187500.02235174447, -187500.02235174447, -187500.02235174447, -184921.92744278043, 0.41400000000000003, 0.842, 0.428, 192.0, 0.0, 0.0, 0.0, 0.0, 0.0, 0.0, 0.0, 0.0, 0.0, 1.730914303248438E9, 0.0, 2024-11-06 14:31:43.248
82.0, -186387.39721624818, -179284.90689812982, -187072.23231461435, -185063.16811599353, -187500.02235174447, -187500.02235174447, -187500.02235174447, -183979.60024828915, 0.41400000000000003, 0.846, 0.432, 192.0, 12.0, 240.0, 26.0, 112.0, 13.0, 128.0, 0.0, 0.0, 0.0, 1.7309143032538965E9, 0.0, 2024-11-06 14:31:43.253
83.0, -184113.68836327654, -182164.8397642183, -185476.8765541168, -187019.0351628107, -187500.02235174447, -187500.02235174447, -187500.02235174447, -185644.02289915358, 0.41400000000000003, 0.846, 0.432, 192.0, 0.0, 0.0, 0.0, 0.0, 0.0, 0.0, 0.0, 0.0, 0.0, 1.7309143032575893E9, 0.0, 2024-11-06 14:31:43.257
84.0, -183390.542374914, -184422.54476815998, -184142.47741013498, -187500.02235174447, -186789.34863678797, -187500.02235174447, -185930.01346945926, -186936.91485368193, 0.41400000000000003, 0.846, 0.432, 192.0, 0.0, 0.0, 0.0, 0.0, 0.0, 0.0, 0.0, 0.0, 0.0, 1.7309143032605233E9, 0.0, 2024-11-06 14:31:43.260
85.0, -185624.062791355, -181616.5738244741, -185565.76944181556, -187500.02235174447, -187500.02235174447, -187500.02235174447, -187500.02235174447, -185309.95372652457, 0.41400000000000003, 0.846, 0.432, 192.0, 0.0, 0.0, 0.0, 0.0, 0.0, 0.0, 0.0, 0.0, 0.0, 1.7309143032646215E9, 0.0, 2024-11-06 14:31:43.264
86.0, -186627.56671042048, -179198.7856267435, -187095.58988757015, -185185.14158548613, -187500.02235174447, -187500.02235174447, -187500.02235174447, -183932.8180471442, 0.41400000000000003, 0.846, 0.432, 192.0, 0.0, 0.0, 0.0, 0.0, 0.0, 0.0, 0.0, 0.0, 0.0, 1.7309143032686408E9, 0.0, 2024-11-06 14:31:43.268
87.0, -184501.3570191094, -181520.6401372719, -185841.76878234968, -186487.28716221897, -187500.02235174447, -187500.02235174447, -187500.02235174447, -185288.42899661412, 0.41400000000000003, 0.846, 0.432, 192.0, 0.0, 0.0, 0.0, 0.0, 0.0, 0.0, 0.0, 0.0, 0.0, 1.7309143032725284E9, 0.0, 2024-11-06 14:31:43.272
88.0, -183263.71857687458, -184377.39424436024, -184189.66194268013, -187500.02235174447, -186744.71220311074, -187500.02235174447, -186039.33585159015, -186911.23269930278, 0.41400000000000003, 0.846, 0.432, 192.0, 0.0, 0.0, 0.0, 0.0, 0.0, 0.0, 0.0, 0.0, 0.0, 1.7309143032765253E9, 0.0, 2024-11-06 14:31:43.276
89.0, -185141.6003872872, -182285.2709633435, -185177.13966097112, -187500.02235174447, -187500.02235174447, -187500.02235174447, -187500.02235174447, -185713.35801045396, 0.41400000000000003, 0.846, 0.432, 192.0, 0.0, 0.0, 0.0, 0.0, 0.0, 0.0, 0.0, 0.0, 0.0, 1.730914303281587E9, 0.0, 2024-11-06 14:31:43.281
90.0, -186726.85315929094, -179304.66584022832, -186999.63384862352, -185487.60539145535, -187500.02235174447, -187500.02235174447, -187500.02235174447, -183973.60998077513, 0.41400000000000003, 0.846, 0.432, 192.0, 0.0, 0.0, 0.0, 0.0, 0.0, 0.0, 0.0, 0.0, 0.0, 1.7309143032845392E9, 0.0, 2024-11-06 14:31:43.284
91.0, -184923.93909978142, -180899.17223443656, -186196.13333894414, -185991.90544985599, -187500.02235174447, -187500.02235174447, -187500.02235174447, -184918.46292238988, 0.41400000000000003, 0.846, 0.432, 192.0, 0.0, 0.0, 0.0, 0.0, 0.0, 0.0, 0.0, 0.0, 0.0, 1.7309143032885065E9, 0.0, 2024-11-06 14:31:43.288
92.0, -183251.96155929108, -184158.4142039316, -184325.22527280156, -187500.02235174447, -186965.99447321828, -187500.02235174447, -186370.76751837344, -186783.1348518294, 0.41400000000000003, 0.84, 0.428, 192.0, 12.0, 240.0, 26.0, 64.0, 13.0, 96.0, 0.0, 0.0, 0.0, 1.730914303292529E9, 0.0, 2024-11-06 14:31:43.292
93.0, -184671.83377407002, -182936.71255549343, -184828.0277643237, -187500.02235174447, -187500.02235174447, -187500.02235174447, -187405.27330699842, -186100.8255005867, 0.41400000000000003, 0.84, 0.428, 192.0, 0.0, 0.0, 0.0, 0.0, 0.0, 0.0, 0.0, 0.0, 0.0, 1.730914303296585E9, 0.0, 2024-11-06 14:31:43.296
94.0, -186697.55002231002, -179573.26675334774, -186810.71690448726, -185936.76369628476, -187500.02235174447, -187500.02235174447, -187500.02235174447, -184129.89337800664, 0.41400000000000003, 0.84, 0.428, 192.0, 0.0, 0.0, 0.0, 0.0, 0.0, 0.0, 0.0, 0.0, 0.0, 1.7309143033005795E9, 0.0, 2024-11-06 14:31:43.300
95.0, -185344.71068915256, -180327.2134455697, -186517.3279067669, -185589.3505322159, -187500.02235174447, -187500.02235174447, -187500.02235174447, -184604.97970640418, 0.41400000000000003, 0.84, 0.428, 192.0, 0.0, 0.0, 0.0, 0.0, 0.0, 0.0, 0.0, 0.0, 0.0, 1.730914303304536E9, 0.0, 2024-11-06 14:31:43.304
96.0, -183360.65809257724, -183761.6707398499, -184558.2645604926, -187500.02235174447, -187432.3859730227, -187500.02235174447, -186858.0578992436, -186568.62516029182, 0.41400000000000003, 0.84, 0.428, 192.0, 0.0, 0.0, 0.0, 0.0, 0.0, 0.0, 0.0, 0.0, 0.0, 1.730914303308647E9, 0.0, 2024-11-06 14:31:43.308
97.0, -184238.36639384824, -183514.6169083854, -184535.86811254837, -187500.02235174447, -187500.02235174447, -187500.02235174447, -186796.94822990277, -186445.0647169429, 0.41400000000000003, 0.84, 0.428, 192.0, 0.0, 0.0, 0.0, 0.0, 0.0, 0.0, 0.0, 0.0, 0.0, 1.730914303312726E9, 0.0, 2024-11-06 14:31:43.312
98.0, -186543.4794477796, -179987.9810199715, -186544.28411058, -186473.1608597232, -187500.02235174447, -187500.02235174447, -187500.02235174447, -184353.9696161711, 0.41400000000000003, 0.84, 0.428, 192.0, 0.0, 0.0, 0.0, 0.0, 0.0, 0.0, 0.0, 0.0, 0.0, 1.73091430331555E9, 0.0, 2024-11-06 14:31:43.315
99.0, -185757.83798192002, -179834.7598117304, -186791.20383157776, -185277.76721450893, -187500.02235174447, -187500.02235174447, -187500.02235174447, -184316.66455467517, 0.41400000000000003, 0.84, 0.428, 192.0, 0.0, 0.0, 0.0, 0.0, 0.0, 0.0, 0.0, 0.0, 0.0, 1.7309143033205485E9, 0.0, 2024-11-06 14:31:43.320
100.0, -183574.58663875898, -183240.40570740768, -184856.25801757074, -187500.02235174447, -187500.02235174447, -187500.02235174447, -187475.21191539906, -186275.54908699385, 0.41400000000000003, 0.84, 0.428, 192.0, 0.0, 0.0, 0.0, 0.0, 0.0, 0.0, 0.0, 0.0, 0.0, 1.730914303324533E9, 0.0, 2024-11-06 14:31:43.324
101.0, -183827.22840633732, -183997.79456827577, -184299.78898761142, -187500.02235174447, -187500.02235174447, -187500.02235174447, -186336.81521854585, -186722.4722173777, 0.41400000000000003, 0.84, 0.428, 192.0, 0.0, 0.0, 0.0, 0.0, 0.0, 0.0, 0.0, 0.0, 0.0, 1.7309143033285751E9, 0.0, 2024-11-06 14:31:43.328
102.0, -186258.8076303968, -180530.70372709082, -186202.950621003, -187100.68608530596, -187500.02235174447, -187500.02235174447, -187500.02235174447, -184671.83377407002, 0.41400000000000003, 0.838, 0.426, 192.0, 12.0, 240.0, 26.0, 48.0, 13.0, 80.0, 0.0, 0.0, 0.0, 1.730914303332543E9, 0.0, 2024-11-06 14:31:43.332
103.0, -186127.26761427734, -179478.5624120906, -186975.1363367005, -185123.5401777673, -187500.02235174447, -187500.02235174447, -187500.02235174447, -184110.8049882418, 0.41400000000000003, 0.838, 0.426, 192.0, 0.0, 0.0, 0.0, 0.0, 0.0, 0.0, 0.0, 0.0, 0.0, 1.7309143033365724E9, 0.0, 2024-11-06 14:31:43.336
104.0, -183851.83767698263, -182647.32452003058, -185189.9695622885, -187482.16330792467, -187500.02235174447, -187500.02235174447, -187500.02235174447, -185936.27195790672, 0.41400000000000003, 0.838, 0.426, 192.0, 0.0, 0.0, 0.0, 0.0, 0.0, 0.0, 0.0, 0.0, 0.0, 1.7309143033407397E9, 0.0, 2024-11-06 14:31:43.340
105.0, -183539.98613834218, -184311.94833659512, -184179.1789745306, -187500.02235174447, -187071.42765181395, -187500.02235174447, -186030.17163636346, -186886.33285597956, 0.41400000000000003, 0.838, 0.426, 192.0, 0.0, 0.0, 0.0, 0.0, 0.0, 0.0, 0.0, 0.0, 0.0, 1.7309143033437576E9, 0.0, 2024-11-06 14:31:43.343
106.0, -185897.35757081004, -181140.68283327614, -185844.62980563997, -187500.02235174447, -187500.02235174447, -187500.02235174447, -187500.02235174447, -185023.65023179655, 0.41400000000000003, 0.838, 0.426, 192.0, 0.0, 0.0, 0.0, 0.0, 0.0, 0.0, 0.0, 0.0, 0.0, 1.7309143033487728E9, 0.0, 2024-11-06 14:31:43.348
107.0, -186421.28246084243, -179269.059511311, -187080.23423912935, -185101.5907647122, -187500.02235174447, -187500.02235174447, -187500.02235174447, -183984.27176288032, 0.41400000000000003, 0.838, 0.426, 192.0, 0.0, 0.0, 0.0, 0.0, 0.0, 0.0, 0.0, 0.0, 0.0, 1.7309143033525681E9, 0.0, 2024-11-06 14:31:43.352
108.0, -184177.61435241872, -182021.1180473707, -185560.65089233528, -186898.08987356306, -187500.02235174447, -187500.02235174447, -187500.02235174447, -185579.4040059333, 0.41400000000000003, 0.838, 0.426, 192.0, 0.0, 0.0, 0.0, 0.0, 0.0, 0.0, 0.0, 0.0, 0.0, 1.7309143033566096E9, 0.0, 2024-11-06 14:31:43.356
109.0, -183329.1644846397, -184443.62246318132, -184139.57168335578, -187500.02235174447, -186789.3933402769, -187500.02235174447, -185971.00656879027, -186959.35600511506, 0.41400000000000003, 0.838, 0.426, 192.0, 0.0, 0.0, 0.0, 0.0, 0.0, 0.0, 0.0, 0.0, 0.0, 1.730914303360633E9, 0.0, 2024-11-06 14:31:43.360
110.0, -185464.5830946664, -181805.5131203548, -185453.89896081676, -187500.02235174447, -187500.02235174447, -187500.02235174447, -187500.02235174447, -185430.16140820523, 0.41400000000000003, 0.838, 0.426, 192.0, 0.0, 0.0, 0.0, 0.0, 0.0, 0.0, 0.0, 0.0, 0.0, 1.7309143033646188E9, 0.0, 2024-11-06 14:31:43.364
111.0, -186619.36362020537, -179237.78942081804, -187065.86206744457, -185262.0315864124, -187500.02235174447, -187500.02235174447, -187500.02235174447, -183959.2154573459, 0.41400000000000003, 0.838, 0.426, 192.0, 0.0, 0.0, 0.0, 0.0, 0.0, 0.0, 0.0, 0.0, 0.0, 1.7309143033686347E9, 0.0, 2024-11-06 14:31:43.368
112.0, -184557.43754594776, -181383.33337108296, -185919.17287339843, -186355.6353873772, -187500.02235174447, -187500.02235174447, -187500.02235174447, -185216.85871086823, 0.41600000000000004, 0.838, 0.424, 192.0, 13.0, 0.0, 26.0, 48.0, 13.0, 64.0, 0.0, 0.0, 0.0, 1.7309143033715916E9, 0.0, 2024-11-06 14:31:43.371
113.0, -183203.5923842898, -184359.4681453071, -184210.0243818789, -187500.02235174447, -186801.84326193848, -187500.02235174447, -186117.96928858393, -186913.73609468175, 0.41600000000000004, 0.838, 0.424, 192.0, 0.0, 0.0, 0.0, 0.0, 0.0, 0.0, 0.0, 0.0, 0.0, 1.730914303376608E9, 0.0, 2024-11-06 14:31:43.376
114.0, -184975.28105679527, -182466.14127947585, -185077.22736325592, -187500.02235174447, -187500.02235174447, -187500.02235174447, -187500.02235174447, -185837.72311660327, 0.41600000000000004, 0.838, 0.424, 192.0, 0.0, 0.0, 0.0, 0.0, 0.0, 0.0, 0.0, 0.0, 0.0, 1.7309143033806891E9, 0.0, 2024-11-06 14:31:43.380
115.0, -186671.08555687495, -179380.95234405427, -186948.53776079867, -185587.58474440395, -187500.02235174447, -187500.02235174447, -187500.02235174447, -184027.1871122345, 0.41600000000000004, 0.838, 0.424, 192.0, 0.0, 0.0, 0.0, 0.0, 0.0, 0.0, 0.0, 0.0, 0.0, 1.7309143033857896E9, 0.0, 2024-11-06 14:31:43.385
116.0, -184970.4530799929, -180781.73616906838, -186268.12830783468, -185881.0184456132, -187500.02235174447, -187500.02235174447, -187500.02235174447, -184862.3823955515, 0.41600000000000004, 0.838, 0.424, 192.0, 0.0, 0.0, 0.0, 0.0, 0.0, 0.0, 0.0, 0.0, 0.0, 1.7309143033886473E9, 0.0, 2024-11-06 14:31:43.388
117.0, -183242.08208824185, -184103.2500986159, -184367.33595935538, -187500.02235174447, -187079.87661121806, -187500.02235174447, -186484.44849067312, -186763.39826147538, 0.41600000000000004, 0.838, 0.424, 192.0, 0.0, 0.0, 0.0, 0.0, 0.0, 0.0, 0.0, 0.0, 0.0, 1.7309143033916347E9, 0.0, 2024-11-06 14:31:43.391
118.0, -184525.67571707675, -183102.83072028527, -184739.26898709167, -187500.02235174447, -187500.02235174447, -187500.02235174447, -187255.42721217003, -186212.91949903007, 0.41600000000000004, 0.838, 0.424, 192.0, 0.0, 0.0, 0.0, 0.0, 0.0, 0.0, 0.0, 0.0, 0.0, 1.7309143033957396E9, 0.0, 2024-11-06 14:31:43.395
119.0, -186617.46372192667, -179680.398664522, -186737.44788616276, -186042.17452313597, -187500.02235174447, -187500.02235174447, -187500.02235174447, -184188.14202405716, 0.41600000000000004, 0.838, 0.424, 192.0, 0.0, 0.0, 0.0, 0.0, 0.0, 0.0, 0.0, 0.0, 0.0, 1.7309143033995962E9, 0.0, 2024-11-06 14:31:43.399
120.0, -185385.63673325026, -180217.55578727197, -186569.8321544924, -185489.79586241196, -187500.02235174447, -187500.02235174447, -187500.02235174447, -184541.16547598428, 0.41600000000000004, 0.838, 0.424, 192.0, 0.0, 0.0, 0.0, 0.0, 0.0, 0.0, 0.0, 0.0, 0.0, 1.7309143034047737E9, 0.0, 2024-11-06 14:31:43.404
121.0, -183370.26934269303, -183658.07040429956, -184611.75228497415, -187500.02235174447, -187500.02235174447, -187500.02235174447, -187018.36461047706, -186514.5786421989, 0.41600000000000004, 0.838, 0.424, 192.0, 0.0, 0.0, 0.0, 0.0, 0.0, 0.0, 0.0, 0.0, 0.0, 1.730914303408743E9, 0.0, 2024-11-06 14:31:43.408
122.0, -184066.3920720091, -183666.7428811482, -184454.41835575324, -187500.02235174447, -187500.02235174447, -187500.02235174447, -186672.89604817584, -186536.88568316528, 0.41600000000000004, 0.838, 0.426, 192.0, 13.0, 0.0, 26.0, 48.0, 13.0, 80.0, 0.0, 0.0, 0.0, 1.7309143034126325E9, 0.0, 2024-11-06 14:31:43.412
123.0, -186424.72462948857, -180122.69498380364, -186446.27171114346, -186599.0905879844, -187500.02235174447, -187500.02235174447, -187500.02235174447, -184434.70411714367, 0.41600000000000004, 0.838, 0.426, 192.0, 0.0, 0.0, 0.0, 0.0, 0.0, 0.0, 0.0, 0.0, 0.0, 1.7309143034186664E9, 0.0, 2024-11-06 14:31:43.418
124.0, -185768.72328146975, -179755.29936019177, -186816.01426792316, -185216.97046959048, -187500.02235174447, -187500.02235174447, -187500.02235174447, -184278.4430716566, 0.41600000000000004, 0.838, 0.426, 192.0, 0.0, 0.0, 0.0, 0.0, 0.0, 0.0, 0.0, 0.0, 0.0, 1.7309143034197688E9, 0.0, 2024-11-06 14:31:43.419
125.0, -183567.70230146675, -183117.24759545896, -184902.77199778226, -187500.02235174447, -187500.02235174447, -187500.02235174447, -187500.02235174447, -186209.67849608406, 0.41600000000000004, 0.838, 0.426, 192.0, 0.0, 0.0, 0.0, 0.0, 0.0, 0.0, 0.0, 0.0, 0.0, 1.73091430342364E9, 0.0, 2024-11-06 14:31:43.423
126.0, -183689.25108781471, -184100.79140672582, -184220.0379633949, -187500.02235174447, -187438.39859228118, -187500.02235174447, -186258.29354027435, -186784.81123266355, 0.41600000000000004, 0.838, 0.426, 192.0, 0.0, 0.0, 0.0, 0.0, 0.0, 0.0, 0.0, 0.0, 0.0, 1.7309143034278483E9, 0.0, 2024-11-06 14:31:43.427
127.0, -186102.2336604874, -180681.60035390858, -186073.93635200697, -187235.02006948236, -187500.02235174447, -187500.02235174447, -187500.02235174447, -184768.2591996502, 0.41600000000000004, 0.838, 0.426, 192.0, 0.0, 0.0, 0.0, 0.0, 0.0, 0.0, 0.0, 0.0, 0.0, 1.7309143034317727E9, 0.0, 2024-11-06 14:31:43.431
128.0, -186115.24237576037, -179421.4537050073, -186963.0216912057, -185085.43045347102, -187500.02235174447, -187500.02235174447, -187500.02235174447, -184093.7059037335, 0.41600000000000004, 0.838, 0.426, 192.0, 0.0, 0.0, 0.0, 0.0, 0.0, 0.0, 0.0, 0.0, 0.0, 1.7309143034366214E9, 0.0, 2024-11-06 14:31:43.436
129.0, -183859.90665673098, -182496.94198333527, -185235.18714132157, -187321.23074784648, -187500.02235174447, -187500.02235174447, -187500.02235174447, -185865.43927972787, 0.41600000000000004, 0.838, 0.426, 192.0, 0.0, 0.0, 0.0, 0.0, 0.0, 0.0, 0.0, 0.0, 0.0, 1.730914303440624E9, 0.0, 2024-11-06 14:31:43.440
130.0, -183399.46072095167, -184368.1182704113, -184123.63488955915, -187500.02235174447, -186986.15574671695, -187500.02235174447, -186000.98025810486, -186932.84683619105, 0.41600000000000004, 0.838, 0.426, 192.0, 0.0, 0.0, 0.0, 0.0, 0.0, 0.0, 0.0, 0.0, 0.0, 1.7309143034449344E9, 0.0, 2024-11-06 14:31:43.444
131.0, -185675.96354198022, -181315.9875650391, -185695.32015267853, -187500.02235174447, -187500.02235174447, -187500.02235174447, -187500.02235174447, -185152.26216939237, 0.41600000000000004, 0.838, 0.426, 192.0, 0.0, 0.0, 0.0, 0.0, 0.0, 0.0, 0.0, 0.0, 0.0, 1.7309143034477968E9, 0.0, 2024-11-06 14:31:43.447
132.0, -186374.23203876402, -179259.0012263061, -187040.51518923228, -185127.8987679361, -187500.02235174447, -187500.02235174447, -187500.02235174447, -183994.3300478852, 0.41200000000000003, 0.838, 0.43, 192.0, 12.0, 224.0, 26.0, 48.0, 13.0, 112.0, 0.0, 0.0, 0.0, 1.7309143034519093E9, 0.0, 2024-11-06 14:31:43.451
133.0, -184185.39275948916, -181871.7189874314, -185604.99675333462, -186753.56349391505, -187500.02235174447, -187500.02235174447, -187500.02235174447, -185504.70447596366, 0.41200000000000003, 0.838, 0.43, 192.0, 0.0, 0.0, 0.0, 0.0, 0.0, 0.0, 0.0, 0.0, 0.0, 1.7309143034557164E9, 0.0, 2024-11-06 14:31:43.455
134.0, -183183.0287793909, -184443.75657364805, -184105.3064591058, -187500.02235174447, -186776.3846250039, -187500.02235174447, -185991.77133938926, -186975.5833715896, 0.41200000000000003, 0.838, 0.43, 192.0, 0.0, 0.0, 0.0, 0.0, 0.0, 0.0, 0.0, 0.0, 0.0, 1.7309143034598193E9, 0.0, 2024-11-06 14:31:43.459
135.0, -185199.96079206, -181973.57588691424, -185305.90806077817, -187500.02235174447, -187500.02235174447, -187500.02235174447, -187500.02235174447, -185553.85596202087, 0.41200000000000003, 0.838, 0.43, 192.0, 0.0, 0.0, 0.0, 0.0, 0.0, 0.0, 0.0, 0.0, 0.0, 1.7309143034646661E9, 0.0, 2024-11-06 14:31:43.464
