%OpenBCI Raw EXG Data
%Number of channels = 8
%Sample Rate = 250 Hz
%Board = OpenBCI_GUI$BoardCytonSerial
Sample Index, EXG Channel 0, EXG Channel 1, EXG Channel 2, EXG Channel 3, EXG Channel 4, EXG Channel 5, EXG Channel 6, EXG Channel 7, Accel Channel 0, Accel Channel 1, Accel Channel 2, Not Used, Digital Channel 0 (D11), Digital Channel 1 (D12), Digital Channel 2 (D13), Digital Channel 3 (D17), Not Used, Digital Channel 4 (D18), Analog Channel 0, Analog Channel 1, Analog Channel 2, Timestamp, Marker Channel, Timestamp (Formatted)
72.0, -186487.33186570788, -163621.38552920648, -187500.02235174447, -187500.02235174447, -185885.3323322931, -187500.02235174447, -187500.02235174447, -187500.02235174447, 0.0, 0.0, 0.0, 192.0, 0.0, 0.0, 0.0, 0.0, 0.0, 0.0, 0.0, 0.0, 0.0, 1.7309143204634953E9, 0.0, 2024-11-06 14:32:00.463
73.0, -138556.56398016977, -104434.07797027564, -181858.59851343615, -187500.02235174447, -143118.04093337548, -183721.52700680817, -181943.71395632197, -185777.17224087386, 0.0, 0.0, 0.0, 192.0, 0.0, 0.0, 0.0, 0.0, 0.0, 0.0, 0.0, 0.0, 0.0, 1.730914320463549E9, 0.0, 2024-11-06 14:32:00.463
74.0, -77825.2202660108, -46847.311776555995, -160443.5262612732, -187500.02235174447, -101282.32553986616, -163070.6385458277, -167124.01564407535, -173598.75721916644, 0.0, 0.0, 0.0, 192.0, 0.0, 0.0, 0.0, 0.0, 0.0, 0.0, 0.0, 0.0, 0.0, 1.7309143204635756E9, 0.0, 2024-11-06 14:32:00.463
75.0, -134020.6350708765, -98412.6297727382, -178728.8849030596, -187500.02235174447, -147076.64663513264, -178168.63842828732, -183898.15049149402, -184282.10875774728, 0.40800000000000003, 0.844, 0.436, 192.0, 12.0, 192.0, 26.0, 96.0, 13.0, 160.0, 0.0, 0.0, 0.0, 1.7309143204636366E9, 0.0, 2024-11-06 14:32:00.463
0.0, 0.0, 0.0, 0.0, 0.0, 0.0, 0.0, 0.0, 0.0, 0.41200000000000003, 0.846, 0.432, 192.0, 12.0, 224.0, 26.0, 112.0, 13.0, 128.0, 0.0, 0.0, 0.0, 1.7309143205365832E9, 0.0, 2024-11-06 14:32:00.536
1.0, -126256.53311688104, -71089.4326674262, -185085.16223253755, -187500.02235174447, -134157.3159882207, -177797.42065637358, -187500.02235174447, -184141.42687814558, 0.41200000000000003, 0.846, 0.432, 192.0, 0.0, 0.0, 0.0, 0.0, 0.0, 0.0, 0.0, 0.0, 0.0, 1.730914320554665E9, 0.0, 2024-11-06 14:32:00.554
2.0, -117117.97769283984, -69886.5511878194, -181492.7898636806, -187500.02235174447, -124869.18269028458, -187500.02235174447, -182400.74007519963, -187500.02235174447, 0.41200000000000003, 0.846, 0.432, 192.0, 0.0, 0.0, 0.0, 0.0, 0.0, 0.0, 0.0, 0.0, 0.0, 1.7309143205576465E9, 0.0, 2024-11-06 14:32:00.557
3.0, -119305.07353604717, -68027.71306368269, -181684.36666540703, -187500.02235174447, -131041.10283149515, -186575.6436080508, -184124.32779363726, -187500.02235174447, 0.41200000000000003, 0.846, 0.432, 192.0, 0.0, 0.0, 0.0, 0.0, 0.0, 0.0, 0.0, 0.0, 0.0, 1.7309143205607362E9, 0.0, 2024-11-06 14:32:00.560
4.0, -129167.0878728733, -69101.98260569366, -185352.64555843422, -187500.02235174447, -141476.6405793, -172428.7551556534, -187500.02235174447, -182925.1343518656, 0.41200000000000003, 0.846, 0.432, 192.0, 0.0, 0.0, 0.0, 0.0, 0.0, 0.0, 0.0, 0.0, 0.0, 1.7309143205647812E9, 0.0, 2024-11-06 14:32:00.564
5.0, -128174.64806731322, -70946.38150291223, -185585.43897693622, -187500.02235174447, -136606.6424973777, -175343.22146692534, -187500.02235174447, -183437.03400338104, 0.41200000000000003, 0.846, 0.432, 192.0, 0.0, 0.0, 0.0, 0.0, 0.0, 0.0, 0.0, 0.0, 0.0, 1.7309143205676565E9, 0.0, 2024-11-06 14:32:00.567
6.0, -118805.4449922377, -70198.64859564885, -182019.70988747, -187500.02235174447, -126148.99887430655, -187500.02235174447, -183124.7801333404, -187500.02235174447, 0.41200000000000003, 0.846, 0.432, 192.0, 0.0, 0.0, 0.0, 0.0, 0.0, 0.0, 0.0, 0.0, 0.0, 1.730914320570691E9, 0.0, 2024-11-06 14:32:00.570
7.0, -118328.2799516058, -68111.71091934573, -181246.65245373876, -187500.02235174447, -129380.97171556613, -187500.02235174447, -183213.76242801695, -187500.02235174447, 0.41200000000000003, 0.846, 0.432, 192.0, 0.0, 0.0, 0.0, 0.0, 0.0, 0.0, 0.0, 0.0, 0.0, 1.7309143205757692E9, 0.0, 2024-11-06 14:32:00.575
8.0, -128300.57779557441, -68680.3616500332, -184775.74703404272, -187500.02235174447, -140913.8013021709, -174985.34768645142, -187500.02235174447, -183589.4281970773, 0.41400000000000003, 0.84, 0.426, 192.0, 12.0, 240.0, 26.0, 64.0, 13.0, 80.0, 0.0, 0.0, 0.0, 1.7309143205797074E9, 0.0, 2024-11-06 14:32:00.579
9.0, -129815.06494463266, -70699.10415400317, -185958.55664712866, -187500.02235174447, -138908.17927219623, -173175.370475694, -187500.02235174447, -182837.31434790068, 0.41400000000000003, 0.84, 0.426, 192.0, 0.0, 0.0, 0.0, 0.0, 0.0, 0.0, 0.0, 0.0, 0.0, 1.7309143205836117E9, 0.0, 2024-11-06 14:32:00.583
10.0, -120779.30519334141, -70446.88706956948, -182651.5713514771, -187500.02235174447, -127891.76438948684, -186461.15797295072, -184026.31539420073, -187110.83377728867, 0.41400000000000003, 0.84, 0.426, 192.0, 0.0, 0.0, 0.0, 0.0, 0.0, 0.0, 0.0, 0.0, 0.0, 1.7309143205875983E9, 0.0, 2024-11-06 14:32:00.587
11.0, -117705.67210980321, -68292.60358722253, -180955.72214790847, -187500.02235174447, -127989.03918135635, -187500.02235174447, -182479.77584359358, -187500.02235174447, 0.41400000000000003, 0.84, 0.426, 192.0, 0.0, 0.0, 0.0, 0.0, 0.0, 0.0, 0.0, 0.0, 0.0, 1.730914320591823E9, 0.0, 2024-11-06 14:32:00.591
12.0, -127118.99752843351, -68309.76972696421, -184106.33463935074, -187500.02235174447, -139851.9593300771, -177918.92473923264, -187500.02235174447, -184403.14345397276, 0.41400000000000003, 0.84, 0.426, 192.0, 0.0, 0.0, 0.0, 0.0, 0.0, 0.0, 0.0, 0.0, 0.0, 1.7309143205957465E9, 0.0, 2024-11-06 14:32:00.595
13.0, -131109.63327999512, -70370.48880702125, -186169.8923909536, -187500.02235174447, -140924.59719474282, -171555.96423816256, -187500.02235174447, -182415.73809572915, 0.41400000000000003, 0.84, 0.426, 192.0, 0.0, 0.0, 0.0, 0.0, 0.0, 0.0, 0.0, 0.0, 0.0, 1.730914320598637E9, 0.0, 2024-11-06 14:32:00.598
14.0, -122957.48269051108, -70633.61354274911, -183324.9623566821, -187500.02235174447, -130011.9838132839, -184880.04027367118, -185050.00293850934, -186340.0338697474, 0.41400000000000003, 0.84, 0.426, 192.0, 0.0, 0.0, 0.0, 0.0, 0.0, 0.0, 0.0, 0.0, 0.0, 1.730914320602632E9, 0.0, 2024-11-06 14:32:00.602
15.0, -117563.40325634519, -68574.90611969306, -180848.65729196757, -187500.02235174447, -127044.72268160853, -187500.02235174447, -182003.08018959526, -187500.02235174447, 0.41400000000000003, 0.84, 0.426, 192.0, 0.0, 0.0, 0.0, 0.0, 0.0, 0.0, 0.0, 0.0, 0.0, 1.7309143206076033E9, 0.0, 2024-11-06 14:32:00.607
16.0, -125735.93863677248, -68012.15624954179, -183412.13416005782, -187500.02235174447, -138411.43410342146, -180882.78840575082, -186797.79759619207, -185306.22098520055, 0.41400000000000003, 0.84, 0.426, 192.0, 0.0, 0.0, 0.0, 0.0, 0.0, 0.0, 0.0, 0.0, 0.0, 1.730914320611744E9, 0.0, 2024-11-06 14:32:00.611
17.0, -131996.63990695952, -69981.32258430989, -186205.9010512711, -187500.02235174447, -142545.29983345268, -170713.52698964204, -187500.02235174447, -182201.72014256957, 0.41400000000000003, 0.84, 0.426, 192.0, 0.0, 0.0, 0.0, 0.0, 0.0, 0.0, 0.0, 0.0, 0.0, 1.7309143206162548E9, 0.0, 2024-11-06 14:32:00.616
18.0, -125203.49773210261, -70757.39750354261, -184005.170643946, -187500.02235174447, -132357.2853037459, -182812.14628364402, -186058.5583518217, -185506.44791203117, 0.41200000000000003, 0.844, 0.43, 192.0, 12.0, 224.0, 26.0, 96.0, 13.0, 112.0, 0.0, 0.0, 0.0, 1.7309143206197133E9, 0.0, 2024-11-06 14:32:00.619
19.0, -117912.29163554808, -68898.9617108061, -180917.9029962901, -187500.02235174447, -126636.06573773215, -187500.02235174447, -181847.40028946404, -187500.02235174447, 0.41200000000000003, 0.844, 0.43, 192.0, 0.0, 0.0, 0.0, 0.0, 0.0, 0.0, 0.0, 0.0, 0.0, 1.730914320623602E9, 0.0, 2024-11-06 14:32:00.623
20.0, -124305.27052942164, -67797.75831672648, -182719.61006159903, -187500.02235174447, -136745.2680164895, -183525.72572537969, -185859.7619366362, -186217.1439787321, 0.41200000000000003, 0.844, 0.43, 192.0, 0.0, 0.0, 0.0, 0.0, 0.0, 0.0, 0.0, 0.0, 0.0, 1.730914320626727E9, 0.0, 2024-11-06 14:32:00.626
21.0, -132413.2093683731, -69557.667619904, -186049.4611918284, -187500.02235174447, -143627.7501139343, -170840.574305126, -187500.02235174447, -182235.04659355243, 0.41200000000000003, 0.844, 0.43, 192.0, 0.0, 0.0, 0.0, 0.0, 0.0, 0.0, 0.0, 0.0, 0.0, 1.7309143206306102E9, 0.0, 2024-11-06 14:32:00.630
22.0, -127459.95103835477, -70801.27397790838, -184661.10493673146, -187500.02235174447, -134864.54753453107, -180426.36578397345, -187009.11098827256, -184676.08060551653, 0.41200000000000003, 0.844, 0.43, 192.0, 0.0, 0.0, 0.0, 0.0, 0.0, 0.0, 0.0, 0.0, 0.0, 1.730914320635732E9, 0.0, 2024-11-06 14:32:00.635
23.0, -118823.21462907967, -69252.16397668887, -181179.3066476949, -187500.02235174447, -126870.08850217922, -187500.02235174447, -182049.88474248466, -187500.02235174447, 0.41200000000000003, 0.844, 0.43, 192.0, 0.0, 0.0, 0.0, 0.0, 0.0, 0.0, 0.0, 0.0, 0.0, 1.7309143206396537E9, 0.0, 2024-11-06 14:32:00.639
24.0, -122967.31745807141, -67677.59533853475, -182096.91281281863, -187500.02235174447, -135002.32368735358, -185631.97530889217, -184874.72055849084, -187047.8018579247, 0.41200000000000003, 0.844, 0.43, 192.0, 0.0, 0.0, 0.0, 0.0, 0.0, 0.0, 0.0, 0.0, 0.0, 1.7309143206436276E9, 0.0, 2024-11-06 14:32:00.643
25.0, -132344.65656812867, -69124.5131641046, -185716.0849232775, -187500.02235174447, -144121.20957627412, -171921.66112919583, -187500.02235174447, -182498.0148670691, 0.41200000000000003, 0.844, 0.43, 192.0, 0.0, 0.0, 0.0, 0.0, 0.0, 0.0, 0.0, 0.0, 0.0, 1.7309143206476908E9, 0.0, 2024-11-06 14:32:00.647
26.0, -129543.24538031167, -70745.66283770357, -185239.1657518346, -187500.02235174447, -137369.50753563733, -177940.91885577666, -187500.02235174447, -183890.79676756822, 0.41200000000000003, 0.844, 0.43, 192.0, 0.0, 0.0, 0.0, 0.0, 0.0, 0.0, 0.0, 0.0, 0.0, 1.7309143206517577E9, 0.0, 2024-11-06 14:32:00.651
27.0, -120187.7662763317, -69595.59853024465, -181611.2094058048, -187500.02235174447, -127705.50730294076, -187500.02235174447, -182560.4879928217, -187500.02235174447, 0.41200000000000003, 0.844, 0.43, 192.0, 0.0, 0.0, 0.0, 0.0, 0.0, 0.0, 0.0, 0.0, 0.0, 1.7309143206547768E9, 0.0, 2024-11-06 14:32:00.654
28.0, -121710.74708828297, -67657.3670098027, -181544.6459108169, -187500.02235174447, -133192.16766264054, -187301.963544126, -183879.7997092962, -187500.02235174447, 0.41600000000000004, 0.838, 0.43, 192.0, 13.0, 0.0, 26.0, 48.0, 13.0, 112.0, 0.0, 0.0, 0.0, 1.730914320658734E9, 0.0, 2024-11-06 14:32:00.658
29.0, -131785.84060500152, -68675.01958310838, -185220.43498998106, -187500.02235174447, -144021.47609251452, -173939.3531011764, -187500.02235174447, -183026.54421645933, 0.41600000000000004, 0.838, 0.43, 192.0, 0.0, 0.0, 0.0, 0.0, 0.0, 0.0, 0.0, 0.0, 0.0, 1.7309143206637416E9, 0.0, 2024-11-06 14:32:00.663
30.0, -131439.5673798999, -70594.76621088579, -185718.5883186565, -187500.02235174447, -139835.12846650227, -175543.9848356229, -187500.02235174447, -183202.27363136693, 0.41600000000000004, 0.838, 0.43, 192.0, 0.0, 0.0, 0.0, 0.0, 0.0, 0.0, 0.0, 0.0, 0.0, 1.7309143206678472E9, 0.0, 2024-11-06 14:32:00.667
31.0, -121990.03213525203, -69907.36066190728, -182172.84168873332, -187500.02235174447, -129135.70602365804, -187500.02235174447, -183325.0741154044, -187500.02235174447, 0.41600000000000004, 0.838, 0.43, 192.0, 0.0, 0.0, 0.0, 0.0, 0.0, 0.0, 0.0, 0.0, 0.0, 1.7309143206718357E9, 0.0, 2024-11-06 14:32:00.671
32.0, -120825.32743517488, -67761.05675233087, -181145.62256880075, -187500.02235174447, -131609.75356218262, -187500.02235174447, -183008.08167553923, -187500.02235174447, 0.41600000000000004, 0.838, 0.43, 192.0, 0.0, 0.0, 0.0, 0.0, 0.0, 0.0, 0.0, 0.0, 0.0, 1.7309143206748986E9, 0.0, 2024-11-06 14:32:00.674
33.0, -130853.61639900404, -68258.24895599473, -184622.30230835706, -187500.02235174447, -143364.6924334398, -176520.93488227547, -187500.02235174447, -183724.49978882074, 0.41600000000000004, 0.838, 0.43, 192.0, 0.0, 0.0, 0.0, 0.0, 0.0, 0.0, 0.0, 0.0, 0.0, 1.730914320678694E9, 0.0, 2024-11-06 14:32:00.678
34.0, -133011.7443813973, -70327.88638208943, -186052.92571221897, -187500.02235174447, -142089.54776400898, -173572.49391943146, -187500.02235174447, -182640.9095693719, 0.41600000000000004, 0.838, 0.43, 192.0, 0.0, 0.0, 0.0, 0.0, 0.0, 0.0, 0.0, 0.0, 0.0, 1.7309143206827133E9, 0.0, 2024-11-06 14:32:00.682
35.0, -124060.29541019148, -70158.4601591182, -182816.46017032387, -187500.02235174447, -131009.49746483535, -186436.39224009422, -184276.07378674435, -186878.26387623118, 0.41600000000000004, 0.838, 0.43, 192.0, 0.0, 0.0, 0.0, 0.0, 0.0, 0.0, 0.0, 0.0, 0.0, 1.7309143206867073E9, 0.0, 2024-11-06 14:32:00.686
36.0, -120332.38206295753, -67982.58489162743, -180895.9982867239, -187500.02235174447, -130332.32901481737, -187500.02235174447, -182323.31363240644, -187500.02235174447, 0.41600000000000004, 0.838, 0.43, 192.0, 0.0, 0.0, 0.0, 0.0, 0.0, 0.0, 0.0, 0.0, 0.0, 1.730914320691776E9, 0.0, 2024-11-06 14:32:00.691
37.0, -129592.2851076466, -67893.35672776184, -183930.44876223194, -187500.02235174447, -142202.78170141956, -179449.12516464296, -187413.92343210263, -184586.2712962951, 0.41600000000000004, 0.838, 0.43, 192.0, 0.0, 0.0, 0.0, 0.0, 0.0, 0.0, 0.0, 0.0, 0.0, 1.7309143206958013E9, 0.0, 2024-11-06 14:32:00.695
38.0, -134216.41400056053, -69970.59374697134, -186215.713467087, -187500.02235174447, -144048.78992423892, -172225.89072297703, -187500.02235174447, -182269.2224108246, 0.41200000000000003, 0.84, 0.432, 192.0, 12.0, 224.0, 26.0, 64.0, 13.0, 128.0, 0.0, 0.0, 0.0, 1.7309143206997635E9, 0.0, 2024-11-06 14:32:00.699
39.0, -126297.2579952786, -70340.96215259578, -183500.15532972282, -187500.02235174447, -133226.87992177962, -184893.65248604448, -185315.1393312382, -186082.9664567669, 0.41200000000000003, 0.84, 0.432, 192.0, 0.0, 0.0, 0.0, 0.0, 0.0, 0.0, 0.0, 0.0, 0.0, 1.730914320702836E9, 0.0, 2024-11-06 14:32:00.702
40.0, -120336.67359789296, -68299.6667384704, -180833.7263266714, -187500.02235174447, -129524.93930160276, -187500.02235174447, -181935.46616261796, -187500.02235174447, 0.41200000000000003, 0.84, 0.432, 192.0, 0.0, 0.0, 0.0, 0.0, 0.0, 0.0, 0.0, 0.0, 0.0, 1.7309143207069416E9, 0.0, 2024-11-06 14:32:00.706
41.0, -128192.68592508865, -67606.74030861144, -183229.27453866895, -187500.02235174447, -140714.04376197385, -182200.89312802473, -186565.80884049044, -185491.96398162414, 0.41200000000000003, 0.84, 0.432, 192.0, 0.0, 0.0, 0.0, 0.0, 0.0, 0.0, 0.0, 0.0, 0.0, 1.7309143207109506E9, 0.0, 2024-11-06 14:32:00.710
42.0, -134953.37336699647, -69546.08941627615, -186187.01382720636, -187500.02235174447, -145529.9953258032, -171768.3952174658, -187500.02235174447, -182127.31118527785, 0.41200000000000003, 0.84, 0.432, 192.0, 0.0, 0.0, 0.0, 0.0, 0.0, 0.0, 0.0, 0.0, 0.0, 1.730914320714862E9, 0.0, 2024-11-06 14:32:00.714
43.0, -128548.59275205049, -70433.74424382976, -184176.31795124031, -187500.02235174447, -135624.77506694497, -182968.16145994206, -186297.40909307112, -185252.3309293188, 0.41200000000000003, 0.84, 0.432, 192.0, 0.0, 0.0, 0.0, 0.0, 0.0, 0.0, 0.0, 0.0, 0.0, 1.7309143207188168E9, 0.0, 2024-11-06 14:32:00.718
44.0, -120876.15530206625, -68655.75237938791, -180969.69198819305, -187500.02235174447, -129300.52778727148, -187500.02235174447, -181866.73454841788, -187500.02235174447, 0.41200000000000003, 0.84, 0.432, 192.0, 0.0, 0.0, 0.0, 0.0, 0.0, 0.0, 0.0, 0.0, 0.0, 1.730914320725044E9, 0.0, 2024-11-06 14:32:00.725
45.0, -126718.54367477223, -67416.34814934112, -182538.78444895562, -187500.02235174447, -138950.7593453836, -184690.40807371237, -185596.88307009733, -186414.62164099477, 0.41200000000000003, 0.84, 0.432, 192.0, 0.0, 0.0, 0.0, 0.0, 0.0, 0.0, 0.0, 0.0, 0.0, 1.7309143207279174E9, 0.0, 2024-11-06 14:32:00.727
46.0, -135174.2086022149, -69081.06137288349, -185959.11544074005, -187500.02235174447, -146441.1194850349, -172344.91376220153, -187500.02235174447, -182255.14081181775, 0.41200000000000003, 0.84, 0.432, 192.0, 0.0, 0.0, 0.0, 0.0, 0.0, 0.0, 0.0, 0.0, 0.0, 1.7309143207318263E9, 0.0, 2024-11-06 14:32:00.731
47.0, -130753.39117686644, -70445.81418583562, -184808.13471175847, -187500.02235174447, -138156.06542301958, -180783.18903245797, -187189.26604858233, -184426.76924786202, 0.41200000000000003, 0.84, 0.432, 192.0, 0.0, 0.0, 0.0, 0.0, 0.0, 0.0, 0.0, 0.0, 0.0, 1.730914320734861E9, 0.0, 2024-11-06 14:32:00.734
48.0, -121922.84279141937, -69033.96624731616, -181274.25685814107, -187500.02235174447, -129699.32761184307, -187500.02235174447, -182130.68629869062, -187500.02235174447, 0.41200000000000003, 0.838, 0.43, 192.0, 12.0, 224.0, 26.0, 48.0, 13.0, 112.0, 0.0, 0.0, 0.0, 1.7309143207387667E9, 0.0, 2024-11-06 14:32:00.738
49.0, -125434.48065930375, -67343.392055439, -181934.52738935084, -187500.02235174447, -137214.5428913287, -186480.64869411572, -184594.69790395474, -187209.40497033656, 0.41200000000000003, 0.838, 0.43, 192.0, 0.0, 0.0, 0.0, 0.0, 0.0, 0.0, 0.0, 0.0, 0.0, 1.730914320743076E9, 0.0, 2024-11-06 14:32:00.743
50.0, -134994.90290819443, -68636.70869311198, -185581.32625595646, -187500.02235174447, -146813.9018790605, -173651.8426122478, -187500.02235174447, -182590.48403388073, 0.41200000000000003, 0.838, 0.43, 192.0, 0.0, 0.0, 0.0, 0.0, 0.0, 0.0, 0.0, 0.0, 0.0, 1.7309143207470164E9, 0.0, 2024-11-06 14:32:00.747
51.0, -132755.74985215068, -70343.1526235524, -185345.15772404167, -187500.02235174447, -140638.76308664837, -178595.4002851725, -187500.02235174447, -183684.11018659, 0.41200000000000003, 0.838, 0.43, 192.0, 0.0, 0.0, 0.0, 0.0, 0.0, 0.0, 0.0, 0.0, 0.0, 1.7309143207518003E9, 0.0, 2024-11-06 14:32:00.751
52.0, -123431.45143168587, -69378.83131251708, -181726.03031707174, -187500.02235174447, -130715.81789443707, -187500.02235174447, -182700.7228375343, -187500.02235174447, 0.41200000000000003, 0.838, 0.43, 192.0, 0.0, 0.0, 0.0, 0.0, 0.0, 0.0, 0.0, 0.0, 0.0, 1.730914320755977E9, 0.0, 2024-11-06 14:32:00.755
53.0, -124324.78360233112, -67384.16163732548, -181424.79585704755, -187500.02235174447, -135486.39541702217, -187500.02235174447, -183640.61369187996, -187500.02235174447, 0.41200000000000003, 0.838, 0.43, 192.0, 0.0, 0.0, 0.0, 0.0, 0.0, 0.0, 0.0, 0.0, 0.0, 1.730914320758788E9, 0.0, 2024-11-06 14:32:00.758
54.0, -134344.57890326728, -68199.77679249964, -185049.55590362023, -187500.02235174447, -146571.07252729803, -175773.71606513453, -187500.02235174447, -183162.50987798095, 0.41200000000000003, 0.838, 0.43, 192.0, 0.0, 0.0, 0.0, 0.0, 0.0, 0.0, 0.0, 0.0, 0.0, 1.7309143207630148E9, 0.0, 2024-11-06 14:32:00.763
55.0, -134537.8544375723, -70143.73035952215, -185773.43949954983, -187500.02235174447, -143045.39776389574, -176514.13995196106, -187500.02235174447, -183033.2944432848, 0.41200000000000003, 0.838, 0.43, 192.0, 0.0, 0.0, 0.0, 0.0, 0.0, 0.0, 0.0, 0.0, 0.0, 1.7309143207668092E9, 0.0, 2024-11-06 14:32:00.766
56.0, -125298.40323905984, -69675.88599632811, -182311.71307703413, -187500.02235174447, -132267.58775324677, -187500.02235174447, -183520.3613067104, -187360.68157681008, 0.41200000000000003, 0.838, 0.43, 192.0, 0.0, 0.0, 0.0, 0.0, 0.0, 0.0, 0.0, 0.0, 0.0, 1.7309143207707467E9, 0.0, 2024-11-06 14:32:00.770
57.0, -123525.88755200953, -67543.46252005846, -181053.91336130066, -187500.02235174447, -133949.51182001972, -187500.02235174447, -182785.8382804201, -187500.02235174447, 0.41200000000000003, 0.838, 0.43, 192.0, 0.0, 0.0, 0.0, 0.0, 0.0, 0.0, 0.0, 0.0, 0.0, 1.7309143207759075E9, 0.0, 2024-11-06 14:32:00.775
58.0, -133292.43758826706, -67798.8535522048, -184405.71390458514, -187500.02235174447, -145756.88788376903, -178395.68744846433, -187500.02235174447, -183929.64409943155, 0.41600000000000004, 0.838, 0.43, 192.0, 13.0, 0.0, 26.0, 48.0, 13.0, 112.0, 0.0, 0.0, 0.0, 1.7309143207798116E9, 0.0, 2024-11-06 14:32:00.779
59.0, -136031.8003334761, -69846.69802745558, -186065.84502051416, -187500.02235174447, -145278.2029245142, -174754.18594529462, -187500.02235174447, -182528.50264650615, 0.41600000000000004, 0.838, 0.43, 192.0, 0.0, 0.0, 0.0, 0.0, 0.0, 0.0, 0.0, 0.0, 0.0, 1.730914320782933E9, 0.0, 2024-11-06 14:32:00.782
60.0, -127404.65282257235, -69902.71149906058, -182962.17119242804, -187500.02235174447, -134246.20887591946, -186626.13619877532, -184485.8449084574, -186628.21491100968, 0.41600000000000004, 0.838, 0.43, 192.0, 0.0, 0.0, 0.0, 0.0, 0.0, 0.0, 0.0, 0.0, 0.0, 1.7309143207868884E9, 0.0, 2024-11-06 14:32:00.786
61.0, -123160.21301272072, -67801.93809293963, -180848.05379486727, -187500.02235174447, -132789.72450372274, -187500.02235174447, -182154.7367757245, -187500.02235174447, 0.41600000000000004, 0.838, 0.43, 192.0, 0.0, 0.0, 0.0, 0.0, 0.0, 0.0, 0.0, 0.0, 0.0, 1.7309143207909305E9, 0.0, 2024-11-06 14:32:00.790
62.0, -132026.43478231845, -67479.04479253826, -183718.33070735107, -187500.02235174447, -144533.33104054106, -181065.0892335283, -187168.79185066128, -184787.83932779304, 0.41600000000000004, 0.838, 0.43, 192.0, 0.0, 0.0, 0.0, 0.0, 0.0, 0.0, 0.0, 0.0, 0.0, 1.730914320794844E9, 0.0, 2024-11-06 14:32:00.794
63.0, -137124.73358210726, -69475.61436600857, -186182.11879517065, -187500.02235174447, -147139.34327832976, -173646.4334900896, -187500.02235174447, -182230.84446559483, 0.41600000000000004, 0.838, 0.43, 192.0, 0.0, 0.0, 0.0, 0.0, 0.0, 0.0, 0.0, 0.0, 0.0, 1.7309143207988448E9, 0.0, 2024-11-06 14:32:00.798
64.0, -129629.61252088696, -70052.35642818885, -183638.35616568997, -187500.02235174447, -136520.23065331348, -185192.29414371183, -185518.04846740348, -185835.77851483566, 0.41600000000000004, 0.838, 0.43, 192.0, 0.0, 0.0, 0.0, 0.0, 0.0, 0.0, 0.0, 0.0, 0.0, 1.730914320803116E9, 0.0, 2024-11-06 14:32:00.803
65.0, -123325.32534901207, -68135.51552719064, -180831.08882082568, -187500.02235174447, -132160.9922839394, -187500.02235174447, -181852.78705987777, -187500.02235174447, 0.41600000000000004, 0.838, 0.43, 192.0, 0.0, 0.0, 0.0, 0.0, 0.0, 0.0, 0.0, 0.0, 0.0, 1.730914320807856E9, 0.0, 2024-11-06 14:32:00.807
66.0, -130632.2894254076, -67239.94818209985, -183009.4004284621, -187500.02235174447, -142981.42707126465, -183572.84320269147, -186301.36535183972, -185682.06556821652, 0.41600000000000004, 0.838, 0.43, 192.0, 0.0, 0.0, 0.0, 0.0, 0.0, 0.0, 0.0, 0.0, 0.0, 1.7309143208110182E9, 0.0, 2024-11-06 14:32:00.811
67.0, -137737.84193251634, -69042.57166893144, -186091.01308477082, -187500.02235174447, -148490.52858239753, -173412.678946576, -187500.02235174447, -182163.498659551, 0.41600000000000004, 0.838, 0.43, 192.0, 0.0, 0.0, 0.0, 0.0, 0.0, 0.0, 0.0, 0.0, 0.0, 1.7309143208149068E9, 0.0, 2024-11-06 14:32:00.814
68.0, -131869.54788798664, -70114.15900160778, -184298.06790328838, -187500.02235174447, -138983.03526437705, -183411.01657283504, -186488.8741360753, -185012.89904271354, 0.42, 0.842, 0.436, 192.0, 13.0, 32.0, 26.0, 80.0, 13.0, 160.0, 0.0, 0.0, 0.0, 1.730914320818855E9, 0.0, 2024-11-06 14:32:00.818
69.0, -123987.85340641183, -68500.85479031263, -181007.3770293447, -187500.02235174447, -132107.23633852438, -187500.02235174447, -181871.8754496426, -187500.02235174447, 0.42, 0.842, 0.436, 192.0, 0.0, 0.0, 0.0, 0.0, 0.0, 0.0, 0.0, 0.0, 0.0, 1.7309143208229897E9, 0.0, 2024-11-06 14:32:00.822
70.0, -129266.12845255477, -67099.7356891317, -182360.37282471335, -187500.02235174447, -141284.72850140673, -185596.19016601922, -185342.52021819595, -186539.9255204112, 0.42, 0.842, 0.436, 192.0, 0.0, 0.0, 0.0, 0.0, 0.0, 0.0, 0.0, 0.0, 0.0, 1.7309143208269804E9, 0.0, 2024-11-06 14:32:00.826
71.0, -137911.6938008897, -68603.7398700404, -185847.84845684154, -187500.02235174447, -149316.4925952545, -173995.8136076705, -187500.02235174447, -182322.33015565042, 0.42, 0.842, 0.436, 192.0, 0.0, 0.0, 0.0, 0.0, 0.0, 0.0, 0.0, 0.0, 0.0, 1.730914320830892E9, 0.0, 2024-11-06 14:32:00.830
72.0, -134014.22012021783, -70086.59930069439, -184915.02075374374, -187500.02235174447, -141515.59966988562, -181374.77265295657, -187351.36089937223, -184215.58996624828, 0.42, 0.842, 0.436, 192.0, 0.0, 0.0, 0.0, 0.0, 0.0, 0.0, 0.0, 0.0, 0.0, 1.7309143208358798E9, 0.0, 2024-11-06 14:32:00.835
73.0, -125140.62227494983, -68861.20961442108, -181347.0117863431, -187500.02235174447, -132669.62858076437, -187500.02235174447, -182222.93194805767, -187500.02235174447, 0.42, 0.842, 0.436, 192.0, 0.0, 0.0, 0.0, 0.0, 0.0, 0.0, 0.0, 0.0, 0.0, 1.730914320838816E9, 0.0, 2024-11-06 14:32:00.838
74.0, -128015.68246074706, -67066.81156954904, -181770.86791644906, -187500.02235174447, -139528.17195989753, -187135.19717874494, -184340.22329333107, -187301.53886098135, 0.42, 0.842, 0.436, 192.0, 0.0, 0.0, 0.0, 0.0, 0.0, 0.0, 0.0, 0.0, 0.0, 1.7309143208430457E9, 0.0, 2024-11-06 14:32:00.843
75.0, -137611.91220425515, -68165.31040254956, -185424.34995464684, -187500.02235174447, -149529.68353386922, -175412.51187473678, -187500.02235174447, -182707.2271951708, 0.42, 0.842, 0.436, 192.0, 0.0, 0.0, 0.0, 0.0, 0.0, 0.0, 0.0, 0.0, 0.0, 1.7309143208470275E9, 0.0, 2024-11-06 14:32:00.847
76.0, -135965.70622512177, -69953.74053165205, -185430.49668437205, -187500.02235174447, -143998.23027828103, -179319.30623284655, -187500.02235174447, -183494.45563488672, 0.42, 0.842, 0.436, 192.0, 0.0, 0.0, 0.0, 0.0, 0.0, 0.0, 0.0, 0.0, 0.0, 1.7309143208508317E9, 0.0, 2024-11-06 14:32:00.850
77.0, -126735.41924183599, -69187.0309933461, -181847.28853074176, -187500.02235174447, -133836.36728958695, -187500.02235174447, -182875.22290649687, -187500.02235174447, 0.42, 0.842, 0.436, 192.0, 0.0, 0.0, 0.0, 0.0, 0.0, 0.0, 0.0, 0.0, 0.0, 1.7309143208549032E9, 0.0, 2024-11-06 14:32:00.854
78.0, -126996.88994847417, -67151.59173626802, -181310.19846322518, -187500.02235174447, -137858.7425182751, -187500.02235174447, -183408.78139838952, -187500.02235174447, 0.418, 0.844, 0.434, 192.0, 13.0, 16.0, 26.0, 96.0, 13.0, 144.0, 0.0, 0.0, 0.0, 1.7309143208589184E9, 0.0, 2024-11-06 14:32:00.858
79.0, -136890.35318974892, -67759.46977847455, -184881.00139868277, -187500.02235174447, -149163.20433178, -177495.4485887824, -187500.02235174447, -183301.22480407057, 0.418, 0.844, 0.434, 192.0, 0.0, 0.0, 0.0, 0.0, 0.0, 0.0, 0.0, 0.0, 0.0, 1.7309143208639135E9, 0.0, 2024-11-06 14:32:00.863
80.0, -137708.51644379098, -69736.07924414627, -185850.24009349826, -187500.02235174447, -146409.6482288418, -177300.02728700964, -187500.02235174447, -182869.14323200504, 0.418, 0.844, 0.434, 192.0, 0.0, 0.0, 0.0, 0.0, 0.0, 0.0, 0.0, 0.0, 0.0, 1.7309143208669035E9, 0.0, 2024-11-06 14:32:00.866
81.0, -128676.15415765693, -69463.38796179152, -182459.25694218362, -187500.02235174447, -135533.73641177852, -187500.02235174447, -183738.40257387192, -187099.72496029438, 0.418, 0.844, 0.434, 192.0, 0.0, 0.0, 0.0, 0.0, 0.0, 0.0, 0.0, 0.0, 0.0, 1.7309143208708928E9, 0.0, 2024-11-06 14:32:00.870
82.0, -126300.6107569469, -67342.76620659426, -180977.17982258557, -187500.02235174447, -136410.3941810601, -187500.02235174447, -182595.58023161654, -187500.02235174447, 0.418, 0.844, 0.434, 192.0, 0.0, 0.0, 0.0, 0.0, 0.0, 0.0, 0.0, 0.0, 0.0, 1.730914320875079E9, 0.0, 2024-11-06 14:32:00.875
83.0, -135812.14974071382, -67398.26558807679, -184222.11667562922, -187500.02235174447, -148257.80221912888, -179928.86065588723, -187500.02235174447, -184068.56019122127, 0.418, 0.844, 0.434, 192.0, 0.0, 0.0, 0.0, 0.0, 0.0, 0.0, 0.0, 0.0, 0.0, 1.7309143208789263E9, 0.0, 2024-11-06 14:32:00.878
84.0, -139112.89889966237, -69428.56394393014, -186097.74095985186, -187500.02235174447, -148558.3661268194, -175692.28866008387, -187500.02235174447, -182417.43682830775, 0.418, 0.844, 0.434, 192.0, 0.0, 0.0, 0.0, 0.0, 0.0, 0.0, 0.0, 0.0, 0.0, 1.7309143208830612E9, 0.0, 2024-11-06 14:32:00.883
85.0, -130811.08102930558, -69670.07454276974, -183119.10279024873, -187500.02235174447, -137599.90931748264, -186736.46440940673, -184733.14460911092, -186358.04937577838, 0.418, 0.844, 0.434, 192.0, 0.0, 0.0, 0.0, 0.0, 0.0, 0.0, 0.0, 0.0, 0.0, 1.7309143208868775E9, 0.0, 2024-11-06 14:32:00.886
86.0, -126081.87658570727, -67631.32722751227, -180823.84685562216, -187500.02235174447, -135400.78823575834, -187500.02235174447, -182042.15103890313, -187500.02235174447, 0.418, 0.844, 0.434, 192.0, 0.0, 0.0, 0.0, 0.0, 0.0, 0.0, 0.0, 0.0, 0.0, 1.730914320891915E9, 0.0, 2024-11-06 14:32:00.891
87.0, -134508.23837616903, -67112.65499742687, -183526.7092021357, -187500.02235174447, -146928.3428106717, -182431.09374416992, -186936.13254262597, -184934.3550126976, 0.418, 0.844, 0.434, 192.0, 0.0, 0.0, 0.0, 0.0, 0.0, 0.0, 0.0, 0.0, 0.0, 1.7309143208950477E9, 0.0, 2024-11-06 14:32:00.895
88.0, -140102.90236507682, -69037.45311945118, -186168.03719616382, -187500.02235174447, -150313.04512179436, -174745.82639286833, -187500.02235174447, -182160.28000834942, 0.41600000000000004, 0.844, 0.44, 192.0, 13.0, 0.0, 26.0, 96.0, 13.0, 192.0, 0.0, 0.0, 0.0, 1.7309143208989215E9, 0.0, 2024-11-06 14:32:00.898
89.0, -133034.47610550834, -69786.974166271, -183797.3217722561, -187500.02235174447, -139934.12434269482, -185351.77384040045, -185740.2918625226, -185553.96772074315, 0.41600000000000004, 0.844, 0.44, 192.0, 0.0, 0.0, 0.0, 0.0, 0.0, 0.0, 0.0, 0.0, 0.0, 1.7309143209033992E9, 0.0, 2024-11-06 14:32:00.903
90.0, -126351.75154826064, -67970.96198451066, -180850.445431524, -187500.02235174447, -134910.92740427583, -187500.02235174447, -181810.18463494597, -187500.02235174447, 0.41600000000000004, 0.844, 0.44, 192.0, 0.0, 0.0, 0.0, 0.0, 0.0, 0.0, 0.0, 0.0, 0.0, 1.7309143209070432E9, 0.0, 2024-11-06 14:32:00.907
91.0, -133156.80720291226, -66912.0927944294, -182836.152057189, -187500.02235174447, -145376.4611931397, -184577.39765374633, -186055.29499713125, -185799.0993021845, 0.41600000000000004, 0.844, 0.44, 192.0, 0.0, 0.0, 0.0, 0.0, 0.0, 0.0, 0.0, 0.0, 0.0, 1.7309143209112298E9, 0.0, 2024-11-06 14:32:00.911
92.0, -140623.78741786332, -68617.10621322467, -186043.78384873676, -187500.02235174447, -151546.70495351613, -174609.27958599088, -187500.02235174447, -182130.44042950158, 0.41600000000000004, 0.844, 0.44, 192.0, 0.0, 0.0, 0.0, 0.0, 0.0, 0.0, 0.0, 0.0, 0.0, 1.7309143209159613E9, 0.0, 2024-11-06 14:32:00.915
93.0, -135242.69434722594, -69827.49787896847, -184454.08307958642, -187500.02235174447, -142420.15241624744, -183610.9976304767, -186689.9057257063, -184743.49346679373, 0.41600000000000004, 0.844, 0.44, 192.0, 0.0, 0.0, 0.0, 0.0, 0.0, 0.0, 0.0, 0.0, 0.0, 1.730914320918986E9, 0.0, 2024-11-06 14:32:00.918
94.0, -127122.84202847983, -68335.4742330878, -181071.52653593142, -187500.02235174447, -135014.28187063718, -187500.02235174447, -181915.438999586, -187500.02235174447, 0.41600000000000004, 0.844, 0.44, 192.0, 0.0, 0.0, 0.0, 0.0, 0.0, 0.0, 0.0, 0.0, 0.0, 1.7309143209220397E9, 0.0, 2024-11-06 14:32:00.922
95.0, -131820.88814030745, -66808.33599666787, -182205.6093461048, -187500.02235174447, -143671.26896038878, -186309.9260699661, -185074.50045043236, -186636.4627047137, 0.41600000000000004, 0.844, 0.44, 192.0, 0.0, 0.0, 0.0, 0.0, 0.0, 0.0, 0.0, 0.0, 0.0, 1.7309143209270532E9, 0.0, 2024-11-06 14:32:00.927
96.0, -140711.9650497395, -68200.35793785549, -185761.59307498852, -187500.02235174447, -152241.35246769816, -175258.84363160655, -187500.02235174447, -182328.76745805354, 0.41600000000000004, 0.844, 0.44, 192.0, 0.0, 0.0, 0.0, 0.0, 0.0, 0.0, 0.0, 0.0, 0.0, 1.7309143209309475E9, 0.0, 2024-11-06 14:32:00.930
97.0, -137346.35112838165, -69778.48050337798, -185051.00876700983, -187500.02235174447, -144954.57201654578, -181630.9683479033, -187500.02235174447, -183960.8247829467, 0.41600000000000004, 0.844, 0.44, 192.0, 0.0, 0.0, 0.0, 0.0, 0.0, 0.0, 0.0, 0.0, 0.0, 1.7309143209350877E9, 0.0, 2024-11-06 14:32:00.935
98.0, -128395.03626764254, -68690.0623071268, -181457.60821790795, -187500.02235174447, -135756.0915656199, -187500.02235174447, -182362.80916485898, -187500.02235174447, 0.42, 0.836, 0.434, 192.0, 13.0, 32.0, 26.0, 32.0, 13.0, 144.0, 0.0, 0.0, 0.0, 1.7309143209390604E9, 0.0, 2024-11-06 14:32:00.939
99.0, -130620.59946305746, -66814.03569150397, -181643.19475212035, -187500.02235174447, -141933.82316038886, -187500.02235174447, -184096.87985144614, -187369.2646466809, 0.42, 0.836, 0.434, 192.0, 0.0, 0.0, 0.0, 0.0, 0.0, 0.0, 0.0, 0.0, 0.0, 1.7309143209430997E9, 0.0, 2024-11-06 14:32:00.943
100.0, -140313.03111470118, -67779.80986592888, -185298.10730196326, -187500.02235174447, -152317.48250931295, -176726.5709312643, -187500.02235174447, -182759.79849812968, 0.42, 0.836, 0.434, 192.0, 0.0, 0.0, 0.0, 0.0, 0.0, 0.0, 0.0, 0.0, 0.0, 1.7309143209470816E9, 0.0, 2024-11-06 14:32:00.947
101.0, -139268.8693724715, -69633.21651616294, -185550.07851720793, -187500.02235174447, -147451.26187220358, -179587.21424188785, -187500.02235174447, -183261.7069198736, 0.42, 0.836, 0.434, 192.0, 0.0, 0.0, 0.0, 0.0, 0.0, 0.0, 0.0, 0.0, 0.0, 1.7309143209501123E9, 0.0, 2024-11-06 14:32:00.950
102.0, -130063.1469563421, -68999.32104341043, -181986.47284346496, -187500.02235174447, -137056.78427896314, -187500.02235174447, -183058.3507488192, -187500.02235174447, 0.42, 0.836, 0.434, 192.0, 0.0, 0.0, 0.0, 0.0, 0.0, 0.0, 0.0, 0.0, 0.0, 1.7309143209541585E9, 0.0, 2024-11-06 14:32:00.954
103.0, -129677.53466099915, -66924.3415503909, -181212.4319329777, -187500.02235174447, -140324.05052471763, -187500.02235174447, -183183.60992474676, -187500.02235174447, 0.42, 0.836, 0.434, 192.0, 0.0, 0.0, 0.0, 0.0, 0.0, 0.0, 0.0, 0.0, 0.0, 1.7309143209591637E9, 0.0, 2024-11-06 14:32:00.959
104.0, -139505.30612531974, -67386.57562572666, -184722.84045491702, -187500.02235174447, -151818.09983469246, -178766.36877851115, -187500.02235174447, -183400.35479072988, 0.42, 0.836, 0.434, 192.0, 0.0, 0.0, 0.0, 0.0, 0.0, 0.0, 0.0, 0.0, 0.0, 1.73091432096348E9, 0.0, 2024-11-06 14:32:00.963
105.0, -140929.1122471228, -69391.81767604563, -185922.34682111107, -187500.02235174447, -149792.0036067967, -177657.76695701684, -187500.02235174447, -182669.87743018597, 0.42, 0.836, 0.434, 192.0, 0.0, 0.0, 0.0, 0.0, 0.0, 0.0, 0.0, 0.0, 0.0, 1.7309143209660811E9, 0.0, 2024-11-06 14:32:00.966
106.0, -132043.4668115934, -69247.31364814207, -182607.47135966676, -187500.02235174447, -138847.11430634433, -187500.02235174447, -183973.34175984166, -186841.8528845135, 0.42, 0.836, 0.434, 192.0, 0.0, 0.0, 0.0, 0.0, 0.0, 0.0, 0.0, 0.0, 0.0, 1.730914320971064E9, 0.0, 2024-11-06 14:32:00.971
107.0, -129092.23188069247, -67137.28661981662, -180920.58520562472, -187500.02235174447, -138986.18686034525, -187500.02235174447, -182448.95278798972, -187500.02235174447, 0.42, 0.836, 0.434, 192.0, 0.0, 0.0, 0.0, 0.0, 0.0, 0.0, 0.0, 0.0, 0.0, 1.7309143209750528E9, 0.0, 2024-11-06 14:32:00.975
108.0, -138373.7490622698, -67055.2780694101, -184049.38239447863, -187500.02235174447, -150807.71157833477, -181105.47883575904, -187500.02235174447, -184181.14592804265, 0.422, 0.842, 0.43, 192.0, 13.0, 48.0, 26.0, 80.0, 13.0, 112.0, 0.0, 0.0, 0.0, 1.730914320979064E9, 0.0, 2024-11-06 14:32:00.979
109.0, -142281.99628376917, -69077.7533147041, -186140.9245301395, -187500.02235174447, -151897.11325134197, -176108.0087552081, -187500.02235174447, -182237.79585812043, 0.422, 0.842, 0.43, 192.0, 0.0, 0.0, 0.0, 0.0, 0.0, 0.0, 0.0, 0.0, 0.0, 1.7309143209832973E9, 0.0, 2024-11-06 14:32:00.983
110.0, -134238.58693106018, -69441.81852839215, -183287.18790855265, -187500.02235174447, -141019.81562612244, -186671.62199874187, -184982.3665597876, -186069.1083752046, 0.422, 0.842, 0.43, 192.0, 0.0, 0.0, 0.0, 0.0, 0.0, 0.0, 0.0, 0.0, 0.0, 1.7309143209860706E9, 0.0, 2024-11-06 14:32:00.986
111.0, -128987.93864106401, -67443.5725740877, -180808.67002113702, -187500.02235174447, -138097.16857637986, -187500.02235174447, -181978.2026980165, -187500.02235174447, 0.422, 0.842, 0.43, 192.0, 0.0, 0.0, 0.0, 0.0, 0.0, 0.0, 0.0, 0.0, 0.0, 1.730914320990198E9, 0.0, 2024-11-06 14:32:00.990
112.0, -137032.57733971803, -66793.42738311617, -183333.94775795314, -187500.02235174447, -149395.19308748163, -183459.2963408585, -186718.29244116455, -185060.66472061453, 0.422, 0.842, 0.43, 192.0, 0.0, 0.0, 0.0, 0.0, 0.0, 0.0, 0.0, 0.0, 0.0, 1.7309143209943147E9, 0.0, 2024-11-06 14:32:00.994
113.0, -143162.94558798618, -68680.20518782201, -186147.56299824273, -187500.02235174447, -153535.07143677134, -175327.53054231772, -187500.02235174447, -182028.5611782743, 0.422, 0.842, 0.43, 192.0, 0.0, 0.0, 0.0, 0.0, 0.0, 0.0, 0.0, 0.0, 0.0, 1.7309143209992597E9, 0.0, 2024-11-06 14:32:00.999
114.0, -136487.64180989764, -69548.88338433306, -183963.5293440258, -187500.02235174447, -143417.8001782656, -185247.43589728308, -185978.44969969388, -185243.74785944796, 0.422, 0.842, 0.43, 192.0, 0.0, 0.0, 0.0, 0.0, 0.0, 0.0, 0.0, 0.0, 0.0, 1.7309143210030632E9, 0.0, 2024-11-06 14:32:01.003
115.0, -129380.50232893258, -67790.22577884505, -180885.80589125227, -187500.02235174447, -137747.78845879895, -187500.02235174447, -181812.3527541581, -187500.02235174447, 0.422, 0.842, 0.43, 192.0, 0.0, 0.0, 0.0, 0.0, 0.0, 0.0, 0.0, 0.0, 0.0, 1.7309143210070643E9, 0.0, 2024-11-06 14:32:01.007
116.0, -135734.1421525648, -66617.474450764, -182677.23115411177, -187500.02235174447, -147862.26574924777, -185306.06452298936, -185811.102188957, -185898.69867547735, 0.422, 0.842, 0.43, 192.0, 0.0, 0.0, 0.0, 0.0, 0.0, 0.0, 0.0, 0.0, 0.0, 1.7309143210110116E9, 0.0, 2024-11-06 14:32:01.011
117.0, -143625.8055121667, -68275.79507539215, -186007.23874655232, -187500.02235174447, -154675.97152900358, -175301.0884286271, -187500.02235174447, -182035.2667016109, 0.422, 0.842, 0.43, 192.0, 0.0, 0.0, 0.0, 0.0, 0.0, 0.0, 0.0, 0.0, 0.0, 1.7309143210140045E9, 0.0, 2024-11-06 14:32:01.014
118.0, -138689.75802537895, -69570.45281773244, -184614.21097686424, -187500.02235174447, -145925.53179568434, -183520.69658287725, -186887.71866413578, -184435.66524215523, 0.41600000000000004, 0.842, 0.43, 192.0, 13.0, 0.0, 26.0, 80.0, 13.0, 112.0, 0.0, 0.0, 0.0, 1.7309143210181549E9, 0.0, 2024-11-06 14:32:01.018
119.0, -130281.00940954799, -68149.50771921966, -181144.43792634463, -187500.02235174447, -138011.82961604948, -187500.02235174447, -182002.8566721507, -187500.02235174447, 0.41600000000000004, 0.842, 0.43, 192.0, 0.0, 0.0, 0.0, 0.0, 0.0, 0.0, 0.0, 0.0, 0.0, 1.7309143210220587E9, 0.0, 2024-11-06 14:32:01.022
120.0, -134386.24255493196, -66528.33569387623, -182035.33375684428, -187500.02235174447, -146107.89967869516, -186851.88881777393, -184807.59826989155, -186731.25645294864, 0.41600000000000004, 0.842, 0.43, 192.0, 0.0, 0.0, 0.0, 0.0, 0.0, 0.0, 0.0, 0.0, 0.0, 1.7309143210261278E9, 0.0, 2024-11-06 14:32:01.026
121.0, -143582.75605234577, -67849.54730862944, -185656.316358604, -187500.02235174447, -155225.10918678157, -176145.51498240413, -187500.02235174447, -182302.526510063, 0.41600000000000004, 0.842, 0.43, 192.0, 0.0, 0.0, 0.0, 0.0, 0.0, 0.0, 0.0, 0.0, 0.0, 1.730914321031111E9, 0.0, 2024-11-06 14:32:01.031
122.0, -140770.37015800123, -69503.73286053335, -185183.39814941862, -187500.02235174447, -148477.7433845691, -181565.54479188262, -187500.02235174447, -183674.2530672852, 0.41600000000000004, 0.842, 0.43, 192.0, 0.0, 0.0, 0.0, 0.0, 0.0, 0.0, 0.0, 0.0, 0.0, 1.7309143210350835E9, 0.0, 2024-11-06 14:32:01.035
123.0, -131660.51437384062, -68495.40096466553, -181565.76830932716, -187500.02235174447, -138900.26675465904, -187500.02235174447, -182500.6300211704, -187500.02235174447, 0.41600000000000004, 0.842, 0.43, 192.0, 0.0, 0.0, 0.0, 0.0, 0.0, 0.0, 0.0, 0.0, 0.0, 1.7309143210391743E9, 0.0, 2024-11-06 14:32:01.039
124.0, -133246.6612156226, -66556.38713316765, -181510.64890750038, -187500.02235174447, -144400.67343719883, -187500.02235174447, -183850.34011010412, -187436.72221144705, 0.41600000000000004, 0.842, 0.43, 192.0, 0.0, 0.0, 0.0, 0.0, 0.0, 0.0, 0.0, 0.0, 0.0, 1.7309143210421615E9, 0.0, 2024-11-06 14:32:01.042
125.0, -143073.40449969823, -67431.54733557074, -185166.92491375507, -187500.02235174447, -155152.2648516017, -177740.26724580137, -187500.02235174447, -182796.41065554746, 0.41600000000000004, 0.842, 0.43, 192.0, 0.0, 0.0, 0.0, 0.0, 0.0, 0.0, 0.0, 0.0, 0.0, 1.7309143210462725E9, 0.0, 2024-11-06 14:32:01.046
126.0, -142642.03818345527, -69337.05590213012, -185658.55153304955, -187500.02235174447, -150957.0212312962, -179586.70015176537, -187500.02235174447, -182994.7376840994, 0.41600000000000004, 0.842, 0.43, 192.0, 0.0, 0.0, 0.0, 0.0, 0.0, 0.0, 0.0, 0.0, 0.0, 1.730914321050087E9, 0.0, 2024-11-06 14:32:01.050
127.0, -133429.3867265447, -68796.92599736762, -182116.9846793395, -187500.02235174447, -140349.19623722986, -187500.02235174447, -183254.66612037018, -187272.52629667835, 0.41600000000000004, 0.842, 0.43, 192.0, 0.0, 0.0, 0.0, 0.0, 0.0, 0.0, 0.0, 0.0, 0.0, 1.730914321054124E9, 0.0, 2024-11-06 14:32:01.054
128.0, -132403.5534147684, -66695.52674240193, -181105.88116715924, -187500.02235174447, -142873.3340350788, -187500.02235174447, -182994.2459457214, -187500.02235174447, 0.41400000000000003, 0.842, 0.436, 192.0, 12.0, 240.0, 26.0, 80.0, 13.0, 160.0, 0.0, 0.0, 0.0, 1.7309143210591424E9, 0.0, 2024-11-06 14:32:01.059
129.0, -142166.12484051287, -67050.0254094631, -184539.71261259468, -187500.02235174447, -154510.83684096776, -179843.38758509012, -187500.02235174447, -183476.82010851149, 0.41400000000000003, 0.842, 0.436, 192.0, 0.0, 0.0, 0.0, 0.0, 0.0, 0.0, 0.0, 0.0, 0.0, 1.730914321063208E9, 0.0, 2024-11-06 14:32:01.063
130.0, -144229.3473159489, -69076.34515480342, -185978.96378981636, -187500.02235174447, -153254.11000896813, -177780.27686837636, -187500.02235174447, -182449.33276764545, 0.41400000000000003, 0.842, 0.436, 192.0, 0.0, 0.0, 0.0, 0.0, 0.0, 0.0, 0.0, 0.0, 0.0, 1.7309143210672317E9, 0.0, 2024-11-06 14:32:01.067
131.0, -135487.49065250048, -69037.54252642901, -182747.61679740154, -187500.02235174447, -142262.57261783752, -187500.02235174447, -184196.50157648345, -186568.6475120363, 0.41400000000000003, 0.842, 0.436, 192.0, 0.0, 0.0, 0.0, 0.0, 0.0, 0.0, 0.0, 0.0, 0.0, 1.730914321070164E9, 0.0, 2024-11-06 14:32:01.070
132.0, -131929.24939742679, -66933.21519293966, -180850.7807076908, -187500.02235174447, -141634.9803370214, -187500.02235174447, -182293.2728878585, -187500.02235174447, 0.41400000000000003, 0.842, 0.436, 192.0, 0.0, 0.0, 0.0, 0.0, 0.0, 0.0, 0.0, 0.0, 0.0, 1.7309143210741625E9, 0.0, 2024-11-06 14:32:01.074
133.0, -141008.01390505003, -66734.26231554298, -183865.896924245, -187500.02235174447, -153439.89770888063, -182069.19664969406, -187295.28037253386, -184286.71321710508, 0.41400000000000003, 0.842, 0.436, 192.0, 0.0, 0.0, 0.0, 0.0, 0.0, 0.0, 0.0, 0.0, 0.0, 1.7309143210782547E9, 0.0, 2024-11-06 14:32:01.078
134.0, -145490.47744160623, -68747.9756770105, -186156.45899253595, -187500.02235174447, -155275.82529495066, -176391.71944757932, -187500.02235174447, -182067.63202758218, 0.41400000000000003, 0.842, 0.436, 192.0, 0.0, 0.0, 0.0, 0.0, 0.0, 0.0, 0.0, 0.0, 0.0, 1.730914321082241E9, 0.0, 2024-11-06 14:32:01.082
135.0, -137710.4610455586, -69215.57417101553, -183431.37901203384, -187500.02235174447, -144506.64305766142, -186542.8312471904, -185216.45637946803, -185784.5036130552, 0.41400000000000003, 0.842, 0.436, 192.0, 0.0, 0.0, 0.0, 0.0, 0.0, 0.0, 0.0, 0.0, 0.0, 1.7309143210871732E9, 0.0, 2024-11-06 14:32:01.087
136.0, -131924.42142062442, -67243.0774263236, -180776.14823295455, -187500.02235174447, -140861.20764746759, -187500.02235174447, -181879.3185805462, -187500.02235174447, 0.41400000000000003, 0.842, 0.436, 192.0, 0.0, 0.0, 0.0, 0.0, 0.0, 0.0, 0.0, 0.0, 0.0, 1.7309143210911648E9, 0.0, 2024-11-06 14:32:01.091
137.0, -139688.18809845307, -66483.7439636879, -183159.40298550166, -187500.02235174447, -152028.00506687225, -184130.54157859585, -186473.04910100094, -185155.65963454958, 0.41400000000000003, 0.842, 0.436, 192.0, 0.0, 0.0, 0.0, 0.0, 0.0, 0.0, 0.0, 0.0, 0.0, 1.7309143210942287E9, 0.0, 2024-11-06 14:32:01.094
138.0, -146291.69807335117, -68360.64229734449, -186133.436695747, -187500.02235174447, -156820.2190780901, -175746.26812294344, -187500.02235174447, -181917.31654612024, 0.418, 0.84, 0.43, 192.0, 13.0, 16.0, 26.0, 64.0, 13.0, 112.0, 0.0, 0.0, 0.0, 1.7309143210982056E9, 0.0, 2024-11-06 14:32:01.098
139.0, -139953.90563653776, -69311.66432042888, -184108.59216554073, -187500.02235174447, -146939.74220034387, -185126.66942199104, -186190.9477342305, -184977.47152775188, 0.418, 0.84, 0.43, 192.0, 0.0, 0.0, 0.0, 0.0, 0.0, 0.0, 0.0, 0.0, 0.0, 1.730914321102197E9, 0.0, 2024-11-06 14:32:01.102
140.0, -132443.89831351023, -67605.1086312662, -180898.5463855918, -187500.02235174447, -140661.51716250388, -187500.02235174447, -181810.0058209903, -187500.02235174447, 0.418, 0.84, 0.43, 192.0, 0.0, 0.0, 0.0, 0.0, 0.0, 0.0, 0.0, 0.0, 0.0, 1.730914321106243E9, 0.0, 2024-11-06 14:32:01.106
141.0, -138295.56266016516, -66323.61606641008, -182481.80985233904, -187500.02235174447, -150359.31323281684, -185921.4303995884, -185534.4993513226, -186040.96752893538, 0.418, 0.84, 0.43, 192.0, 0.0, 0.0, 0.0, 0.0, 0.0, 0.0, 0.0, 0.0, 0.0, 1.730914321110162E9, 0.0, 2024-11-06 14:32:01.110
142.0, -146610.76922545067, -67943.536394064, -185925.8336932461, -187500.02235174447, -157819.61027617578, -175953.08881438838, -187500.02235174447, -182006.5000064969, 0.418, 0.84, 0.43, 192.0, 0.0, 0.0, 0.0, 0.0, 0.0, 0.0, 0.0, 0.0, 0.0, 1.7309143211152728E9, 0.0, 2024-11-06 14:32:01.115
143.0, -142154.01019501808, -69325.70121594683, -184747.96381568478, -187500.02235174447, -149495.99945497507, -183371.18576421568, -187052.4063172825, -184177.480241952, 0.418, 0.84, 0.43, 192.0, 0.0, 0.0, 0.0, 0.0, 0.0, 0.0, 0.0, 0.0, 0.0, 1.7309143211194146E9, 0.0, 2024-11-06 14:32:01.119
144.0, -133503.8627390698, -67975.43233340172, -181206.30755499692, -187500.02235174447, -141121.69487734974, -187500.02235174447, -182081.11012948875, -187500.02235174447, 0.418, 0.84, 0.43, 192.0, 0.0, 0.0, 0.0, 0.0, 0.0, 0.0, 0.0, 0.0, 0.0, 1.730914321122278E9, 0.0, 2024-11-06 14:32:01.122
145.0, -136997.10512126746, -66263.95926045887, -181875.78700492228, -187500.02235174447, -148615.29601994707, -187284.46212821748, -184548.54155165455, -186841.8528845135, 0.418, 0.84, 0.43, 192.0, 0.0, 0.0, 0.0, 0.0, 0.0, 0.0, 0.0, 0.0, 0.0, 1.7309143211263287E9, 0.0, 2024-11-06 14:32:01.126
146.0, -146429.98831629613, -67510.62780745361, -185538.23209264662, -187500.02235174447, -158194.76195511364, -176984.44300704516, -187500.02235174447, -182331.04733598797, 0.418, 0.84, 0.43, 192.0, 0.0, 0.0, 0.0, 0.0, 0.0, 0.0, 0.0, 0.0, 0.0, 1.730914321130356E9, 0.0, 2024-11-06 14:32:01.130
147.0, -144208.22491743864, -69242.01628470616, -185304.16462471065, -187500.02235174447, -152051.9884886728, -181427.14279021535, -187500.02235174447, -183414.48109322562, 0.418, 0.84, 0.43, 192.0, 0.0, 0.0, 0.0, 0.0, 0.0, 0.0, 0.0, 0.0, 0.0, 1.7309143211342168E9, 0.0, 2024-11-06 14:32:01.134
148.0, -134963.02932060114, -68311.379052565, -181650.63788302397, -187500.02235174447, -142130.36204938436, -187500.02235174447, -182637.2662350257, -187500.02235174447, 0.418, 0.844, 0.434, 192.0, 13.0, 16.0, 26.0, 96.0, 13.0, 144.0, 0.0, 0.0, 0.0, 1.730914321138333E9, 0.0, 2024-11-06 14:32:01.138
149.0, -135910.7879889951, -66316.66467388447, -181362.814469673, -187500.02235174447, -146942.1338370006, -187500.02235174447, -183610.6847060543, -187500.02235174447, 0.418, 0.844, 0.434, 192.0, 0.0, 0.0, 0.0, 0.0, 0.0, 0.0, 0.0, 0.0, 0.0, 1.7309143211432695E9, 0.0, 2024-11-06 14:32:01.143
150.0, -145824.1219310906, -67102.77552637762, -185003.31014434222, -187500.02235174447, -158000.3464818414, -178649.24563756536, -187500.02235174447, -182875.33466521915, 0.418, 0.844, 0.434, 192.0, 0.0, 0.0, 0.0, 0.0, 0.0, 0.0, 0.0, 0.0, 0.0, 1.7309143211473265E9, 0.0, 2024-11-06 14:32:01.147
151.0, -146049.71808787802, -69067.06918085447, -185752.38415627292, -187500.02235174447, -154533.18858542308, -179439.26804533816, -187500.02235174447, -182763.79946038718, 0.418, 0.844, 0.434, 192.0, 0.0, 0.0, 0.0, 0.0, 0.0, 0.0, 0.0, 0.0, 0.0, 1.7309143211503828E9, 0.0, 2024-11-06 14:32:01.150
152.0, -136844.91209327127, -68615.96627425746, -182245.68602391315, -187500.02235174447, -143729.0258680613, -187500.02235174447, -183469.82401249697, -187032.78148565072, 0.418, 0.844, 0.434, 192.0, 0.0, 0.0, 0.0, 0.0, 0.0, 0.0, 0.0, 0.0, 0.0, 1.7309143211542993E9, 0.0, 2024-11-06 14:32:01.154
153.0, -135140.41276459847, -66477.30666128476, -180991.84256694827, -187500.02235174447, -145464.05767966007, -187500.02235174447, -182771.0861290796, -187500.02235174447, 0.418, 0.844, 0.434, 192.0, 0.0, 0.0, 0.0, 0.0, 0.0, 0.0, 0.0, 0.0, 0.0, 1.7309143211582775E9, 0.0, 2024-11-06 14:32:01.158
154.0, -144847.17188443802, -66734.97757136555, -184355.4224795607, -187500.02235174447, -157250.31134489912, -180743.00059592733, -187500.02235174447, -183596.75956925866, 0.418, 0.844, 0.434, 192.0, 0.0, 0.0, 0.0, 0.0, 0.0, 0.0, 0.0, 0.0, 0.0, 1.7309143211623983E9, 0.0, 2024-11-06 14:32:01.162
155.0, -147575.85049579747, -68797.61890144573, -186041.19104637994, -187500.02235174447, -156787.8984556077, -177719.9048066026, -187500.02235174447, -182249.1728960482, 0.418, 0.844, 0.434, 192.0, 0.0, 0.0, 0.0, 0.0, 0.0, 0.0, 0.0, 0.0, 0.0, 1.7309143211663458E9, 0.0, 2024-11-06 14:32:01.166
156.0, -138971.56881947146, -68849.8996317267, -182897.8205201412, -187500.02235174447, -145754.07156396765, -187445.3946882957, -184443.86833237033, -186306.50625306444, 0.418, 0.844, 0.434, 192.0, 0.0, 0.0, 0.0, 0.0, 0.0, 0.0, 0.0, 0.0, 0.0, 1.7309143211712115E9, 0.0, 2024-11-06 14:32:01.171
157.0, -134779.3650364119, -66735.98339986603, -180781.2220789459, -187500.02235174447, -144336.3674684009, -187500.02235174447, -182142.51037150747, -187500.02235174447, 0.418, 0.844, 0.434, 192.0, 0.0, 0.0, 0.0, 0.0, 0.0, 0.0, 0.0, 0.0, 0.0, 1.7309143211753964E9, 0.0, 2024-11-06 14:32:01.175
158.0, -143616.86481438458, -66427.50697463834, -183662.87602935746, -187500.02235174447, -156066.00416493465, -182903.4755114884, -187063.73865172133, -184438.77213463452, 0.418, 0.844, 0.434, 192.0, 13.0, 16.0, 26.0, 96.0, 13.0, 144.0, 0.0, 0.0, 0.0, 1.7309143211783412E9, 0.0, 2024-11-06 14:32:01.178
159.0, -148732.79914054862, -68450.161033888, -186166.83020196322, -187500.02235174447, -158708.71796711898, -176506.04862046824, -187500.02235174447, -181931.62166257165, 0.418, 0.844, 0.434, 192.0, 0.0, 0.0, 0.0, 0.0, 0.0, 0.0, 0.0, 0.0, 0.0, 1.7309143211821868E9, 0.0, 2024-11-06 14:32:01.182
160.0, -141234.52648336012, -69017.15773548576, -183598.3912466039, -187500.02235174447, -148076.9989582299, -186314.10584617924, -185461.05151904243, -185510.7394469666, 0.418, 0.844, 0.434, 192.0, 0.0, 0.0, 0.0, 0.0, 0.0, 0.0, 0.0, 0.0, 0.0, 1.7309143211863253E9, 0.0, 2024-11-06 14:32:01.186
161.0, -134908.6922298303, -67062.45297938025, -180768.43688111746, -187500.02235174447, -143706.69647535044, -187500.02235174447, -181820.89112054004, -187500.02235174447, 0.418, 0.844, 0.434, 192.0, 0.0, 0.0, 0.0, 0.0, 0.0, 0.0, 0.0, 0.0, 0.0, 1.7309143211903362E9, 0.0, 2024-11-06 14:32:01.190
162.0, -142243.35011760594, -66191.94193982387, -182968.40732913106, -187500.02235174447, -154564.34691719376, -184868.77499446573, -186212.4054089076, -185327.27632847743, 0.418, 0.844, 0.434, 192.0, 0.0, 0.0, 0.0, 0.0, 0.0, 0.0, 0.0, 0.0, 0.0, 1.730914321194382E9, 0.0, 2024-11-06 14:32:01.194
163.0, -149405.34077946434, -68050.98122966067, -186101.0266662868, -187500.02235174447, -160117.92839979273, -176079.91261242778, -187500.02235174447, -181831.75406834533, 0.418, 0.844, 0.434, 192.0, 0.0, 0.0, 0.0, 0.0, 0.0, 0.0, 0.0, 0.0, 0.0, 1.7309143211993573E9, 0.0, 2024-11-06 14:32:01.199
164.0, -143491.3821210125, -69104.53070456156, -184276.1855454666, -187500.02235174447, -150561.95414804868, -184840.61179645202, -186385.87729762524, -184694.2972772476, 0.418, 0.844, 0.434, 192.0, 0.0, 0.0, 0.0, 0.0, 0.0, 0.0, 0.0, 0.0, 0.0, 1.7309143212022848E9, 0.0, 2024-11-06 14:32:01.202
165.0, -135575.48947042102, -67432.68727453795, -180944.1662960251, -187500.02235174447, -143687.3622163966, -187500.02235174447, -181829.675356111, -187500.02235174447, 0.418, 0.844, 0.434, 192.0, 0.0, 0.0, 0.0, 0.0, 0.0, 0.0, 0.0, 0.0, 0.0, 1.730914321205314E9, 0.0, 2024-11-06 14:32:01.205
166.0, -140891.11428154877, -66050.32128695503, -182307.86857698782, -187500.02235174447, -152906.18275477682, -186447.54576057743, -185265.09377540278, -186189.11489118516, 0.418, 0.844, 0.434, 192.0, 0.0, 0.0, 0.0, 0.0, 0.0, 0.0, 0.0, 0.0, 0.0, 1.730914321210287E9, 0.0, 2024-11-06 14:32:01.210
167.0, -149610.73095926415, -67628.24268677743, -185845.63563414046, -187500.02235174447, -160966.46767454955, -176486.33438185864, -187500.02235174447, -181978.0015323164, 0.418, 0.844, 0.434, 192.0, 0.0, 0.0, 0.0, 0.0, 0.0, 0.0, 0.0, 0.0, 0.0, 1.7309143212143888E9, 0.0, 2024-11-06 14:32:01.214
168.0, -145677.24861827478, -69095.70176550171, -184900.00038146978, -187500.02235174447, -153127.15210046197, -183078.33320836225, -187213.83061573873, -183891.04263675722, 0.418, 0.844, 0.43, 192.0, 13.0, 16.0, 26.0, 96.0, 13.0, 112.0, 0.0, 0.0, 0.0, 1.7309143212187016E9, 0.0, 2024-11-06 14:32:01.218
169.0, -136732.4157634277, -67791.83510444582, -181282.6387623118, -187500.02235174447, -144272.03914785854, -187500.02235174447, -182179.6589707922, -187500.02235174447, 0.418, 0.844, 0.43, 192.0, 0.0, 0.0, 0.0, 0.0, 0.0, 0.0, 0.0, 0.0, 0.0, 1.7309143212224164E9, 0.0, 2024-11-06 14:32:01.222
170.0, -139647.4185165666, -66006.40010910036, -181710.83113084213, -187500.02235174447, -151187.80299279725, -187500.02235174447, -184303.02999055744, -186958.23841789228, 0.418, 0.844, 0.43, 192.0, 0.0, 0.0, 0.0, 0.0, 0.0, 0.0, 0.0, 0.0, 0.0, 1.7309143212275324E9, 0.0, 2024-11-06 14:32:01.227
171.0, -149346.84626422482, -67197.74808856823, -185407.89907072773, -187500.02235174447, -161224.54091603053, -177623.43467753349, -187500.02235174447, -182341.2844349485, 0.418, 0.844, 0.43, 192.0, 0.0, 0.0, 0.0, 0.0, 0.0, 0.0, 0.0, 0.0, 0.0, 1.7309143212304347E9, 0.0, 2024-11-06 14:32:01.230
172.0, -147690.53729659764, -68992.39200262929, -185423.07590521287, -187500.02235174447, -155664.991517662, -181137.64299603022, -187500.02235174447, -183150.79756388636, 0.418, 0.844, 0.43, 192.0, 0.0, 0.0, 0.0, 0.0, 0.0, 0.0, 0.0, 0.0, 0.0, 1.7309143212334075E9, 0.0, 2024-11-06 14:32:01.233
173.0, -138341.78606769873, -68135.62728591291, -181783.74252125534, -187500.02235174447, -145463.25301685967, -187500.02235174447, -182830.83234200865, -187438.733868448, 0.418, 0.844, 0.43, 192.0, 0.0, 0.0, 0.0, 0.0, 0.0, 0.0, 0.0, 0.0, 0.0, 1.7309143212383451E9, 0.0, 2024-11-06 14:32:01.238
174.0, -138604.93315517108, -66080.63025243643, -181238.76228794604, -187500.02235174447, -149533.5950891489, -187500.02235174447, -183380.50644165356, -187500.02235174447, 0.418, 0.844, 0.43, 192.0, 0.0, 0.0, 0.0, 0.0, 0.0, 0.0, 0.0, 0.0, 0.0, 1.730914321242354E9, 0.0, 2024-11-06 14:32:01.242
175.0, -148610.579801867, -66788.6664615472, -184839.29304352918, -187500.02235174447, -160865.43778961158, -179454.31076935658, -187500.02235174447, -182958.77372727083, 0.418, 0.844, 0.43, 192.0, 0.0, 0.0, 0.0, 0.0, 0.0, 0.0, 0.0, 0.0, 0.0, 1.730914321246425E9, 0.0, 2024-11-06 14:32:01.246
176.0, -149457.26388183402, -68797.84241889029, -185828.42479090986, -187500.02235174447, -158091.00515735213, -179266.9137438433, -187500.02235174447, -182530.38019304042, 0.418, 0.844, 0.43, 192.0, 0.0, 0.0, 0.0, 0.0, 0.0, 0.0, 0.0, 0.0, 0.0, 1.7309143212505164E9, 0.0, 2024-11-06 14:32:01.250
177.0, -140289.74059697875, -68424.81415567567, -182384.08802558042, -187500.02235174447, -147170.94864498958, -187500.02235174447, -183672.88961087342, -186803.07260788354, 0.418, 0.844, 0.43, 192.0, 0.0, 0.0, 0.0, 0.0, 0.0, 0.0, 0.0, 0.0, 0.0, 1.7309143212545183E9, 0.0, 2024-11-06 14:32:01.254
178.0, -137923.6072806844, -66264.89803372599, -180903.77669379435, -187500.02235174447, -148138.2650897819, -187500.02235174447, -182583.42088263284, -187500.02235174447, 0.422, 0.84, 0.43, 192.0, 13.0, 48.0, 26.0, 64.0, 13.0, 112.0, 0.0, 0.0, 0.0, 1.730914321258574E9, 0.0, 2024-11-06 14:32:01.258
179.0, -147513.57853574498, -66420.44382339047, -184157.7212998535, -187500.02235174447, -159971.4574183771, -181606.18026330238, -187500.02235174447, -183739.38605062797, 0.422, 0.84, 0.43, 192.0, 0.0, 0.0, 0.0, 0.0, 0.0, 0.0, 0.0, 0.0, 0.0, 1.7309143212614665E9, 0.0, 2024-11-06 14:32:01.261
180.0, -150909.18849816185, -68501.70415660193, -186074.45044212943, -187500.02235174447, -160302.06207061556, -177689.81935856576, -187500.02235174447, -182043.0227569369, 0.422, 0.84, 0.43, 192.0, 0.0, 0.0, 0.0, 0.0, 0.0, 0.0, 0.0, 0.0, 0.0, 1.7309143212663007E9, 0.0, 2024-11-06 14:32:01.266
181.0, -142484.03370190068, -68656.89231835512, -183057.70254823, -187500.02235174447, -149299.1923450461, -187253.77318308034, -184674.02424502664, -186042.2639301138, 0.422, 0.84, 0.43, 192.0, 0.0, 0.0, 0.0, 0.0, 0.0, 0.0, 0.0, 0.0, 0.0, 1.7309143212705035E9, 0.0, 2024-11-06 14:32:01.270
182.0, -137672.91011487367, -66550.01688599789, -180736.67505224646, -187500.02235174447, -147117.63973446368, -187500.02235174447, -182021.8556549377, -187500.02235174447, 0.422, 0.84, 0.43, 192.0, 0.0, 0.0, 0.0, 0.0, 0.0, 0.0, 0.0, 0.0, 0.0, 1.7309143212744765E9, 0.0, 2024-11-06 14:32:01.274
183.0, -146271.00035798555, -66127.83713672604, -183464.57135254997, -187500.02235174447, -158749.06286586082, -183621.65941258185, -186839.81887576808, -184584.8184329055, 0.422, 0.84, 0.43, 192.0, 0.0, 0.0, 0.0, 0.0, 0.0, 0.0, 0.0, 0.0, 0.0, 1.7309143212784765E9, 0.0, 2024-11-06 14:32:01.278
184.0, -151935.89352797193, -68139.06945455902, -186141.3939167731, -187500.02235174447, -162086.67005141618, -176730.23661735497, -187500.02235174447, -181769.68327399294, 0.422, 0.84, 0.43, 192.0, 0.0, 0.0, 0.0, 0.0, 0.0, 0.0, 0.0, 0.0, 0.0, 1.7309143212823997E9, 0.0, 2024-11-06 14:32:01.282
185.0, -144748.08660126766, -68804.12325908223, -183742.6717570629, -187500.02235174447, -151657.97193741464, -186117.25403276135, -185673.21427741222, -185233.68957444307, 0.422, 0.84, 0.43, 192.0, 0.0, 0.0, 0.0, 0.0, 0.0, 0.0, 0.0, 0.0, 0.0, 1.730914321286629E9, 0.0, 2024-11-06 14:32:01.286
186.0, -137945.33317629495, -66895.17252387674, -180766.0675962052, -187500.02235174447, -146636.9654699523, -187500.02235174447, -181785.91064046748, -187500.02235174447, 0.422, 0.84, 0.43, 192.0, 0.0, 0.0, 0.0, 0.0, 0.0, 0.0, 0.0, 0.0, 0.0, 1.730914321289575E9, 0.0, 2024-11-06 14:32:01.289
187.0, -144842.1874454245, -65903.44797413921, -182746.56626541214, -187500.02235174447, -157155.60700364198, -185508.21369984315, -185966.55857164366, -185502.69281896268, 0.422, 0.84, 0.43, 192.0, 0.0, 0.0, 0.0, 0.0, 0.0, 0.0, 0.0, 0.0, 0.0, 1.7309143212944963E9, 0.0, 2024-11-06 14:32:01.294
188.0, -152465.07107795132, -67712.9781500075, -186002.32136277217, -187500.02235174447, -163361.63590689134, -176609.2913281073, -187500.02235174447, -181753.5006110073, 0.418, 0.844, 0.428, 192.0, 13.0, 16.0, 26.0, 96.0, 13.0, 96.0, 0.0, 0.0, 0.0, 1.7309143212985508E9, 0.0, 2024-11-06 14:32:01.298
189.0, -147021.08019841675, -68876.52055937298, -184404.28339293998, -187500.02235174447, -154199.7899651277, -184640.60838706593, -186580.1363086863, -184401.4223696497, 0.418, 0.844, 0.428, 192.0, 0.0, 0.0, 0.0, 0.0, 0.0, 0.0, 0.0, 0.0, 0.0, 1.7309143213023663E9, 0.0, 2024-11-06 14:32:01.302
190.0, -138754.3545668548, -67275.3309935726, -180976.59867722975, -187500.02235174447, -146776.46270709787, -187500.02235174447, -181880.59262998018, -187500.02235174447, 0.418, 0.844, 0.428, 192.0, 0.0, 0.0, 0.0, 0.0, 0.0, 0.0, 0.0, 0.0, 0.0, 1.7309143213065455E9, 0.0, 2024-11-06 14:32:01.306
191.0, -143487.15764131042, -65785.78839132648, -182095.61641164022, -187500.02235174447, -155457.85790179466, -186929.24820533374, -185005.92529844347, -186354.9424832991, 0.418, 0.844, 0.428, 192.0, 0.0, 0.0, 0.0, 0.0, 0.0, 0.0, 0.0, 0.0, 0.0, 1.730914321310419E9, 0.0, 2024-11-06 14:32:01.310
192.0, -152507.31587497186, -67275.3756970615, -185683.4737281172, -187500.02235174447, -164046.69452270205, -177284.62693507993, -187500.02235174447, -181977.88977359413, 0.418, 0.844, 0.428, 192.0, 0.0, 0.0, 0.0, 0.0, 0.0, 0.0, 0.0, 0.0, 0.0, 1.7309143213144455E9, 0.0, 2024-11-06 14:32:01.314
193.0, -149150.82146535176, -68841.94241070062, -184992.2236790924, -187500.02235174447, -156766.17255999715, -182941.71934625143, -187355.98771047447, -183619.87127302543, 0.418, 0.844, 0.428, 192.0, 0.0, 0.0, 0.0, 0.0, 0.0, 0.0, 0.0, 0.0, 0.0, 1.7309143213174796E9, 0.0, 2024-11-06 14:32:01.317
194.0, -140044.31844285948, -67644.1124253407, -181364.84847841843, -187500.02235174447, -147537.58430929, -187500.02235174447, -182313.09888519035, -187500.02235174447, 0.418, 0.844, 0.428, 192.0, 0.0, 0.0, 0.0, 0.0, 0.0, 0.0, 0.0, 0.0, 0.0, 1.7309143213214984E9, 0.0, 2024-11-06 14:32:01.321
195.0, -142280.94575177977, -65776.64652784426, -181530.63136704345, -187500.02235174447, -153748.39648585278, -187500.02235174447, -184039.43586819601, -187091.164242168, 0.418, 0.844, 0.428, 192.0, 0.0, 0.0, 0.0, 0.0, 0.0, 0.0, 0.0, 0.0, 0.0, 1.7309143213266566E9, 0.0, 2024-11-06 14:32:01.326
196.0, -152121.1000825286, -66850.80431113295, -185214.64588816714, -187500.02235174447, -164165.87402413774, -178606.97848880035, -187500.02235174447, -182420.0966858979, 0.418, 0.844, 0.428, 192.0, 0.0, 0.0, 0.0, 0.0, 0.0, 0.0, 0.0, 0.0, 0.0, 1.730914321330458E9, 0.0, 2024-11-06 14:32:01.330
197.0, -151131.14132060306, -68725.93685697757, -185500.54705149497, -187500.02235174447, -159320.97695123876, -181082.36713199224, -187500.02235174447, -182892.74667414985, 0.418, 0.844, 0.428, 192.0, 0.0, 0.0, 0.0, 0.0, 0.0, 0.0, 0.0, 0.0, 0.0, 1.7309143213345127E9, 0.0, 2024-11-06 14:32:01.334
198.0, -141751.96936750048, -67989.31276670848, -181888.4827957729, -187500.02235174447, -148868.00484275876, -187500.02235174447, -183003.1419400146, -187221.65372629807, 0.422, 0.842, 0.424, 192.0, 13.0, 48.0, 26.0, 80.0, 13.0, 64.0, 0.0, 0.0, 0.0, 1.730914321338738E9, 0.0, 2024-11-06 14:32:01.338
199.0, -141351.49316209473, -65890.90864549979, -181096.53813797692, -187500.02235174447, -152180.48866754636, -187500.02235174447, -183139.21936025852, -187500.02235174447, 0.422, 0.842, 0.424, 192.0, 0.0, 0.0, 0.0, 0.0, 0.0, 0.0, 0.0, 0.0, 0.0, 1.7309143213424492E9, 0.0, 2024-11-06 14:32:01.342
200.0, -151362.43717222658, -66469.30473676977, -184639.75902077663, -187500.02235174447, -163746.73411211182, -180360.74106225267, -187500.02235174447, -183054.57330400628, 0.422, 0.842, 0.424, 192.0, 0.0, 0.0, 0.0, 0.0, 0.0, 0.0, 0.0, 0.0, 0.0, 1.730914321345534E9, 0.0, 2024-11-06 14:32:01.345
201.0, -152789.08196557546, -68503.76051709181, -185865.0593000721, -187500.02235174447, -161666.3007934452, -179397.5373384401, -187500.02235174447, -182315.82579801392, 0.422, 0.842, 0.424, 192.0, 0.0, 0.0, 0.0, 0.0, 0.0, 0.0, 0.0, 0.0, 0.0, 1.7309143213495076E9, 0.0, 2024-11-06 14:32:01.349
202.0, -143771.76240345984, -68266.31793574309, -182510.7777131531, -187500.02235174447, -150692.84596357893, -187500.02235174447, -183907.80644509871, -186550.94493042768, 0.422, 0.842, 0.424, 192.0, 0.0, 0.0, 0.0, 0.0, 0.0, 0.0, 0.0, 0.0, 0.0, 1.7309143213547027E9, 0.0, 2024-11-06 14:32:01.354
203.0, -140747.45961993453, -66106.5582760046, -180792.91204129602, -187500.02235174447, -150839.2051862723, -187500.02235174447, -182383.57393545794, -187500.02235174447, 0.422, 0.842, 0.424, 192.0, 0.0, 0.0, 0.0, 0.0, 0.0, 0.0, 0.0, 0.0, 0.0, 1.730914321358612E9, 0.0, 2024-11-06 14:32:01.358
204.0, -150216.37382702518, -66118.20353486581, -183947.50314325132, -187500.02235174447, -162770.9687079154, -182408.54083401454, -187357.10529769724, -183867.8415260126, 0.422, 0.842, 0.424, 192.0, 0.0, 0.0, 0.0, 0.0, 0.0, 0.0, 0.0, 0.0, 0.0, 1.7309143213624651E9, 0.0, 2024-11-06 14:32:01.362
205.0, -154150.72788604832, -68200.71556576676, -186073.77988979578, -187500.02235174447, -163800.04302263775, -178004.08488560736, -187500.02235174447, -181894.7859877093, 0.422, 0.842, 0.424, 192.0, 0.0, 0.0, 0.0, 0.0, 0.0, 0.0, 0.0, 0.0, 0.0, 1.7309143213656752E9, 0.0, 2024-11-06 14:32:01.365
206.0, -145998.1526134196, -68483.37572614857, -183199.21144237657, -187500.02235174447, -152897.51027792814, -187163.89681862557, -184916.6971345779, -185785.4423863223, 0.422, 0.842, 0.424, 192.0, 0.0, 0.0, 0.0, 0.0, 0.0, 0.0, 0.0, 0.0, 0.0, 1.7309143213695595E9, 0.0, 2024-11-06 14:32:01.369
207.0, -140657.27033105737, -66422.70134958046, -180690.80927262417, -187500.02235174447, -149969.20823683837, -187500.02235174447, -181915.99779319737, -187500.02235174447, 0.422, 0.842, 0.424, 192.0, 0.0, 0.0, 0.0, 0.0, 0.0, 0.0, 0.0, 0.0, 0.0, 1.7309143213735254E9, 0.0, 2024-11-06 14:32:01.373
208.0, -148861.07580197763, -65842.53947049851, -183236.82942829485, -187500.02235174447, -161388.17803718784, -184419.10259951386, -186597.794186806, -184769.5108973397, 0.42, 0.848, 0.428, 192.0, 13.0, 32.0, 26.0, 128.0, 13.0, 96.0, 0.0, 0.0, 0.0, 1.7309143213775947E9, 0.0, 2024-11-06 14:32:01.377
209.0, -155047.27870789514, -67812.5998750448, -186091.39306442655, -187500.02235174447, -165487.97970866915, -177314.95825230578, -187500.02235174447, -181707.63483138502, 0.42, 0.848, 0.428, 192.0, 0.0, 0.0, 0.0, 0.0, 0.0, 0.0, 0.0, 0.0, 0.0, 1.7309143213824747E9, 0.0, 2024-11-06 14:32:01.382
210.0, -148264.10541106528, -68616.48036437992, -183880.4479098854, -187500.02235174447, -155319.3664931496, -186043.09094465864, -185875.98930311078, -184975.7504434288, 0.42, 0.848, 0.428, 192.0, 0.0, 0.0, 0.0, 0.0, 0.0, 0.0, 0.0, 0.0, 0.0, 1.7309143213866606E9, 0.0, 2024-11-06 14:32:01.386
211.0, -141064.56381852197, -66780.4633713321, -180760.92669498047, -187500.02235174447, -149652.9310527958, -187500.02235174447, -181752.58418948462, -187500.02235174447, 0.42, 0.848, 0.428, 192.0, 0.0, 0.0, 0.0, 0.0, 0.0, 0.0, 0.0, 0.0, 0.0, 1.7309143213904967E9, 0.0, 2024-11-06 14:32:01.390
212.0, -147463.9576630542, -65653.2425467065, -182546.33933858149, -187500.02235174447, -159785.20033183103, -186083.54760212274, -185709.55821389655, -185661.1666871508, 0.42, 0.848, 0.428, 192.0, 0.0, 0.0, 0.0, 0.0, 0.0, 0.0, 0.0, 0.0, 0.0, 1.7309143213934357E9, 0.0, 2024-11-06 14:32:01.393
213.0, -155461.45653265197, -67394.62225373057, -185919.9328327099, -187500.02235174447, -166632.29961780307, -177409.9308144964, -187500.02235174447, -181756.8533726756, 0.42, 0.848, 0.428, 192.0, 0.0, 0.0, 0.0, 0.0, 0.0, 0.0, 0.0, 0.0, 0.0, 1.7309143213976233E9, 0.0, 2024-11-06 14:32:01.397
214.0, -150514.32258061442, -68670.0574958393, -184540.07024050597, -187500.02235174447, -157896.8579050133, -184630.30423287206, -186758.1232497839, -184157.4754306645, 0.42, 0.848, 0.428, 192.0, 0.0, 0.0, 0.0, 0.0, 0.0, 0.0, 0.0, 0.0, 0.0, 1.7309143214015205E9, 0.0, 2024-11-06 14:32:01.401
215.0, -142005.30403915694, -67169.09315217652, -181024.07378245282, -187500.02235174447, -149964.26850131375, -187500.02235174447, -181943.75865981088, -187500.02235174447, 0.42, 0.848, 0.428, 192.0, 0.0, 0.0, 0.0, 0.0, 0.0, 0.0, 0.0, 0.0, 0.0, 1.730914321405471E9, 0.0, 2024-11-06 14:32:01.405
216.0, -146136.59931857578, -65565.5790049528, -181907.61588902664, -187500.02235174447, -158077.59411067894, -187285.28914276234, -184744.2534261052, -186488.024769786, 0.42, 0.848, 0.428, 192.0, 0.0, 0.0, 0.0, 0.0, 0.0, 0.0, 0.0, 0.0, 0.0, 1.7309143214105575E9, 0.0, 2024-11-06 14:32:01.410
217.0, -155427.75010201338, -66968.55330092351, -185566.93173252724, -187500.02235174447, -167212.8191247963, -178172.1029486779, -187500.02235174447, -182032.18216087608, 0.42, 0.848, 0.428, 192.0, 0.0, 0.0, 0.0, 0.0, 0.0, 0.0, 0.0, 0.0, 0.0, 1.7309143214146044E9, 0.0, 2024-11-06 14:32:01.414
218.0, -152637.6265451463, -68628.25973370788, -185127.02704990233, -187500.02235174447, -160494.39883165347, -182950.95061671146, -187490.50050860652, -183378.24891546357, 0.424, 0.84, 0.43, 192.0, 13.0, 64.0, 26.0, 64.0, 13.0, 112.0, 0.0, 0.0, 0.0, 1.730914321418706E9, 0.0, 2024-11-06 14:32:01.418
219.0, -143409.53003281713, -67542.1884706245, -181456.84825859647, -187500.02235174447, -150873.71627971128, -187500.02235174447, -182434.3123953715, -187500.02235174447, 0.424, 0.84, 0.43, 192.0, 0.0, 0.0, 0.0, 0.0, 0.0, 0.0, 0.0, 0.0, 0.0, 1.7309143214214668E9, 0.0, 2024-11-06 14:32:01.421
220.0, -144973.6604063106, -65586.52258950741, -181372.87275467787, -187500.02235174447, -156372.9606715394, -187500.02235174447, -183751.6795100784, -187187.94729565948, 0.424, 0.84, 0.43, 192.0, 0.0, 0.0, 0.0, 0.0, 0.0, 0.0, 0.0, 0.0, 0.0, 1.7309143214255357E9, 0.0, 2024-11-06 14:32:01.425
221.0, -154925.0146657246, -66546.9546970075, -185070.67830213052, -187500.02235174447, -167182.97954594847, -179556.6817589619, -187500.02235174447, -182525.84278891596, 0.424, 0.84, 0.43, 192.0, 0.0, 0.0, 0.0, 0.0, 0.0, 0.0, 0.0, 0.0, 0.0, 1.7309143214295933E9, 0.0, 2024-11-06 14:32:01.429
222.0, -154548.20895769703, -68485.45443838292, -185611.59051794893, -187500.02235174447, -163024.12456561622, -181199.80319736042, -187500.02235174447, -182690.0163519402, 0.424, 0.84, 0.43, 192.0, 0.0, 0.0, 0.0, 0.0, 0.0, 0.0, 0.0, 0.0, 0.0, 1.7309143214335096E9, 0.0, 2024-11-06 14:32:01.433
223.0, -145215.5286330615, -67874.24598625254, -182023.3532218162, -187500.02235174447, -152361.18016972305, -187500.02235174447, -183194.65168650768, -186988.7932525627, 0.424, 0.84, 0.43, 192.0, 0.0, 0.0, 0.0, 0.0, 0.0, 0.0, 0.0, 0.0, 0.0, 1.7309143214385908E9, 0.0, 2024-11-06 14:32:01.438
224.0, -144110.2125180021, -65729.19377436565, -180968.14971782564, -187500.02235174447, -154845.95654558617, -187500.02235174447, -182888.7680636368, -187500.02235174447, 0.424, 0.84, 0.43, 192.0, 0.0, 0.0, 0.0, 0.0, 0.0, 0.0, 0.0, 0.0, 0.0, 1.7309143214425845E9, 0.0, 2024-11-06 14:32:01.442
225.0, -154024.23936417574, -66165.00808775522, -184439.42033522372, -187500.02235174447, -166585.13743700236, -181358.18765857074, -187500.02235174447, -183213.2036344056, 0.424, 0.84, 0.43, 192.0, 0.0, 0.0, 0.0, 0.0, 0.0, 0.0, 0.0, 0.0, 0.0, 1.7309143214456348E9, 0.0, 2024-11-06 14:32:01.445
226.0, -156128.96902906528, -68240.23344996375, -185929.76760027025, -187500.02235174447, -165334.15500332773, -179592.64571579048, -187500.02235174447, -182151.3393105673, 0.424, 0.84, 0.43, 192.0, 0.0, 0.0, 0.0, 0.0, 0.0, 0.0, 0.0, 0.0, 0.0, 1.7309143214495928E9, 0.0, 2024-11-06 14:32:01.449
227.0, -147295.89489649475, -68137.75070163616, -182662.613113238, -187500.02235174447, -154312.75568160485, -187500.02235174447, -184129.84867451774, -186295.1292151367, 0.424, 0.84, 0.43, 192.0, 0.0, 0.0, 0.0, 0.0, 0.0, 0.0, 0.0, 0.0, 0.0, 1.7309143214537687E9, 0.0, 2024-11-06 14:32:01.453
228.0, -143636.13201810504, -65978.23691108667, -180709.87531064457, -187500.02235174447, -153627.54060358295, -187500.02235174447, -182200.24492743553, -187500.02235174447, 0.426, 0.838, 0.432, 192.0, 13.0, 80.0, 26.0, 48.0, 13.0, 128.0, 0.0, 0.0, 0.0, 1.7309143214578352E9, 0.0, 2024-11-06 14:32:01.457
229.0, -152829.5162712951, -65840.57251698643, -183733.08285869157, -187500.02235174447, -165505.50347632213, -183280.8623648718, -187123.90954779502, -184041.0898972857, 0.426, 0.838, 0.432, 192.0, 0.0, 0.0, 0.0, 0.0, 0.0, 0.0, 0.0, 0.0, 0.0, 1.7309143214617538E9, 0.0, 2024-11-06 14:32:01.461
230.0, -157382.25369241877, -67918.59184725188, -186080.79833755473, -187500.02235174447, -167362.97814404705, -178363.97032308226, -187500.02235174447, -181776.70172175192, 0.426, 0.838, 0.432, 192.0, 0.0, 0.0, 0.0, 0.0, 0.0, 0.0, 0.0, 0.0, 0.0, 1.730914321466626E9, 0.0, 2024-11-06 14:32:01.466
231.0, -149540.68059214123, -68339.60930581205, -183348.36463312682, -187500.02235174447, -156582.0612409188, -187043.26445380028, -185110.97849738342, -185510.5829847554, 0.426, 0.838, 0.432, 192.0, 0.0, 0.0, 0.0, 0.0, 0.0, 0.0, 0.0, 0.0, 0.0, 1.7309143214706075E9, 0.0, 2024-11-06 14:32:01.470
232.0, -143658.57316953817, -66310.80851683719, -180644.65292032398, -187500.02235174447, -152891.7882313476, -187500.02235174447, -181778.37810258605, -187500.02235174447, 0.426, 0.838, 0.432, 192.0, 0.0, 0.0, 0.0, 0.0, 0.0, 0.0, 0.0, 0.0, 0.0, 1.730914321473568E9, 0.0, 2024-11-06 14:32:01.473
233.0, -151473.74885961402, -65591.01529014294, -183017.8493878662, -187500.02235174447, -164085.13952316518, -185047.65600534153, -186322.08541894978, -184928.58826262812, 0.426, 0.838, 0.432, 192.0, 0.0, 0.0, 0.0, 0.0, 0.0, 0.0, 0.0, 0.0, 0.0, 1.7309143214776883E9, 0.0, 2024-11-06 14:32:01.477
234.0, -158207.07776630853, -67536.64523799959, -186052.47867732987, -187500.02235174447, -168962.9383639024, -177707.23136749642, -187500.02235174447, -181621.24533906524, 0.426, 0.838, 0.432, 192.0, 0.0, 0.0, 0.0, 0.0, 0.0, 0.0, 0.0, 0.0, 0.0, 1.7309143214817467E9, 0.0, 2024-11-06 14:32:01.481
235.0, -151841.2338902037, -68466.43310385145, -184034.6972983715, -187500.02235174447, -159080.47218089964, -185858.48788720227, -186073.24344792886, -184687.7929196111, 0.426, 0.838, 0.432, 192.0, 0.0, 0.0, 0.0, 0.0, 0.0, 0.0, 0.0, 0.0, 0.0, 1.730914321485732E9, 0.0, 2024-11-06 14:32:01.485
236.0, -144208.0908069719, -66691.36931793325, -180770.38148288507, -187500.02235174447, -152743.5961656089, -187500.02235174447, -181715.21207275536, -187500.02235174447, 0.426, 0.838, 0.432, 192.0, 0.0, 0.0, 0.0, 0.0, 0.0, 0.0, 0.0, 0.0, 0.0, 1.730914321489832E9, 0.0, 2024-11-06 14:32:01.489
237.0, -150049.47335117738, -65425.12064279564, -182330.37678365433, -187500.02235174447, -162420.91803800085, -186526.42506676022, -185392.92340194268, -185820.7134390728, 0.426, 0.838, 0.432, 192.0, 0.0, 0.0, 0.0, 0.0, 0.0, 0.0, 0.0, 0.0, 0.0, 1.7309143214936848E9, 0.0, 2024-11-06 14:32:01.493
238.0, -158488.26271155628, -67113.37025324944, -185821.54045361764, -187500.02235174447, -169951.623076394, -177925.18322768013, -187500.02235174447, -181734.07694507565, 0.424, 0.844, 0.432, 192.0, 13.0, 64.0, 26.0, 96.0, 13.0, 128.0, 0.0, 0.0, 0.0, 1.7309143214987533E9, 0.0, 2024-11-06 14:32:01.498
239.0, -154059.9127483264, -68496.27268269929, -184674.60539038246, -187500.02235174447, -161666.63606961205, -184396.773206803, -186903.7672166547, -183885.58881111012, 0.424, 0.844, 0.432, 192.0, 0.0, 0.0, 0.0, 0.0, 0.0, 0.0, 0.0, 0.0, 0.0, 1.730914321501763E9, 0.0, 2024-11-06 14:32:01.501
240.0, -145266.87059007533, -67070.6337178509, -181084.17762329313, -187500.02235174447, -153214.52506953778, -187500.02235174447, -181986.15991904258, -187500.02235174447, 0.424, 0.844, 0.432, 192.0, 0.0, 0.0, 0.0, 0.0, 0.0, 0.0, 0.0, 0.0, 0.0, 1.7309143215058177E9, 0.0, 2024-11-06 14:32:01.505
241.0, -148800.27905705918, -65368.83895025718, -181729.6960031624, -187500.02235174447, -160755.89189003612, -187500.02235174447, -184447.6904806722, -186598.71060832866, 0.424, 0.844, 0.432, 192.0, 0.0, 0.0, 0.0, 0.0, 0.0, 0.0, 0.0, 0.0, 0.0, 1.7309143215095968E9, 0.0, 2024-11-06 14:32:01.509
242.0, -158351.58179421208, -66699.61711163726, -185435.79404780795, -187500.02235174447, -170384.82223568228, -178724.928644291, -187500.02235174447, -182051.49406808545, 0.424, 0.844, 0.432, 192.0, 0.0, 0.0, 0.0, 0.0, 0.0, 0.0, 0.0, 0.0, 0.0, 1.730914321513596E9, 0.0, 2024-11-06 14:32:01.513
243.0, -156110.0371015116, -68430.42444353395, -185226.60407145074, -187500.02235174447, -164218.1994579076, -182712.4351516289, -187500.02235174447, -183131.06097353232, 0.424, 0.844, 0.432, 192.0, 0.0, 0.0, 0.0, 0.0, 0.0, 0.0, 0.0, 0.0, 0.0, 1.7309143215177085E9, 0.0, 2024-11-06 14:32:01.517
244.0, -146777.26736989824, -67432.95549547143, -181555.2629894332, -187500.02235174447, -154280.43505912245, -187500.02235174447, -182564.80187950158, -187375.0761002393, 0.424, 0.844, 0.432, 192.0, 0.0, 0.0, 0.0, 0.0, 0.0, 0.0, 0.0, 0.0, 0.0, 1.7309143215217333E9, 0.0, 2024-11-06 14:32:01.521
245.0, -147689.41970937487, -65422.28197124982, -181235.00719487754, -187500.02235174447, -159078.37111692084, -187500.02235174447, -183501.25056520113, -187269.41940419906, 0.424, 0.844, 0.432, 192.0, 0.0, 0.0, 0.0, 0.0, 0.0, 0.0, 0.0, 0.0, 0.0, 1.7309143215267973E9, 0.0, 2024-11-06 14:32:01.526
246.0, -157752.0856561763, -66295.34110967412, -184914.77488455473, -187500.02235174447, -170216.89357958958, -180157.18372549818, -187500.02235174447, -182599.58119387404, 0.424, 0.844, 0.432, 192.0, 0.0, 0.0, 0.0, 0.0, 0.0, 0.0, 0.0, 0.0, 0.0, 1.730914321529674E9, 0.0, 2024-11-06 14:32:01.529
247.0, -157970.90923439377, -68280.91362487241, -185688.61462934193, -187500.02235174447, -166716.34217695502, -180919.51232189088, -187500.02235174447, -182482.21218373923, 0.424, 0.844, 0.432, 192.0, 0.0, 0.0, 0.0, 0.0, 0.0, 0.0, 0.0, 0.0, 0.0, 1.7309143215337508E9, 0.0, 2024-11-06 14:32:01.533
248.0, -148675.01988113165, -67752.92071734914, -182154.2897408354, -187500.02235174447, -155906.52446824606, -187500.02235174447, -183378.7853573305, -186773.61300869143, 0.424, 0.842, 0.432, 192.0, 13.0, 64.0, 26.0, 80.0, 13.0, 128.0, 0.0, 0.0, 0.0, 1.7309143215376365E9, 0.0, 2024-11-06 14:32:01.537
249.0, -146907.04159820577, -65581.69461270508, -180868.01390266584, -187500.02235174447, -157620.27741912336, -187500.02235174447, -182657.69572945783, -187500.02235174447, 0.424, 0.842, 0.432, 192.0, 0.0, 0.0, 0.0, 0.0, 0.0, 0.0, 0.0, 0.0, 0.0, 1.730914321541732E9, 0.0, 2024-11-06 14:32:01.541
250.0, -156758.751780838, -65920.27883771407, -184264.00384473847, -187500.02235174447, -169492.29472783743, -181946.97731101242, -187500.02235174447, -183331.8690457188, 0.424, 0.842, 0.432, 192.0, 0.0, 0.0, 0.0, 0.0, 0.0, 0.0, 0.0, 0.0, 0.0, 1.7309143215457382E9, 0.0, 2024-11-06 14:32:01.545
251.0, -159545.5002242923, -68031.31169454, -185991.63722892254, -187500.02235174447, -169036.63206537152, -179269.2606770111, -187500.02235174447, -181944.2503981889, 0.424, 0.842, 0.432, 192.0, 0.0, 0.0, 0.0, 0.0, 0.0, 0.0, 0.0, 0.0, 0.0, 1.7309143215496194E9, 0.0, 2024-11-06 14:32:01.549
252.0, -150848.97289859926, -68017.78888914453, -182824.28328088325, -187500.02235174447, -157974.6866792067, -187500.02235174447, -184334.07656360586, -186037.45830505592, 0.424, 0.842, 0.432, 192.0, 0.0, 0.0, 0.0, 0.0, 0.0, 0.0, 0.0, 0.0, 0.0, 1.7309143215537884E9, 0.0, 2024-11-06 14:32:01.553
253.0, -146551.71591659976, -65847.52390951203, -180664.0542345112, -187500.02235174447, -156518.7834523658, -187500.02235174447, -182040.18408539105, -187500.02235174447, 0.424, 0.842, 0.432, 192.0, 0.0, 0.0, 0.0, 0.0, 0.0, 0.0, 0.0, 0.0, 0.0, 1.730914321556651E9, 0.0, 2024-11-06 14:32:01.556
254.0, -155503.12018431668, -65609.4331275741, -183549.6197402024, -187500.02235174447, -168320.12454511222, -183826.37904004802, -186887.83042285807, -184190.15368105815, 0.424, 0.842, 0.432, 192.0, 0.0, 0.0, 0.0, 0.0, 0.0, 0.0, 0.0, 0.0, 0.0, 1.7309143215618205E9, 0.0, 2024-11-06 14:32:01.561
255.0, -160679.0242408543, -67694.67207129861, -186096.86924181812, -187500.02235174447, -170956.11047221549, -178166.71617826418, -187500.02235174447, -181639.5737695186, 0.424, 0.842, 0.432, 192.0, 0.0, 0.0, 0.0, 0.0, 0.0, 0.0, 0.0, 0.0, 0.0, 1.7309143215656884E9, 0.0, 2024-11-06 14:32:01.565
0.0, -153102.5875333056, -68202.41429834536, -183501.47408264567, -187500.02235174447, -160297.9269978913, -186749.7189938687, -185309.73020908, -185262.4339178126, 0.424, 0.842, 0.432, 192.0, 0.0, 0.0, 0.0, 0.0, 0.0, 0.0, 0.0, 0.0, 0.0, 1.730914321569682E9, 0.0, 2024-11-06 14:32:01.569
1.0, -146703.75248238476, -66185.25876823172, -180632.31475738465, -187500.02235174447, -155932.11721564736, -187500.02235174447, -181702.31511620464, -187500.02235174447, 0.424, 0.842, 0.432, 192.0, 0.0, 0.0, 0.0, 0.0, 0.0, 0.0, 0.0, 0.0, 0.0, 1.73091432157362E9, 0.0, 2024-11-06 14:32:01.573
2.0, -154122.1176531455, -65367.92252873451, -182832.73224028735, -187500.02235174447, -166842.6295331275, -185505.71030446416, -186056.412584354, -185081.85417435816, 0.42, 0.846, 0.43, 192.0, 13.0, 32.0, 26.0, 112.0, 13.0, 112.0, 0.0, 0.0, 0.0, 1.7309143215778155E9, 0.0, 2024-11-06 14:32:01.577
3.0, -161362.96526944224, -67301.46018284085, -186007.9987058638, -187500.02235174447, -172399.36261169467, -177759.53444952186, -187500.02235174447, -181539.348547381, 0.42, 0.846, 0.43, 192.0, 0.0, 0.0, 0.0, 0.0, 0.0, 0.0, 0.0, 0.0, 0.0, 1.7309143215817418E9, 0.0, 2024-11-06 14:32:01.581
4.0, -155406.49359303637, -68313.77068922171, -184179.33543674176, -187500.02235174447, -162833.7324063459, -185506.783188198, -186226.7552288479, -184426.79159960648, 0.42, 0.846, 0.43, 192.0, 0.0, 0.0, 0.0, 0.0, 0.0, 0.0, 0.0, 0.0, 0.0, 1.7309143215847287E9, 0.0, 2024-11-06 14:32:01.584
5.0, -147384.89954291578, -66566.66893561708, -180810.681678138, -187500.02235174447, -155937.57104129446, -187500.02235174447, -181712.01577329825, -187500.02235174447, 0.42, 0.846, 0.43, 192.0, 0.0, 0.0, 0.0, 0.0, 0.0, 0.0, 0.0, 0.0, 0.0, 1.7309143215887094E9, 0.0, 2024-11-06 14:32:01.588
6.0, -152686.6439207368, -65216.84708796109, -182153.32861582382, -187500.02235174447, -165129.30126539484, -186875.40285294093, -185107.46927350396, -185967.00560653277, 0.42, 0.846, 0.43, 192.0, 0.0, 0.0, 0.0, 0.0, 0.0, 0.0, 0.0, 0.0, 0.0, 1.7309143215936813E9, 0.0, 2024-11-06 14:32:01.593
7.0, -161522.57907659758, -66871.14439858728, -185729.96535658426, -187500.02235174447, -173251.16524114195, -178175.9474487242, -187500.02235174447, -181709.82530234163, 0.42, 0.846, 0.43, 192.0, 0.0, 0.0, 0.0, 0.0, 0.0, 0.0, 0.0, 0.0, 0.0, 1.730914321597659E9, 0.0, 2024-11-06 14:32:01.597
8.0, -157654.14031197314, -68348.57235533862, -184817.58949966307, -187500.02235174447, -165473.5628334955, -183926.5595586967, -187029.36166874907, -183604.35916237347, 0.42, 0.846, 0.43, 192.0, 0.0, 0.0, 0.0, 0.0, 0.0, 0.0, 0.0, 0.0, 0.0, 1.7309143216017318E9, 0.0, 2024-11-06 14:32:01.601
9.0, -148565.49633330063, -66961.37839095335, -181153.66919680467, -187500.02235174447, -156549.13712133613, -187500.02235174447, -182062.04409146836, -187500.02235174447, 0.42, 0.846, 0.43, 192.0, 0.0, 0.0, 0.0, 0.0, 0.0, 0.0, 0.0, 0.0, 0.0, 1.730914321605829E9, 0.0, 2024-11-06 14:32:01.605
10.0, -151448.4466848906, -65176.16691305243, -181559.7556900687, -187500.02235174447, -163458.2848499161, -187500.02235174447, -184143.63970084666, -186716.9736882417, 0.42, 0.846, 0.43, 192.0, 0.0, 0.0, 0.0, 0.0, 0.0, 0.0, 0.0, 0.0, 0.0, 1.7309143216099336E9, 0.0, 2024-11-06 14:32:01.609
11.0, -161305.85656235894, -66471.96459435995, -185309.41728465765, -187500.02235174447, -173580.8311201133, -179110.71975358963, -187500.02235174447, -182066.73795780397, 0.42, 0.846, 0.43, 192.0, 0.0, 0.0, 0.0, 0.0, 0.0, 0.0, 0.0, 0.0, 0.0, 1.7309143216128712E9, 0.0, 2024-11-06 14:32:01.612
12.0, -159663.96446990545, -68272.77758989067, -185340.7991338729, -187500.02235174447, -168020.0523757997, -182256.54897171844, -187500.02235174447, -182876.42990069746, 0.41600000000000004, 0.85, 0.438, 192.0, 13.0, 0.0, 26.0, 144.0, 13.0, 176.0, 0.0, 0.0, 0.0, 1.730914321616734E9, 0.0, 2024-11-06 14:32:01.616
13.0, -150187.56242842227, -67322.58258135112, -181643.48532479827, -187500.02235174447, -157772.71631630854, -187500.02235174447, -182687.53530830567, -187175.09504259768, 0.41600000000000004, 0.85, 0.438, 192.0, 0.0, 0.0, 0.0, 0.0, 0.0, 0.0, 0.0, 0.0, 0.0, 1.730914321621774E9, 0.0, 2024-11-06 14:32:01.621
14.0, -150425.07206500438, -65252.29695466721, -181083.68588491512, -187500.02235174447, -161850.63562996814, -187500.02235174447, -183222.14433218772, -187342.53196031236, 0.41600000000000004, 0.85, 0.438, 192.0, 0.0, 0.0, 0.0, 0.0, 0.0, 0.0, 0.0, 0.0, 0.0, 1.7309143216258087E9, 0.0, 2024-11-06 14:32:01.625
15.0, -160580.14012338402, -66058.77024635914, -184733.85986493347, -187500.02235174447, -173267.30320063868, -180696.53131920475, -187500.02235174447, -182673.118433132, 0.41600000000000004, 0.85, 0.438, 192.0, 0.0, 0.0, 0.0, 0.0, 0.0, 0.0, 0.0, 0.0, 0.0, 1.7309143216297443E9, 0.0, 2024-11-06 14:32:01.629
16.0, -161464.9562793918, -68099.46216338422, -185757.05567086407, -187500.02235174447, -170498.68202193762, -180520.04194498563, -187500.02235174447, -182230.73270687257, 0.41600000000000004, 0.85, 0.438, 192.0, 0.0, 0.0, 0.0, 0.0, 0.0, 0.0, 0.0, 0.0, 0.0, 1.7309143216337616E9, 0.0, 2024-11-06 14:32:01.633
17.0, -152203.1309846796, -67647.9122218981, -182274.81034693844, -187500.02235174447, -159544.58380276966, -187500.02235174447, -183564.39424328736, -186529.19668307266, 0.41600000000000004, 0.85, 0.438, 192.0, 0.0, 0.0, 0.0, 0.0, 0.0, 0.0, 0.0, 0.0, 0.0, 1.730914321636839E9, 0.0, 2024-11-06 14:32:01.636
18.0, -149728.6364112659, -65442.46559649296, -180749.95198845293, -187500.02235174447, -160445.33675257408, -187500.02235174447, -182434.64767153832, -187500.02235174447, 0.41600000000000004, 0.85, 0.438, 192.0, 0.0, 0.0, 0.0, 0.0, 0.0, 0.0, 0.0, 0.0, 0.0, 1.730914321640864E9, 0.0, 2024-11-06 14:32:01.640
19.0, -159504.82004938365, -65687.59717793431, -184058.77012714985, -187500.02235174447, -172424.5977311847, -182520.6348324579, -187347.65050979264, -183452.65787275528, 0.41600000000000004, 0.85, 0.438, 192.0, 0.0, 0.0, 0.0, 0.0, 0.0, 0.0, 0.0, 0.0, 0.0, 1.730914321644937E9, 0.0, 2024-11-06 14:32:01.644
20.0, -162933.62235231668, -67831.33063689836, -186014.23484256683, -187500.02235174447, -172717.00325214904, -179061.54591578792, -187500.02235174447, -181747.7562126823, 0.41600000000000004, 0.85, 0.438, 192.0, 0.0, 0.0, 0.0, 0.0, 0.0, 0.0, 0.0, 0.0, 0.0, 1.7309143216498764E9, 0.0, 2024-11-06 14:32:01.649
21.0, -154405.940104239, -67905.47137325662, -182952.73875626788, -187500.02235174447, -161665.33966843365, -187428.25090029847, -184533.52117938056, -185783.83306072155, 0.41600000000000004, 0.85, 0.438, 192.0, 0.0, 0.0, 0.0, 0.0, 0.0, 0.0, 0.0, 0.0, 0.0, 1.730914321653797E9, 0.0, 2024-11-06 14:32:01.653
22.0, -149512.20446970518, -65737.19569888063, -180597.0884081231, -187500.02235174447, -159463.91635703045, -187500.02235174447, -181877.0834061007, -187500.02235174447, 0.418, 0.844, 0.43, 192.0, 13.0, 16.0, 26.0, 96.0, 13.0, 112.0, 0.0, 0.0, 0.0, 1.730914321657748E9, 0.0, 2024-11-06 14:32:01.657
23.0, -158150.23728015868, -65383.814619042234, -183337.09935392134, -187500.02235174447, -171099.7427820853, -184436.60401542234, -186625.8009226085, -184348.8063632019, 0.418, 0.844, 0.43, 192.0, 0.0, 0.0, 0.0, 0.0, 0.0, 0.0, 0.0, 0.0, 0.0, 1.7309143216618347E9, 0.0, 2024-11-06 14:32:01.661
24.0, -163979.86280678067, -67475.13323725859, -186084.64283760107, -187500.02235174447, -174549.3098556173, -178185.22342267318, -187500.02235174447, -181484.51971823213, 0.418, 0.844, 0.43, 192.0, 0.0, 0.0, 0.0, 0.0, 0.0, 0.0, 0.0, 0.0, 0.0, 1.7309143216657917E9, 0.0, 2024-11-06 14:32:01.665
25.0, -156744.71488532008, -68098.74690756165, -183668.4416137268, -187500.02235174447, -164078.34459285077, -186470.009263755, -185509.84537718838, -184953.7563268848, 0.418, 0.844, 0.43, 192.0, 0.0, 0.0, 0.0, 0.0, 0.0, 0.0, 0.0, 0.0, 0.0, 1.730914321668913E9, 0.0, 2024-11-06 14:32:01.668
26.0, -149787.42149918337, -66097.349357289, -180630.90659748396, -187500.02235174447, -158970.50159817954, -187500.02235174447, -181622.9217198994, -187500.02235174447, 0.418, 0.844, 0.43, 192.0, 0.0, 0.0, 0.0, 0.0, 0.0, 0.0, 0.0, 0.0, 0.0, 1.7309143216730454E9, 0.0, 2024-11-06 14:32:01.673
27.0, -156779.13657178124, -65161.21359601183, -182635.7016129138, -187500.02235174447, -169575.3761619778, -185943.71508881034, -185783.0954531545, -185227.83341739577, 0.418, 0.844, 0.43, 192.0, 0.0, 0.0, 0.0, 0.0, 0.0, 0.0, 0.0, 0.0, 0.0, 1.730914321677861E9, 0.0, 2024-11-06 14:32:01.677
28.0, -164522.31729296653, -67074.54527313057, -185955.15918197145, -187500.02235174447, -175818.2407400895, -178032.00221443202, -187500.02235174447, -181469.94638084728, 0.418, 0.844, 0.43, 192.0, 0.0, 0.0, 0.0, 0.0, 0.0, 0.0, 0.0, 0.0, 0.0, 1.7309143216817708E9, 0.0, 2024-11-06 14:32:01.681
29.0, -159018.84842143639, -68191.50664705118, -184336.53525549595, -187500.02235174447, -166599.37549822038, -185226.00057435044, -186396.0473413524, -184147.3724421707, 0.418, 0.844, 0.43, 192.0, 0.0, 0.0, 0.0, 0.0, 0.0, 0.0, 0.0, 0.0, 0.0, 1.7309143216858535E9, 0.0, 2024-11-06 14:32:01.685
30.0, -150615.48657601912, -66491.12003935815, -180849.86428616816, -187500.02235174447, -159115.83264062795, -187500.02235174447, -181723.41516297046, -187500.02235174447, 0.418, 0.844, 0.43, 192.0, 0.0, 0.0, 0.0, 0.0, 0.0, 0.0, 0.0, 0.0, 0.0, 1.7309143216888044E9, 0.0, 2024-11-06 14:32:01.688
31.0, -155408.57230527073, -65035.44032996182, -181969.2620002344, -187500.02235174447, -167864.2607169462, -187095.27696314777, -184822.1716072764, -186087.1685847245, 0.418, 0.844, 0.43, 192.0, 0.0, 0.0, 0.0, 0.0, 0.0, 0.0, 0.0, 0.0, 0.0, 1.730914321693195E9, 0.0, 2024-11-06 14:32:01.693
32.0, -164620.53085810316, -66654.22071864852, -185639.8654746849, -187500.02235174447, -176550.26037100083, -178548.46162181636, -187500.02235174447, -181676.6776653144, 0.42, 0.848, 0.432, 192.0, 13.0, 32.0, 26.0, 128.0, 13.0, 128.0, 0.0, 0.0, 0.0, 1.7309143216967845E9, 0.0, 2024-11-06 14:32:01.696
33.0, -161227.78191897654, -68202.48135357874, -184946.33554772564, -187500.02235174447, -169194.3459742482, -183661.8478491125, -187153.45855396494, -183335.40062134273, 0.42, 0.848, 0.432, 192.0, 0.0, 0.0, 0.0, 0.0, 0.0, 0.0, 0.0, 0.0, 0.0, 1.730914321700834E9, 0.0, 2024-11-06 14:32:01.700
34.0, -151942.375533864, -66889.89751218529, -181232.10146809835, -187500.02235174447, -159863.09616125777, -187500.02235174447, -182146.46663027606, -187490.94754349563, 0.42, 0.848, 0.432, 192.0, 0.0, 0.0, 0.0, 0.0, 0.0, 0.0, 0.0, 0.0, 0.0, 1.7309143217058513E9, 0.0, 2024-11-06 14:32:01.705
35.0, -154176.65590961647, -65018.67652162034, -181391.24588862015, -187500.02235174447, -166109.20174231552, -187500.02235174447, -183856.73270901834, -186824.86555872747, 0.42, 0.848, 0.432, 192.0, 0.0, 0.0, 0.0, 0.0, 0.0, 0.0, 0.0, 0.0, 0.0, 1.7309143217098703E9, 0.0, 2024-11-06 14:32:01.709
36.0, -164193.45607679558, -66218.04877734766, -185145.53429431134, -187500.02235174447, -176618.88022647862, -179785.74243613987, -187500.02235174447, -182129.50165623447, 0.42, 0.848, 0.432, 192.0, 0.0, 0.0, 0.0, 0.0, 0.0, 0.0, 0.0, 0.0, 0.0, 1.7309143217138057E9, 0.0, 2024-11-06 14:32:01.713
37.0, -163235.54971641896, -68106.74883207666, -185455.1730102507, -187500.02235174447, -171739.40500490725, -181972.07832003574, -187500.02235174447, -182606.44317942183, 0.42, 0.848, 0.432, 192.0, 0.0, 0.0, 0.0, 0.0, 0.0, 0.0, 0.0, 0.0, 0.0, 1.7309143217167928E9, 0.0, 2024-11-06 14:32:01.716
38.0, -153694.88640962678, -67254.63327820698, -181777.79695723022, -187500.02235174447, -161190.87918888085, -187500.02235174447, -182867.60096163763, -186949.16360964344, 0.42, 0.848, 0.432, 192.0, 0.0, 0.0, 0.0, 0.0, 0.0, 0.0, 0.0, 0.0, 0.0, 1.730914321720934E9, 0.0, 2024-11-06 14:32:01.720
39.0, -153226.2597353768, -65120.51106935872, -180955.56568569728, -187500.02235174447, -164485.14634193736, -187500.02235174447, -182971.938904755, -187404.5804029203, 0.42, 0.848, 0.432, 192.0, 0.0, 0.0, 0.0, 0.0, 0.0, 0.0, 0.0, 0.0, 0.0, 1.7309143217249348E9, 0.0, 2024-11-06 14:32:01.724
40.0, -163406.40645103532, -65818.26547602004, -184555.58235115797, -187500.02235174447, -176151.28173247358, -181345.93890260922, -187500.02235174447, -182775.60118145958, 0.42, 0.848, 0.432, 192.0, 0.0, 0.0, 0.0, 0.0, 0.0, 0.0, 0.0, 0.0, 0.0, 1.7309143217289104E9, 0.0, 2024-11-06 14:32:01.728
41.0, -164932.89648686606, -67906.74542269057, -185825.94374727533, -187500.02235174447, -174079.07385576653, -180374.08505369248, -187500.02235174447, -182019.44166653656, 0.42, 0.848, 0.432, 192.0, 0.0, 0.0, 0.0, 0.0, 0.0, 0.0, 0.0, 0.0, 0.0, 1.7309143217338717E9, 0.0, 2024-11-06 14:32:01.733
42.0, -155755.13610305026, -67562.17093016756, -182411.22304334916, -187500.02235174447, -163000.7669926604, -187500.02235174447, -183761.49192589425, -186286.30027607683, 0.418, 0.842, 0.432, 192.0, 13.0, 16.0, 26.0, 80.0, 13.0, 128.0, 0.0, 0.0, 0.0, 1.73091432173788E9, 0.0, 2024-11-06 14:32:01.737
43.0, -152637.96182131313, -65338.93231617598, -180660.23208620932, -187500.02235174447, -163132.28465703543, -187500.02235174447, -182233.9737098186, -187500.02235174447, 0.418, 0.842, 0.432, 192.0, 0.0, 0.0, 0.0, 0.0, 0.0, 0.0, 0.0, 0.0, 0.0, 1.730914321741881E9, 0.0, 2024-11-06 14:32:01.741
44.0, -162233.52101248753, -65463.96797465897, -183850.7424415043, -187500.02235174447, -175120.53103691712, -183217.07048619635, -187129.38572518656, -183607.71192404174, 0.418, 0.842, 0.432, 192.0, 0.0, 0.0, 0.0, 0.0, 0.0, 0.0, 0.0, 0.0, 0.0, 1.7309143217448895E9, 0.0, 2024-11-06 14:32:01.744
45.0, -166289.98265147003, -67615.63630290465, -186027.3106130732, -187500.02235174447, -176165.58684892498, -179115.39126818077, -187500.02235174447, -181607.18609180287, 0.418, 0.842, 0.432, 192.0, 0.0, 0.0, 0.0, 0.0, 0.0, 0.0, 0.0, 0.0, 0.0, 1.7309143217488632E9, 0.0, 2024-11-06 14:32:01.748
46.0, -158029.98489498915, -67810.72232851057, -183104.7082668195, -187500.02235174447, -165184.01833582143, -187252.72265109094, -184741.05712664808, -185525.42454307372, 0.418, 0.842, 0.432, 192.0, 0.0, 0.0, 0.0, 0.0, 0.0, 0.0, 0.0, 0.0, 0.0, 1.7309143217531044E9, 0.0, 2024-11-06 14:32:01.753
47.0, -152546.52083474648, -65662.96555554456, -180549.21097149982, -187500.02235174447, -162204.84372435138, -187500.02235174447, -181740.62600620106, -187500.02235174447, 0.418, 0.842, 0.432, 192.0, 0.0, 0.0, 0.0, 0.0, 0.0, 0.0, 0.0, 0.0, 0.0, 1.7309143217569735E9, 0.0, 2024-11-06 14:32:01.756
48.0, -160862.39795236563, -65178.84912238707, -183127.66350837512, -187500.02235174447, -173683.71619984106, -184966.4074142465, -186380.53523070042, -184514.7010105492, 0.418, 0.842, 0.432, 192.0, 0.0, 0.0, 0.0, 0.0, 0.0, 0.0, 0.0, 0.0, 0.0, 1.730914321761993E9, 0.0, 2024-11-06 14:32:01.761
49.0, -167214.78607830836, -67253.29217353967, -186042.35333709163, -187500.02235174447, -177815.92790078258, -178401.58830900054, -187500.02235174447, -181401.8182637475, 0.418, 0.842, 0.432, 192.0, 0.0, 0.0, 0.0, 0.0, 0.0, 0.0, 0.0, 0.0, 0.0, 1.730914321765868E9, 0.0, 2024-11-06 14:32:01.765
50.0, -160346.92202173735, -67986.45174341819, -183805.4801589823, -187500.02235174447, -167563.20507087768, -186264.23910429946, -185693.88964103337, -184709.76468441068, 0.418, 0.842, 0.432, 192.0, 0.0, 0.0, 0.0, 0.0, 0.0, 0.0, 0.0, 0.0, 0.0, 1.730914321769933E9, 0.0, 2024-11-06 14:32:01.769
51.0, -152953.3002320886, -66038.25134494917, -180630.14663817247, -187500.02235174447, -161815.92337082906, -187500.02235174447, -181571.51270765217, -187500.02235174447, 0.418, 0.842, 0.432, 192.0, 0.0, 0.0, 0.0, 0.0, 0.0, 0.0, 0.0, 0.0, 0.0, 1.7309143217730129E9, 0.0, 2024-11-06 14:32:01.773
52.0, -159455.02036273724, -64976.744649022185, -182427.38335459036, -187500.02235174447, -172036.79496488514, -186324.11942769523, -185486.71132167714, -185405.015695693, 0.42, 0.844, 0.428, 192.0, 13.0, 32.0, 26.0, 96.0, 13.0, 96.0, 0.0, 0.0, 0.0, 1.730914321777351E9, 0.0, 2024-11-06 14:32:01.777
53.0, -167668.90647040683, -66858.22509029211, -185875.20699205482, -187500.02235174447, -178939.66185327314, -178375.57087845457, -187500.02235174447, -181430.09322048345, 0.42, 0.844, 0.428, 192.0, 0.0, 0.0, 0.0, 0.0, 0.0, 0.0, 0.0, 0.0, 0.0, 1.7309143217809691E9, 0.0, 2024-11-06 14:32:01.780
54.0, -162643.04967439768, -68079.61381430792, -184476.05484438597, -187500.02235174447, -170081.4420081904, -184968.53082996976, -186556.95754968617, -183891.53437513523, 0.42, 0.844, 0.428, 192.0, 0.0, 0.0, 0.0, 0.0, 0.0, 0.0, 0.0, 0.0, 0.0, 1.7309143217850933E9, 0.0, 2024-11-06 14:32:01.785
55.0, -153905.26102844015, -66444.181376002, -180893.29372564482, -187500.02235174447, -162049.2979346869, -187500.02235174447, -181759.42382328794, -187500.02235174447, 0.42, 0.844, 0.428, 192.0, 0.0, 0.0, 0.0, 0.0, 0.0, 0.0, 0.0, 0.0, 0.0, 1.7309143217890408E9, 0.0, 2024-11-06 14:32:01.789
56.0, -158091.69806143024, -64874.17249371678, -181787.58702130165, -187500.02235174447, -170242.21810605744, -187338.32983235476, -184538.84089456094, -186241.84265635523, 0.42, 0.844, 0.428, 192.0, 0.0, 0.0, 0.0, 0.0, 0.0, 0.0, 0.0, 0.0, 0.0, 1.730914321794222E9, 0.0, 2024-11-06 14:32:01.794
57.0, -167632.40607171133, -66434.10073925267, -185519.32251683742, -187500.02235174447, -179459.29520837014, -179059.62366576478, -187500.02235174447, -181707.43366568492, 0.42, 0.844, 0.428, 192.0, 0.0, 0.0, 0.0, 0.0, 0.0, 0.0, 0.0, 0.0, 0.0, 1.7309143217969575E9, 0.0, 2024-11-06 14:32:01.796
58.0, -164804.53041845924, -68071.05309618152, -185070.52183991933, -187500.02235174447, -172616.2415881445, -183398.36548547333, -187269.93349432154, -183091.90071724664, 0.42, 0.844, 0.428, 192.0, 0.0, 0.0, 0.0, 0.0, 0.0, 0.0, 0.0, 0.0, 0.0, 1.7309143218009796E9, 0.0, 2024-11-06 14:32:01.800
59.0, -155338.18666198096, -66833.30289522445, -181334.047774559, -187500.02235174447, -162893.65743323058, -187500.02235174447, -182265.13204158927, -187320.716657724, 0.42, 0.844, 0.428, 192.0, 0.0, 0.0, 0.0, 0.0, 0.0, 0.0, 0.0, 0.0, 0.0, 1.7309143218052127E9, 0.0, 2024-11-06 14:32:01.805
60.0, -156910.74364313408, -64887.87411306788, -181242.76325020354, -187500.02235174447, -168451.39634029823, -187500.02235174447, -183585.74015924218, -186942.16751362893, 0.42, 0.844, 0.428, 192.0, 0.0, 0.0, 0.0, 0.0, 0.0, 0.0, 0.0, 0.0, 0.0, 1.7309143218092911E9, 0.0, 2024-11-06 14:32:01.809
61.0, -167099.4287251745, -66012.43508010329, -184999.0633128957, -187500.02235174447, -179345.54718083708, -180371.4698995912, -187500.02235174447, -182225.77061960349, 0.42, 0.844, 0.428, 192.0, 0.0, 0.0, 0.0, 0.0, 0.0, 0.0, 0.0, 0.0, 0.0, 1.7309143218131227E9, 0.0, 2024-11-06 14:32:01.813
62.0, -166758.09523559752, -67971.83370254442, -185556.6499300778, -187500.02235174447, -175091.45141738074, -181724.82332287115, -187500.02235174447, -182407.06561888047, 0.422, 0.848, 0.434, 192.0, 13.0, 48.0, 26.0, 128.0, 13.0, 144.0, 0.0, 0.0, 0.0, 1.7309143218170545E9, 0.0, 2024-11-06 14:32:01.817
63.0, -157199.9528646413, -67208.18635322886, -181904.35253433615, -187500.02235174447, -164322.47034579163, -187500.02235174447, -183026.20894029248, -186756.8715520944, 0.422, 0.848, 0.434, 192.0, 0.0, 0.0, 0.0, 0.0, 0.0, 0.0, 0.0, 0.0, 0.0, 1.7309143218221576E9, 0.0, 2024-11-06 14:32:01.822
64.0, -156035.69519945327, -65027.25959149118, -180837.928454629, -187500.02235174447, -166839.70145460387, -187500.02235174447, -182708.63535507148, -187478.38586311173, 0.422, 0.848, 0.434, 192.0, 0.0, 0.0, 0.0, 0.0, 0.0, 0.0, 0.0, 0.0, 0.0, 1.7309143218249748E9, 0.0, 2024-11-06 14:32:01.824
65.0, -166210.3880894647, -65629.12501443923, -184376.45547109313, -187500.02235174447, -178698.75475153385, -181987.97041034346, -187500.02235174447, -182926.49780827735, 0.422, 0.848, 0.434, 192.0, 0.0, 0.0, 0.0, 0.0, 0.0, 0.0, 0.0, 0.0, 0.0, 1.7309143218290222E9, 0.0, 2024-11-06 14:32:01.829
66.0, -168394.77937159294, -67763.58249945432, -185892.61900098552, -187500.02235174447, -177347.23417129926, -180226.27296760955, -187500.02235174447, -181840.20302774943, 0.422, 0.848, 0.434, 192.0, 0.0, 0.0, 0.0, 0.0, 0.0, 0.0, 0.0, 0.0, 0.0, 1.7309143218331358E9, 0.0, 2024-11-06 14:32:01.833
67.0, -159331.79519555514, -67513.24296155489, -182558.7445567542, -187500.02235174447, -166173.64182158015, -187500.02235174447, -183934.919111123, -186063.67690130198, 0.422, 0.848, 0.434, 192.0, 0.0, 0.0, 0.0, 0.0, 0.0, 0.0, 0.0, 0.0, 0.0, 1.7309143218370616E9, 0.0, 2024-11-06 14:32:01.837
68.0, -155555.82559774228, -65272.167655487974, -180580.6822276929, -187500.02235174447, -165507.9621682122, -187500.02235174447, -182012.08794261076, -187500.02235174447, 0.422, 0.848, 0.434, 192.0, 0.0, 0.0, 0.0, 0.0, 0.0, 0.0, 0.0, 0.0, 0.0, 1.7309143218410614E9, 0.0, 2024-11-06 14:32:01.841
69.0, -164966.75937971586, -65286.383364961555, -183654.76234612017, -187500.02235174447, -177494.643925982, -183798.3276007566, -186889.350341481, -183781.76495811524, 0.422, 0.848, 0.434, 192.0, 0.0, 0.0, 0.0, 0.0, 0.0, 0.0, 0.0, 0.0, 0.0, 1.7309143218449926E9, 0.0, 2024-11-06 14:32:01.844
70.0, -169683.17862548574, -67466.170187732, -186054.93736921996, -187500.02235174447, -179325.1176864049, -179078.779110763, -187500.02235174447, -181462.45854645476, 0.422, 0.848, 0.434, 192.0, 0.0, 0.0, 0.0, 0.0, 0.0, 0.0, 0.0, 0.0, 0.0, 1.7309143218501525E9, 0.0, 2024-11-06 14:32:01.850
71.0, -161648.41939788096, -67763.02370584295, -183267.42896645414, -187500.02235174447, -168372.18175794862, -187049.88057015903, -184924.0061550148, -185284.20451691205, 0.422, 0.848, 0.434, 192.0, 0.0, 0.0, 0.0, 0.0, 0.0, 0.0, 0.0, 0.0, 0.0, 1.7309143218533323E9, 0.0, 2024-11-06 14:32:01.853
72.0, -155586.55924636833, -65615.24458113249, -180522.29947117562, -187500.02235174447, -164657.6124021545, -187500.02235174447, -181611.9246616274, -187500.02235174447, 0.418, 0.846, 0.434, 192.0, 13.0, 16.0, 26.0, 112.0, 13.0, 144.0, 0.0, 0.0, 0.0, 1.7309143218571246E9, 0.0, 2024-11-06 14:32:01.857
73.0, -163577.93373798535, -65015.86020181897, -182936.19846537095, -187500.02235174447, -175955.63691325628, -185407.29557362743, -186117.92458509502, -184690.87746034595, 0.418, 0.846, 0.434, 192.0, 0.0, 0.0, 0.0, 0.0, 0.0, 0.0, 0.0, 0.0, 0.0, 1.7309143218612013E9, 0.0, 2024-11-06 14:32:01.861
74.0, -170502.72768768403, -67093.09722102848, -186028.45055204042, -187500.02235174447, -180833.4357539935, -178547.56755203815, -187500.02235174447, -181320.36850695236, 0.418, 0.846, 0.434, 192.0, 0.0, 0.0, 0.0, 0.0, 0.0, 0.0, 0.0, 0.0, 0.0, 1.7309143218652933E9, 0.0, 2024-11-06 14:32:01.865
75.0, -164006.32727221577, -67932.65109451427, -183971.75478598534, -187500.02235174447, -170784.40437130982, -186005.0035721068, -185869.90962861892, -184456.16179182075, 0.418, 0.846, 0.434, 192.0, 0.0, 0.0, 0.0, 0.0, 0.0, 0.0, 0.0, 0.0, 0.0, 1.7309143218690553E9, 0.0, 2024-11-06 14:32:01.869
76.0, -156146.24692752922, -66007.20477190075, -180648.00568199228, -187500.02235174447, -164381.99304127612, -187500.02235174447, -181535.7052130348, -187500.02235174447, 0.418, 0.846, 0.434, 192.0, 0.0, 0.0, 0.0, 0.0, 0.0, 0.0, 0.0, 0.0, 0.0, 1.7309143218731463E9, 0.0, 2024-11-06 14:32:01.873
77.0, -162185.84474156436, -64834.72166475316, -182248.23412278105, -187500.02235174447, -174231.2221802738, -186640.061335571, -185218.33392600226, -185570.57506687345, 0.418, 0.846, 0.434, 192.0, 0.0, 0.0, 0.0, 0.0, 0.0, 0.0, 0.0, 0.0, 0.0, 1.7309143218780284E9, 0.0, 2024-11-06 14:32:01.878
78.0, -170847.25747671814, -66693.22451272304, -185813.49382561372, -187500.02235174447, -181787.38585560155, -178732.46118217244, -187500.02235174447, -181409.8648917514, 0.418, 0.846, 0.434, 192.0, 0.0, 0.0, 0.0, 0.0, 0.0, 0.0, 0.0, 0.0, 0.0, 1.7309143218811414E9, 0.0, 2024-11-06 14:32:01.881
79.0, -166291.16729392618, -68008.17763902876, -184629.6783840273, -187500.02235174447, -173285.83279679215, -184702.61212618498, -186698.9581822107, -183642.46888666975, 0.418, 0.846, 0.434, 192.0, 0.0, 0.0, 0.0, 0.0, 0.0, 0.0, 0.0, 0.0, 0.0, 1.730914321885167E9, 0.0, 2024-11-06 14:32:01.885
80.0, -157265.2199584508, -66428.51280313883, -180960.63953168865, -187500.02235174447, -164751.40032188897, -187500.02235174447, -181821.8075420627, -187500.02235174447, 0.418, 0.846, 0.434, 192.0, 0.0, 0.0, 0.0, 0.0, 0.0, 0.0, 0.0, 0.0, 0.0, 1.7309143218891325E9, 0.0, 2024-11-06 14:32:01.889
81.0, -160824.80231819183, -64758.12223650482, -181598.357152743, -187500.02235174447, -172335.61543650812, -187500.02235174447, -184239.86396072674, -186385.11733831375, 0.418, 0.846, 0.434, 192.0, 0.0, 0.0, 0.0, 0.0, 0.0, 0.0, 0.0, 0.0, 0.0, 1.7309143218932822E9, 0.0, 2024-11-06 14:32:01.893
82.0, -170644.39304404176, -66253.31983009813, -185379.1547273582, -187500.02235174447, -182062.08879495726, -179654.58239967615, -187500.02235174447, -181769.37034957056, 0.41200000000000003, 0.846, 0.428, 192.0, 12.0, 224.0, 26.0, 112.0, 13.0, 96.0, 0.0, 0.0, 0.0, 1.7309143218971252E9, 0.0, 2024-11-06 14:32:01.897
83.0, -168432.6655784447, -67991.23501673163, -185190.34954194422, -187500.02235174447, -175793.38560025522, -183164.11920358174, -187372.3268356713, -182871.78073785076, 0.41200000000000003, 0.846, 0.428, 192.0, 0.0, 0.0, 0.0, 0.0, 0.0, 0.0, 0.0, 0.0, 0.0, 1.7309143219032068E9, 0.0, 2024-11-06 14:32:01.903
84.0, -158842.71667512855, -66842.37770347329, -181433.98242401867, -187500.02235174447, -165701.23770251725, -187500.02235174447, -182399.77895018805, -187145.74720212785, 0.41200000000000003, 0.846, 0.428, 192.0, 0.0, 0.0, 0.0, 0.0, 0.0, 0.0, 0.0, 0.0, 0.0, 1.7309143219062645E9, 0.0, 2024-11-06 14:32:01.906
85.0, -159709.36086289416, -64811.6993679642, -181088.8938413732, -187500.02235174447, -170513.12124885575, -187500.02235174447, -183315.2169960996, -187052.2051515824, 0.41200000000000003, 0.846, 0.428, 192.0, 0.0, 0.0, 0.0, 0.0, 0.0, 0.0, 0.0, 0.0, 0.0, 1.730914321909281E9, 0.0, 2024-11-06 14:32:01.909
86.0, -170010.0281846557, -65841.44423502019, -184828.5195027017, -187500.02235174447, -181701.80102608216, -181066.11741377323, -187500.02235174447, -182356.6400833893, 0.41200000000000003, 0.846, 0.428, 192.0, 0.0, 0.0, 0.0, 0.0, 0.0, 0.0, 0.0, 0.0, 0.0, 1.7309143219122124E9, 0.0, 2024-11-06 14:32:01.912
87.0, -170294.61059506066, -67865.19352974815, -185637.54089326155, -187500.02235174447, -178129.9028551463, -181675.873002514, -187500.02235174447, -182223.02135503548, 0.41200000000000003, 0.846, 0.428, 192.0, 0.0, 0.0, 0.0, 0.0, 0.0, 0.0, 0.0, 0.0, 0.0, 1.7309143219171195E9, 0.0, 2024-11-06 14:32:01.917
88.0, -160799.8577713797, -67210.0191962742, -182031.7127742425, -187500.02235174447, -167182.0184209369, -187500.02235174447, -183222.85958801027, -186554.74472698508, 0.41200000000000003, 0.846, 0.428, 192.0, 0.0, 0.0, 0.0, 0.0, 0.0, 0.0, 0.0, 0.0, 0.0, 1.7309143219210596E9, 0.0, 2024-11-06 14:32:01.921
89.0, -158917.013873698, -64987.60759682746, -180709.11535133308, -187500.02235174447, -168861.5061475642, -187500.02235174447, -182482.5698116505, -187500.02235174447, 0.41200000000000003, 0.846, 0.428, 192.0, 0.0, 0.0, 0.0, 0.0, 0.0, 0.0, 0.0, 0.0, 0.0, 1.730914321925062E9, 0.0, 2024-11-06 14:32:01.925
90.0, -168966.15701510396, -65455.206090832486, -184153.3627096847, -187500.02235174447, -180745.52634305076, -182793.393170046, -187323.19770135853, -183127.1270665082, 0.41200000000000003, 0.846, 0.428, 192.0, 0.0, 0.0, 0.0, 0.0, 0.0, 0.0, 0.0, 0.0, 0.0, 1.7309143219290726E9, 0.0, 2024-11-06 14:32:01.929
91.0, -171906.1713702883, -67644.00066661843, -185942.8433707766, -187500.02235174447, -180287.71791311717, -180263.82389829445, -187500.02235174447, -181688.21116545334, 0.41200000000000003, 0.846, 0.428, 192.0, 0.0, 0.0, 0.0, 0.0, 0.0, 0.0, 0.0, 0.0, 0.0, 1.730914321932008E9, 0.0, 2024-11-06 14:32:01.932
92.0, -163033.48994654298, -67527.01163613936, -182718.5371778652, -187500.02235174447, -169093.02551663227, -187500.02235174447, -184182.53173619887, -185828.87182579897, 0.41000000000000003, 0.84, 0.428, 192.0, 12.0, 208.0, 26.0, 64.0, 13.0, 96.0, 0.0, 0.0, 0.0, 1.730914321936067E9, 0.0, 2024-11-06 14:32:01.936
93.0, -158592.22067501792, -65280.54955965872, -180510.8106745256, -187500.02235174447, -167590.1612746908, -187500.02235174447, -181862.55477220475, -187500.02235174447, 0.41000000000000003, 0.84, 0.428, 192.0, 0.0, 0.0, 0.0, 0.0, 0.0, 0.0, 0.0, 0.0, 0.0, 1.7309143219402049E9, 0.0, 2024-11-06 14:32:01.940
94.0, -167657.5294324791, -65136.760787577725, -183417.56563396045, -187500.02235174447, -179345.0330907146, -184540.29375795054, -186658.61328346888, -184020.6380511091, 0.41000000000000003, 0.84, 0.428, 192.0, 0.0, 0.0, 0.0, 0.0, 0.0, 0.0, 0.0, 0.0, 0.0, 1.7309143219452488E9, 0.0, 2024-11-06 14:32:01.945
95.0, -173080.06263733658, -67324.63894184101, -186050.95875870693, -187500.02235174447, -182027.9129776851, -179324.0671544155, -187500.02235174447, -181373.99034190064, 0.41000000000000003, 0.84, 0.428, 192.0, 0.0, 0.0, 0.0, 0.0, 0.0, 0.0, 0.0, 0.0, 0.0, 1.730914321949035E9, 0.0, 2024-11-06 14:32:01.949
96.0, -165396.2481494246, -67776.43475251613, -183438.15159060378, -187500.02235174447, -171298.85212169317, -186872.58653313955, -185164.53327709835, -185035.7201738024, 0.41000000000000003, 0.84, 0.428, 192.0, 0.0, 0.0, 0.0, 0.0, 0.0, 0.0, 0.0, 0.0, 0.0, 1.7309143219531877E9, 0.0, 2024-11-06 14:32:01.953
97.0, -158785.98794770098, -65654.58365137383, -180507.56967157958, -187500.02235174447, -166821.28361717268, -187500.02235174447, -181542.92482649387, -187500.02235174447, 0.41000000000000003, 0.84, 0.428, 192.0, 0.0, 0.0, 0.0, 0.0, 0.0, 0.0, 0.0, 0.0, 0.0, 1.7309143219572675E9, 0.0, 2024-11-06 14:32:01.957
98.0, -166302.43257313163, -64902.358043474924, -182717.7325150648, -187500.02235174447, -177713.8027803663, -185932.31569913815, -185859.53841919167, -184909.92455600793, 0.41000000000000003, 0.84, 0.428, 192.0, 0.0, 0.0, 0.0, 0.0, 0.0, 0.0, 0.0, 0.0, 0.0, 1.7309143219602656E9, 0.0, 2024-11-06 14:32:01.960
99.0, -173759.39920656674, -66948.86141405838, -185969.68781586742, -187500.02235174447, -183200.8878232107, -179036.17668583116, -187500.02235174447, -181294.70870431766, 0.41000000000000003, 0.84, 0.428, 192.0, 0.0, 0.0, 0.0, 0.0, 0.0, 0.0, 0.0, 0.0, 0.0, 1.730914321964328E9, 0.0, 2024-11-06 14:32:01.964
100.0, -167735.17939271682, -67927.89017294529, -184131.68151756306, -187500.02235174447, -173628.6862049921, -185858.24201801326, -186076.5291543638, -184214.5841377478, 0.41000000000000003, 0.84, 0.428, 192.0, 0.0, 0.0, 0.0, 0.0, 0.0, 0.0, 0.0, 0.0, 0.0, 1.7309143219683096E9, 0.0, 2024-11-06 14:32:01.968
101.0, -159508.5527907077, -66072.60597617697, -180690.58575517964, -187500.02235174447, -166626.8234404115, -187500.02235174447, -181580.90044032343, -187500.02235174447, 0.41000000000000003, 0.84, 0.428, 192.0, 0.0, 0.0, 0.0, 0.0, 0.0, 0.0, 0.0, 0.0, 0.0, 1.730914321973133E9, 0.0, 2024-11-06 14:32:01.973
102.0, -164938.0820915797, -64763.464303429646, -182045.99553894944, -187500.02235174447, -175882.39024667625, -186990.13435723, -184957.13144029755, -185769.90792392587, 0.41000000000000003, 0.84, 0.428, 192.0, 0.0, 0.0, 0.0, 0.0, 0.0, 0.0, 0.0, 0.0, 0.0, 1.7309143219771674E9, 0.0, 2024-11-06 14:32:01.977
103.0, -173977.48517721717, -66547.42408364106, -185702.47271090423, -187500.02235174447, -183811.24690905178, -179395.6821436503, -187500.02235174447, -181452.4226131943, 0.41200000000000003, 0.844, 0.426, 192.0, 12.0, 224.0, 26.0, 96.0, 13.0, 80.0, 0.0, 0.0, 0.0, 1.730914321981224E9, 0.0, 2024-11-06 14:32:01.981
104.0, -170008.9776526663, -67991.48088592064, -184781.8714120235, -187500.02235174447, -176033.5997979164, -184540.62903411736, -186859.93544577784, -183407.6861629112, 0.41200000000000003, 0.844, 0.426, 192.0, 0.0, 0.0, 0.0, 0.0, 0.0, 0.0, 0.0, 0.0, 0.0, 1.730914321985252E9, 0.0, 2024-11-06 14:32:01.985
105.0, -160754.77430281334, -66507.61562676617, -181064.86571608373, -187500.02235174447, -167047.66208501603, -187500.02235174447, -181934.90736900657, -187453.5977785108, 0.41200000000000003, 0.844, 0.426, 192.0, 0.0, 0.0, 0.0, 0.0, 0.0, 0.0, 0.0, 0.0, 0.0, 1.730914321988129E9, 0.0, 2024-11-06 14:32:01.988
106.0, -163635.08714855756, -64724.08052969939, -181450.61212189344, -187500.02235174447, -173932.28994992853, -187500.02235174447, -183988.85387049365, -186548.26272109305, 0.41200000000000003, 0.844, 0.426, 192.0, 0.0, 0.0, 0.0, 0.0, 0.0, 0.0, 0.0, 0.0, 0.0, 1.7309143219922037E9, 0.0, 2024-11-06 14:32:01.992
107.0, -173676.38482765973, -66119.72345348877, -185254.78962120888, -187500.02235174447, -183801.389789747, -180408.17146398683, -187500.02235174447, -181875.9658188779, 0.41200000000000003, 0.844, 0.426, 192.0, 0.0, 0.0, 0.0, 0.0, 0.0, 0.0, 0.0, 0.0, 0.0, 1.7309143219962485E9, 0.0, 2024-11-06 14:32:01.996
108.0, -172088.4721980658, -67947.42559759923, -185329.3550407118, -187500.02235174447, -178374.0956633205, -183102.718961563, -187480.73279627954, -182660.60145623703, 0.41200000000000003, 0.844, 0.426, 192.0, 0.0, 0.0, 0.0, 0.0, 0.0, 0.0, 0.0, 0.0, 0.0, 1.7309143220011423E9, 0.0, 2024-11-06 14:32:02.001
109.0, -162475.47864621624, -66921.45817535618, -181592.32218174008, -187500.02235174447, -168091.75677201233, -187500.02235174447, -182606.97962128874, -186969.59310407558, 0.41200000000000003, 0.844, 0.426, 192.0, 0.0, 0.0, 0.0, 0.0, 0.0, 0.0, 0.0, 0.0, 0.0, 1.7309143220052257E9, 0.0, 2024-11-06 14:32:02.005
110.0, -162609.32089201463, -64824.88689719283, -180976.77749118538, -187500.02235174447, -172086.371134087, -187500.02235174447, -183087.45272010003, -187173.59747571917, 0.41200000000000003, 0.844, 0.426, 192.0, 0.0, 0.0, 0.0, 0.0, 0.0, 0.0, 0.0, 0.0, 0.0, 1.7309143220092945E9, 0.0, 2024-11-06 14:32:02.009
111.0, -172889.73753329963, -65711.15591659021, -184652.5442186051, -187500.02235174447, -183193.86937545173, -181911.32627860623, -187500.02235174447, -182527.31800405003, 0.41200000000000003, 0.844, 0.426, 192.0, 0.0, 0.0, 0.0, 0.0, 0.0, 0.0, 0.0, 0.0, 0.0, 1.7309143220133185E9, 0.0, 2024-11-06 14:32:02.013
112.0, -173913.53683633052, -67806.47549706406, -185746.3938887589, -187500.02235174447, -180576.59185845757, -181661.36672036254, -187500.02235174447, -182015.03837287886, 0.41200000000000003, 0.844, 0.426, 192.0, 0.0, 0.0, 0.0, 0.0, 0.0, 0.0, 0.0, 0.0, 0.0, 1.7309143220161233E9, 0.0, 2024-11-06 14:32:02.016
113.0, -164498.89266477738, -67287.66915651193, -182212.8066078194, -187500.02235174447, -169596.2750430435, -187500.02235174447, -183454.6024745229, -186336.74816331247, 0.426, 0.842, 0.43, 192.0, 13.0, 80.0, 26.0, 80.0, 13.0, 112.0, 0.0, 0.0, 0.0, 1.73091432202011E9, 0.0, 2024-11-06 14:32:02.020
114.0, -161952.4701777065, -65039.933030597334, -180644.5858650906, -187500.02235174447, -170480.0406670619, -187500.02235174447, -182311.46720784513, -187500.02235174447, 0.426, 0.842, 0.43, 192.0, 0.0, 0.0, 0.0, 0.0, 0.0, 0.0, 0.0, 0.0, 0.0, 1.7309143220241888E9, 0.0, 2024-11-06 14:32:02.024
115.0, -171806.23672082863, -65364.4803600884, -183964.75868997083, -187500.02235174447, -182125.07601083233, -183517.9696700537, -187150.88810335257, -183317.1168943783, 0.426, 0.842, 0.43, 192.0, 0.0, 0.0, 0.0, 0.0, 0.0, 0.0, 0.0, 0.0, 0.0, 1.730914322028154E9, 0.0, 2024-11-06 14:32:02.028
116.0, -175382.6499441445, -67574.77731404034, -185999.46033948188, -187500.02235174447, -182447.34346238893, -180425.69523163978, -187500.02235174447, -181549.96562599728, 0.426, 0.842, 0.43, 192.0, 0.0, 0.0, 0.0, 0.0, 0.0, 0.0, 0.0, 0.0, 0.0, 1.730914322033114E9, 0.0, 2024-11-06 14:32:02.033
117.0, -166782.5256922872, -67602.91816030958, -182920.79811344127, -187500.02235174447, -171521.65431042365, -187489.31586615037, -184452.11612607434, -185604.77323589008, 0.426, 0.842, 0.43, 192.0, 0.0, 0.0, 0.0, 0.0, 0.0, 0.0, 0.0, 0.0, 0.0, 1.730914322037223E9, 0.0, 2024-11-06 14:32:02.037
118.0, -161742.16261412652, -65367.0284589563, -180506.38502912346, -187500.02235174447, -169234.7355764789, -187500.02235174447, -181782.80374798822, -187500.02235174447, 0.426, 0.842, 0.43, 192.0, 0.0, 0.0, 0.0, 0.0, 0.0, 0.0, 0.0, 0.0, 0.0, 1.7309143220401857E9, 0.0, 2024-11-06 14:32:02.040
119.0, -170476.2408705045, -65078.35567931601, -183253.1014982583, -187500.02235174447, -180662.0872809991, -185062.96695029343, -186471.7079963336, -184220.9320331731, 0.426, 0.842, 0.43, 192.0, 0.0, 0.0, 0.0, 0.0, 0.0, 0.0, 0.0, 0.0, 0.0, 1.730914322044176E9, 0.0, 2024-11-06 14:32:02.044
120.0, -176374.59801132657, -67260.44473176537, -186072.39408163956, -187500.02235174447, -183869.71907254687, -179648.79329786223, -187500.02235174447, -181305.63870735632, 0.426, 0.842, 0.43, 192.0, 0.0, 0.0, 0.0, 0.0, 0.0, 0.0, 0.0, 0.0, 0.0, 1.7309143220482924E9, 0.0, 2024-11-06 14:32:02.048
121.0, -169117.5677320442, -67839.95841025811, -183633.81876156555, -187500.02235174447, -173681.72689458454, -186743.03582227658, -185421.19835867864, -184813.5214821722, 0.426, 0.842, 0.43, 192.0, 0.0, 0.0, 0.0, 0.0, 0.0, 0.0, 0.0, 0.0, 0.0, 1.7309143220523171E9, 0.0, 2024-11-06 14:32:02.052
122.0, -162028.91314374367, -65766.9235190062, -180542.90777956342, -187500.02235174447, -168514.51766664002, -187500.02235174447, -181545.2047044283, -187500.02235174447, 0.426, 0.842, 0.43, 192.0, 0.0, 0.0, 0.0, 0.0, 0.0, 0.0, 0.0, 0.0, 0.0, 1.7309143220562136E9, 0.0, 2024-11-06 14:32:02.056
123.0, -169058.9614580824, -64869.925662270274, -182546.71931823724, -187500.02235174447, -178934.96798693752, -186320.02905845988, -185636.28919557206, -185127.3399743247, 0.422, 0.838, 0.43, 192.0, 13.0, 48.0, 26.0, 48.0, 13.0, 112.0, 0.0, 0.0, 0.0, 1.730914322061272E9, 0.0, 2024-11-06 14:32:02.061
124.0, -176910.57049162037, -66891.41743080824, -185947.40312664548, -187500.02235174447, -184790.83446155005, -179500.9141565459, -187500.02235174447, -181282.86227975634, 0.422, 0.838, 0.43, 192.0, 0.0, 0.0, 0.0, 0.0, 0.0, 0.0, 0.0, 0.0, 0.0, 1.7309143220653725E9, 0.0, 2024-11-06 14:32:02.065
125.0, -171447.0218356874, -67994.81129584447, -184335.261206062, -187500.02235174447, -175973.786529754, -185700.43870215878, -186301.61122102872, -183987.53511757078, 0.422, 0.838, 0.43, 192.0, 0.0, 0.0, 0.0, 0.0, 0.0, 0.0, 0.0, 0.0, 0.0, 1.7309143220681674E9, 0.0, 2024-11-06 14:32:02.068
126.0, -162878.7488196789, -66208.19165804287, -180782.18320395748, -187500.02235174447, -168411.31966248987, -187500.02235174447, -181675.89535425848, -187500.02235174447, 0.422, 0.838, 0.43, 192.0, 0.0, 0.0, 0.0, 0.0, 0.0, 0.0, 0.0, 0.0, 0.0, 1.7309143220721655E9, 0.0, 2024-11-06 14:32:02.072
127.0, -167676.95309841074, -64766.8394168424, -181889.44392078448, -187500.02235174447, -177039.92003678324, -187239.8927497736, -184732.6528707329, -185973.97935080284, 0.422, 0.838, 0.43, 192.0, 0.0, 0.0, 0.0, 0.0, 0.0, 0.0, 0.0, 0.0, 0.0, 1.73091432207623E9, 0.0, 2024-11-06 14:32:02.076
128.0, -176924.54033190495, -66500.17249586254, -185627.59436697894, -187500.02235174447, -185132.1008958937, -180000.74386605548, -187500.02235174447, -181533.35827986698, 0.422, 0.838, 0.43, 192.0, 0.0, 0.0, 0.0, 0.0, 0.0, 0.0, 0.0, 0.0, 0.0, 1.730914322080404E9, 0.0, 2024-11-06 14:32:02.080
129.0, -173610.91656815013, -68054.17752911778, -184955.38800423004, -187500.02235174447, -178250.19994380474, -184416.24157622358, -187029.92046236046, -183215.1035326843, 0.422, 0.838, 0.43, 192.0, 0.0, 0.0, 0.0, 0.0, 0.0, 0.0, 0.0, 0.0, 0.0, 1.7309143220843549E9, 0.0, 2024-11-06 14:32:02.084
130.0, -164213.37148110528, -66658.17697741711, -181197.63507814828, -187500.02235174447, -168935.19984903335, -187500.02235174447, -182123.489036976, -187323.13064612518, 0.422, 0.838, 0.43, 192.0, 0.0, 0.0, 0.0, 0.0, 0.0, 0.0, 0.0, 0.0, 0.0, 1.7309143220893977E9, 0.0, 2024-11-06 14:32:02.089
131.0, -166383.03296363747, -64780.56338793795, -181310.28787020303, -187500.02235174447, -175072.9218212273, -187500.02235174447, -183770.99141728776, -186722.2263481887, 0.422, 0.838, 0.43, 192.0, 0.0, 0.0, 0.0, 0.0, 0.0, 0.0, 0.0, 0.0, 0.0, 1.7309143220933232E9, 0.0, 2024-11-06 14:32:02.093
132.0, -176409.77965709922, -66089.07921184054, -185121.3050033218, -187500.02235174447, -184900.20154716988, -181132.81501922788, -187500.02235174447, -182043.9168267151, 0.422, 0.838, 0.43, 192.0, 0.0, 0.0, 0.0, 0.0, 0.0, 0.0, 0.0, 0.0, 0.0, 1.730914322096351E9, 0.0, 2024-11-06 14:32:02.096
133.0, -175581.58046979673, -68023.89091538083, -185485.19140305417, -187500.02235174447, -180472.74565371822, -182979.1808699585, -187500.02235174447, -182488.9624105647, 0.424, 0.838, 0.428, 192.0, 13.0, 64.0, 26.0, 48.0, 13.0, 96.0, 0.0, 0.0, 0.0, 1.7309143221003926E9, 0.0, 2024-11-06 14:32:02.100
134.0, -165967.71519991342, -67091.4878954277, -181751.48895400632, -187500.02235174447, -170022.27694061722, -187500.02235174447, -182837.06847871168, -186811.76743647666, 0.424, 0.838, 0.428, 192.0, 0.0, 0.0, 0.0, 0.0, 0.0, 0.0, 0.0, 0.0, 0.0, 1.73091432210445E9, 0.0, 2024-11-06 14:32:02.104
135.0, -165424.41134743826, -64930.185965321776, -180888.26458314236, -187500.02235174447, -173265.42565410445, -187500.02235174447, -182922.69801171994, -187283.34454099473, 0.424, 0.838, 0.428, 192.0, 0.0, 0.0, 0.0, 0.0, 0.0, 0.0, 0.0, 0.0, 0.0, 1.7309143221083882E9, 0.0, 2024-11-06 14:32:02.108
136.0, -175530.08205057168, -65721.52712601748, -184517.69614430622, -187500.02235174447, -184182.68819841006, -182564.22073414575, -187500.02235174447, -182724.9744802683, 0.424, 0.838, 0.428, 192.0, 0.0, 0.0, 0.0, 0.0, 0.0, 0.0, 0.0, 0.0, 0.0, 1.7309143221123323E9, 0.0, 2024-11-06 14:32:02.112
137.0, -177186.05574203204, -67885.19834103565, -185872.01069259772, -187500.02235174447, -182421.9071771988, -181619.9265861424, -187500.02235174447, -181888.46044402843, 0.424, 0.838, 0.428, 192.0, 0.0, 0.0, 0.0, 0.0, 0.0, 0.0, 0.0, 0.0, 0.0, 1.730914322117328E9, 0.0, 2024-11-06 14:32:02.117
