%OpenBCI Raw EXG Data
%Number of channels = 8
%Sample Rate = 250 Hz
%Board = OpenBCI_GUI$BoardCytonSerial
Sample Index, EXG Channel 0, EXG Channel 1, EXG Channel 2, EXG Channel 3, EXG Channel 4, EXG Channel 5, EXG Channel 6, EXG Channel 7, Accel Channel 0, Accel Channel 1, Accel Channel 2, Not Used, Digital Channel 0 (D11), Digital Channel 1 (D12), Digital Channel 2 (D13), Digital Channel 3 (D17), Not Used, Digital Channel 4 (D18), Analog Channel 0, Analog Channel 1, Analog Channel 2, Timestamp, Marker Channel, Timestamp (Formatted)
0.0, -182302.19123389618, -182355.85777233337, -182502.50756770463, -182532.30244306356, -182485.87786982988, -182424.5446830445, -182622.29056624064, -182513.1917015543, -0.04, 0.484, 0.2, 192.0, 254.0, 192.0, 15.0, 32.0, 6.0, 64.0, 0.0, 0.0, 0.0, 1.730845297645558E9, 0.0, 2024-11-05 19:21:37.645
1.0, -182303.9346699637, -182357.60120840088, -182504.29570726107, -182533.97882389772, -182487.6660093863, -182426.2657673676, -182624.01165056368, -182514.8904341329, -0.04, 0.484, 0.2, 192.0, 0.0, 0.0, 0.0, 0.0, 0.0, 0.0, 0.0, 0.0, 0.0, 1.7308452976486604E9, 0.0, 2024-11-05 19:21:37.648
2.0, -182306.61687929832, -182360.2834177355, -182507.0226200846, -182536.79514369907, -182490.30351523205, -182428.88092146887, -182626.87267385397, -182517.59499521198, -0.04, 0.484, 0.2, 192.0, 0.0, 0.0, 0.0, 0.0, 0.0, 0.0, 0.0, 0.0, 0.0, 1.730845297652557E9, 0.0, 2024-11-05 19:21:37.652
3.0, -182308.20385315464, -182361.87039159186, -182508.60959394093, -182538.44917278877, -182491.8681373439, -182430.5125988141, -182628.52670294367, -182519.24902430165, -0.04, 0.484, 0.2, 192.0, 0.0, 0.0, 0.0, 0.0, 0.0, 0.0, 0.0, 0.0, 0.0, 1.7308452976565735E9, 0.0, 2024-11-05 19:21:37.656
4.0, -182311.6907252897, -182365.31256023797, -182512.00705909813, -182541.80193445706, -182495.31030599002, -182433.97711920468, -182631.83476112306, -182522.66884120333, -0.04, 0.484, 0.2, 192.0, 0.0, 0.0, 0.0, 0.0, 0.0, 0.0, 0.0, 0.0, 0.0, 1.730845297659628E9, 0.0, 2024-11-05 19:21:37.659
5.0, -182316.7422195366, -182370.27464750703, -182517.1256085784, -182546.85342870397, -182500.40650372583, -182439.0062617071, -182636.8639036255, -182527.69798370576, -0.04, 0.484, 0.2, 192.0, 0.0, 0.0, 0.0, 0.0, 0.0, 0.0, 0.0, 0.0, 0.0, 1.7308452976636746E9, 0.0, 2024-11-05 19:21:37.663
6.0, -182317.92686199272, -182371.548696941, -182518.39965801235, -182548.082774649, -182501.70290490426, -182440.19090416323, -182638.2050082928, -182529.01673662863, -0.04, 0.484, 0.2, 192.0, 0.0, 0.0, 0.0, 0.0, 0.0, 0.0, 0.0, 0.0, 0.0, 1.7308452976675537E9, 0.0, 2024-11-05 19:21:37.667
7.0, -182319.80440852695, -182373.51565045308, -182520.45601850224, -182549.9826729277, -182503.5804514385, -182442.18020941978, -182640.0154995937, -182531.00604188515, -0.07, 0.722, 0.28800000000000003, 192.0, 253.0, 208.0, 22.0, 144.0, 9.0, 0.0, 0.0, 0.0, 0.0, 1.730845297671665E9, 0.0, 2024-11-05 19:21:37.671
8.0, -182323.55950159545, -182377.18133654373, -182524.12170459292, -182553.7377659962, -182507.24613752918, -182445.93530248824, -182643.7035374288, -182534.60467274245, -0.07, 0.722, 0.28800000000000003, 192.0, 0.0, 0.0, 0.0, 0.0, 0.0, 0.0, 0.0, 0.0, 0.0, 1.7308452976756444E9, 0.0, 2024-11-05 19:21:37.675
9.0, -182324.20770218465, -182377.87424062184, -182524.6804982043, -182554.3412630965, -182507.9390416073, -182446.42704086629, -182644.37408976248, -182535.16346635384, -0.07, 0.722, 0.28800000000000003, 192.0, 0.0, 0.0, 0.0, 0.0, 0.0, 0.0, 0.0, 0.0, 0.0, 1.730845297680592E9, 0.0, 2024-11-05 19:21:37.680
10.0, -182327.09107721937, -182380.66820867875, -182527.56387323904, -182557.2916933646, -182510.75536140864, -182449.35511938992, -182647.3021682861, -182538.06919313304, -0.07, 0.722, 0.28800000000000003, 192.0, 0.0, 0.0, 0.0, 0.0, 0.0, 0.0, 0.0, 0.0, 0.0, 1.730845297685594E9, 0.0, 2024-11-05 19:21:37.685
11.0, -182330.0862109764, -182383.7974529025, -182530.64841397386, -182560.35388235498, -182513.8399021435, -182452.48436361365, -182650.38670902094, -182541.17608561233, -0.07, 0.722, 0.28800000000000003, 192.0, 0.0, 0.0, 0.0, 0.0, 0.0, 0.0, 0.0, 0.0, 0.0, 1.7308452976895163E9, 0.0, 2024-11-05 19:21:37.689
12.0, -182332.38844065528, -182386.18908955922, -182533.0847541195, -182562.6784637783, -182516.1421318224, -182454.85364852592, -182652.59953172202, -182543.50066703567, -0.07, 0.722, 0.28800000000000003, 192.0, 0.0, 0.0, 0.0, 0.0, 0.0, 0.0, 0.0, 0.0, 0.0, 1.7308452976925533E9, 0.0, 2024-11-05 19:21:37.692
13.0, -182334.66831858974, -182388.26780179355, -182535.20816984275, -182564.80187950158, -182518.39965801235, -182456.95471250472, -182654.74529918973, -182545.78054497013, -0.07, 0.722, 0.28800000000000003, 192.0, 0.0, 0.0, 0.0, 0.0, 0.0, 0.0, 0.0, 0.0, 0.0, 1.7308452976955717E9, 0.0, 2024-11-05 19:21:37.695
14.0, -182337.10465873536, -182390.61473496136, -182537.44334428827, -182567.12646092492, -182520.7912946691, -182459.25694218362, -182657.1592875909, -182548.12747813793, -0.07, 0.722, 0.28800000000000003, 192.0, 0.0, 0.0, 0.0, 0.0, 0.0, 0.0, 0.0, 0.0, 0.0, 1.730845297699554E9, 0.0, 2024-11-05 19:21:37.699
15.0, -182340.03273725903, -182393.47575825165, -182540.23731234518, -182570.00983595967, -182523.67466970382, -182462.14031721835, -182660.13206960345, -182550.85439096147, -0.07, 0.722, 0.28800000000000003, 192.0, 0.0, 0.0, 0.0, 0.0, 0.0, 0.0, 0.0, 0.0, 0.0, 1.7308452977035973E9, 0.0, 2024-11-05 19:21:37.703
16.0, -182344.74895533908, -182398.34843854292, -182545.13234438092, -182574.92721973982, -182528.4802947617, -182466.99064576515, -182664.98239815026, -182555.77177474165, -0.07, 0.722, 0.28800000000000003, 192.0, 0.0, 0.0, 0.0, 0.0, 0.0, 0.0, 0.0, 0.0, 0.0, 1.7308452977086267E9, 0.0, 2024-11-05 19:21:37.708
17.0, -182347.31940595145, -182401.052999622, -182547.85925720446, -182577.58707733, -182531.09544886296, -182469.62815161087, -182667.59755225154, -182558.45398407627, -0.092, 0.8280000000000001, 0.34600000000000003, 192.0, 253.0, 32.0, 25.0, 224.0, 10.0, 208.0, 0.0, 0.0, 0.0, 1.7308452977126727E9, 0.0, 2024-11-05 19:21:37.712
18.0, -182349.4428216747, -182403.10936011188, -182550.00502467217, -182579.71049305328, -182533.19651284177, -182471.70686384523, -182669.7209679748, -182560.5773997995, -0.092, 0.8280000000000001, 0.34600000000000003, 192.0, 0.0, 0.0, 0.0, 0.0, 0.0, 0.0, 0.0, 0.0, 0.0, 1.730845297715592E9, 0.0, 2024-11-05 19:21:37.715
19.0, -182354.22609498815, -182408.02674389206, -182554.8330014745, -182584.51611811115, -182538.06919313304, -182476.62424762538, -182674.72775873277, -182565.4947835797, -0.092, 0.8280000000000001, 0.34600000000000003, 192.0, 0.0, 0.0, 0.0, 0.0, 0.0, 0.0, 0.0, 0.0, 0.0, 1.7308452977196093E9, 0.0, 2024-11-05 19:21:37.719
20.0, -182357.1318217673, -182410.91011892678, -182557.6940247648, -182587.3994931459, -182540.90786467885, -182479.57467789348, -182677.52172678968, -182568.31110338107, -0.092, 0.8280000000000001, 0.34600000000000003, 192.0, 0.0, 0.0, 0.0, 0.0, 0.0, 0.0, 0.0, 0.0, 0.0, 1.730845297723705E9, 0.0, 2024-11-05 19:21:37.723
21.0, -182360.61869390236, -182414.41934280627, -182561.1808968998, -182590.86401353645, -182544.37238506944, -182483.03919828407, -182680.82978496907, -182571.77562377162, -0.092, 0.8280000000000001, 0.34600000000000003, 192.0, 0.0, 0.0, 0.0, 0.0, 0.0, 0.0, 0.0, 0.0, 0.0, 1.730845297727598E9, 0.0, 2024-11-05 19:21:37.727
22.0, -182362.9879788146, -182416.74392422964, -182563.4831265787, -182593.23329844873, -182546.74166998168, -182485.43083494078, -182683.24377337025, -182574.1449086839, -0.092, 0.8280000000000001, 0.34600000000000003, 192.0, 0.0, 0.0, 0.0, 0.0, 0.0, 0.0, 0.0, 0.0, 0.0, 1.730845297731685E9, 0.0, 2024-11-05 19:21:37.731
23.0, -182362.22801950312, -182415.91690968478, -182562.72316726725, -182592.42863564834, -182546.00406241466, -182484.60382039595, -182682.68497975887, -182573.40730111688, -0.092, 0.8280000000000001, 0.34600000000000003, 192.0, 0.0, 0.0, 0.0, 0.0, 0.0, 0.0, 0.0, 0.0, 0.0, 1.7308452977366364E9, 0.0, 2024-11-05 19:21:37.736
24.0, -182365.42431896023, -182419.11320914188, -182565.9865219577, -182595.66963859435, -182549.2897688496, -182487.88952683087, -182685.88127921597, -182576.603600574, -0.092, 0.8280000000000001, 0.34600000000000003, 192.0, 0.0, 0.0, 0.0, 0.0, 0.0, 0.0, 0.0, 0.0, 0.0, 1.730845297739653E9, 0.0, 2024-11-05 19:21:37.739
25.0, -182368.97824632862, -182422.62243302137, -182569.3839871149, -182599.1565107294, -182552.77664098464, -182491.30934373254, -182689.21168913983, -182580.11282445348, -0.092, 0.8280000000000001, 0.34600000000000003, 192.0, 0.0, 0.0, 0.0, 0.0, 0.0, 0.0, 0.0, 0.0, 0.0, 1.7308452977426748E9, 0.0, 2024-11-05 19:21:37.742
26.0, -182369.8052608735, -182423.47179931068, -182570.25570514868, -182600.07293225205, -182553.64835901838, -182492.1140065329, -182690.1728141514, -182581.02924597613, -0.092, 0.8280000000000001, 0.34600000000000003, 192.0, 0.0, 0.0, 0.0, 0.0, 0.0, 0.0, 0.0, 0.0, 0.0, 1.730845297747622E9, 0.0, 2024-11-05 19:21:37.747
27.0, -182372.26395276358, -182426.08695341196, -182572.82615576102, -182602.71043809777, -182556.17410614184, -182494.75151237866, -182692.85502348604, -182583.5549930996, -0.106, 0.876, 0.378, 192.0, 252.0, 176.0, 27.0, 96.0, 11.0, 208.0, 0.0, 0.0, 0.0, 1.7308452977516725E9, 0.0, 2024-11-05 19:21:37.751
28.0, -182378.03070283303, -182431.83135173697, -182578.57055408604, -182608.38778118943, -182561.80674574457, -182500.56296593702, -182698.59942181106, -182589.2993914246, -0.106, 0.876, 0.378, 192.0, 0.0, 0.0, 0.0, 0.0, 0.0, 0.0, 0.0, 0.0, 0.0, 1.7308452977557902E9, 0.0, 2024-11-05 19:21:37.755
29.0, -182381.4952232236, -182435.18411340527, -182581.9456674988, -182611.71819111326, -182565.27126613515, -182503.96043109422, -182701.90747999042, -182592.71920832625, -0.106, 0.876, 0.378, 192.0, 0.0, 0.0, 0.0, 0.0, 0.0, 0.0, 0.0, 0.0, 0.0, 1.7308452977596817E9, 0.0, 2024-11-05 19:21:37.759
30.0, -182382.0987203239, -182435.69820352772, -182582.48210936572, -182612.20992949128, -182565.7853562576, -182504.45216947226, -182702.4662736018, -182593.16624321535, -0.106, 0.876, 0.378, 192.0, 0.0, 0.0, 0.0, 0.0, 0.0, 0.0, 0.0, 0.0, 0.0, 1.7308452977637136E9, 0.0, 2024-11-05 19:21:37.763
31.0, -182385.0044471031, -182438.78274426257, -182585.4995948672, -182615.2497667372, -182568.82519350352, -182507.49200671818, -182705.59551782557, -182596.2954874391, -0.106, 0.876, 0.378, 192.0, 0.0, 0.0, 0.0, 0.0, 0.0, 0.0, 0.0, 0.0, 0.0, 1.7308452977677705E9, 0.0, 2024-11-05 19:21:37.767
32.0, -182386.4573104927, -182440.14620067432, -182586.93010651233, -182616.7026301268, -182570.21100165977, -182508.90016661887, -182706.93662249288, -182597.65894385087, -0.106, 0.876, 0.378, 192.0, 0.0, 0.0, 0.0, 0.0, 0.0, 0.0, 0.0, 0.0, 0.0, 1.7308452977707453E9, 0.0, 2024-11-05 19:21:37.770
33.0, -182388.5583744715, -182442.22491290868, -182588.98646700222, -182618.75899061668, -182572.37912087192, -182511.00123059764, -182708.9259277494, -182599.71530434076, -0.106, 0.876, 0.378, 192.0, 0.0, 0.0, 0.0, 0.0, 0.0, 0.0, 0.0, 0.0, 0.0, 1.7308452977758052E9, 0.0, 2024-11-05 19:21:37.775
34.0, -182394.12395884085, -182447.7681455336, -182594.52969962714, -182624.3469267305, -182577.92235349683, -182516.4774079892, -182714.4691603743, -182605.19148173233, -0.106, 0.876, 0.378, 192.0, 0.0, 0.0, 0.0, 0.0, 0.0, 0.0, 0.0, 0.0, 0.0, 1.730845297779683E9, 0.0, 2024-11-05 19:21:37.779
35.0, -182396.6050024754, -182450.3162444015, -182597.18955721732, -182626.87267385397, -182580.42574887583, -182518.95845162374, -182717.1737214534, -182607.85133932251, -0.106, 0.876, 0.378, 192.0, 0.0, 0.0, 0.0, 0.0, 0.0, 0.0, 0.0, 0.0, 0.0, 1.7308452977837143E9, 0.0, 2024-11-05 19:21:37.783
36.0, -182400.33774379943, -182453.98193049215, -182600.92229854135, -182630.4936564557, -182584.11378671098, -182522.64648945886, -182720.90646277744, -182611.60643239098, -0.106, 0.876, 0.378, 192.0, 0.0, 0.0, 0.0, 0.0, 0.0, 0.0, 0.0, 0.0, 0.0, 1.730845297787814E9, 0.0, 2024-11-05 19:21:37.787
37.0, -182403.31052581198, -182456.99941599363, -182603.89508055392, -182633.53349370166, -182587.13127221243, -182525.70867844924, -182723.76748606772, -182614.57921440355, -0.116, 0.874, 0.394, 192.0, 252.0, 96.0, 27.0, 80.0, 12.0, 80.0, 0.0, 0.0, 0.0, 1.7308452977928288E9, 0.0, 2024-11-05 19:21:37.792
38.0, -182405.14336885733, -182458.78755555005, -182605.52675789915, -182635.2992815136, -182588.83000479103, -182527.45211451675, -182725.4885703908, -182616.23324349325, -0.116, 0.874, 0.394, 192.0, 0.0, 0.0, 0.0, 0.0, 0.0, 0.0, 0.0, 0.0, 0.0, 1.7308452977957203E9, 0.0, 2024-11-05 19:21:37.795
39.0, -182406.23860433564, -182459.9721980062, -182606.73375209974, -182636.41686873639, -182589.9475920138, -182528.6367569729, -182726.76261982473, -182617.39553420493, -0.116, 0.874, 0.394, 192.0, 0.0, 0.0, 0.0, 0.0, 0.0, 0.0, 0.0, 0.0, 0.0, 1.730845297798797E9, 0.0, 2024-11-05 19:21:37.798
40.0, -182408.04909563652, -182461.73798581815, -182608.61129863397, -182638.27206352618, -182591.8027868036, -182530.42489652932, -182728.61781461452, -182619.27308073916, -0.116, 0.874, 0.394, 192.0, 0.0, 0.0, 0.0, 0.0, 0.0, 0.0, 0.0, 0.0, 0.0, 1.7308452978036776E9, 0.0, 2024-11-05 19:21:37.803
41.0, -182411.82654044946, -182465.60483760893, -182612.41109519138, -182642.1165635725, -182595.62493510544, -182534.29174832007, -182732.41761117193, -182623.095229041, -0.116, 0.874, 0.394, 192.0, 0.0, 0.0, 0.0, 0.0, 0.0, 0.0, 0.0, 0.0, 0.0, 1.730845297807813E9, 0.0, 2024-11-05 19:21:37.807
42.0, -182412.96647941667, -182466.76712832061, -182613.43927543634, -182643.2117990508, -182596.78722581713, -182535.45403903176, -182733.5351983947, -182624.21281626378, -0.116, 0.874, 0.394, 192.0, 0.0, 0.0, 0.0, 0.0, 0.0, 0.0, 0.0, 0.0, 0.0, 1.7308452978117447E9, 0.0, 2024-11-05 19:21:37.811
43.0, -182416.6545172518, -182470.32105568898, -182616.99320280473, -182646.89983688592, -182600.34115318552, -182538.96326291125, -182737.133829252, -182627.6996883988, -0.116, 0.874, 0.394, 192.0, 0.0, 0.0, 0.0, 0.0, 0.0, 0.0, 0.0, 0.0, 0.0, 1.730845297815688E9, 0.0, 2024-11-05 19:21:37.815
44.0, -182420.36490683138, -182474.05379701304, -182620.83770285104, -182650.6102264655, -182604.11859799846, -182542.71835597974, -182740.95597755385, -182631.4100779784, -0.116, 0.874, 0.394, 192.0, 0.0, 0.0, 0.0, 0.0, 0.0, 0.0, 0.0, 0.0, 0.0, 1.730845297820714E9, 0.0, 2024-11-05 19:21:37.820
45.0, -182423.4494475662, -182477.09363425896, -182623.96694707478, -182653.73947068924, -182607.20313873328, -182545.80289671457, -182743.99581479977, -182634.62872917997, -0.116, 0.874, 0.394, 192.0, 0.0, 0.0, 0.0, 0.0, 0.0, 0.0, 0.0, 0.0, 0.0, 1.7308452978237977E9, 0.0, 2024-11-05 19:21:37.823
46.0, -182427.316299357, -182480.8710790719, -182627.7443918877, -182657.5616189911, -182611.0029352907, -182549.64739676088, -182747.72855612382, -182638.54028445962, -0.116, 0.874, 0.394, 192.0, 0.0, 0.0, 0.0, 0.0, 0.0, 0.0, 0.0, 0.0, 0.0, 1.7308452978279629E9, 0.0, 2024-11-05 19:21:37.827
47.0, -182428.12096215738, -182481.7651488501, -182628.593758177, -182658.38863353594, -182611.82994983555, -182550.49676305018, -182748.57792241313, -182639.38965074893, -0.11800000000000001, 0.888, 0.402, 192.0, 252.0, 80.0, 27.0, 192.0, 12.0, 144.0, 0.0, 0.0, 0.0, 1.7308452978318148E9, 0.0, 2024-11-05 19:21:37.831
48.0, -182430.17732264727, -182483.79915759555, -182630.73952564475, -182660.5120492592, -182613.84160683653, -182552.4860683067, -182750.76839336974, -182641.37895600547, -0.11800000000000001, 0.888, 0.402, 192.0, 0.0, 0.0, 0.0, 0.0, 0.0, 0.0, 0.0, 0.0, 0.0, 1.7308452978357897E9, 0.0, 2024-11-05 19:21:37.835
49.0, -182432.12192441488, -182485.7214076187, -182632.5947204345, -182662.367244049, -182615.71915337077, -182554.3859665854, -182752.64593990397, -182643.2565025397, -0.11800000000000001, 0.888, 0.402, 192.0, 0.0, 0.0, 0.0, 0.0, 0.0, 0.0, 0.0, 0.0, 0.0, 1.730845297839782E9, 0.0, 2024-11-05 19:21:37.839
50.0, -182434.2006366492, -182487.88952683087, -182634.78519139116, -182664.4683080278, -182617.97667956076, -182556.4870305642, -182754.61289341605, -182645.3575665185, -0.11800000000000001, 0.888, 0.402, 192.0, 0.0, 0.0, 0.0, 0.0, 0.0, 0.0, 0.0, 0.0, 0.0, 1.7308452978437624E9, 0.0, 2024-11-05 19:21:37.843
51.0, -182437.28517738407, -182490.99641931016, -182637.82502863707, -182667.59755225154, -182621.03886855114, -182559.57157129905, -182757.74213763978, -182648.4644589978, -0.11800000000000001, 0.888, 0.402, 192.0, 0.0, 0.0, 0.0, 0.0, 0.0, 0.0, 0.0, 0.0, 0.0, 1.7308452978478265E9, 0.0, 2024-11-05 19:21:37.847
52.0, -182441.37554661938, -182494.9750298232, -182641.89304612792, -182671.6655697424, -182625.12923778646, -182563.66194053437, -182761.94426559738, -182652.55482823311, -0.11800000000000001, 0.888, 0.402, 192.0, 0.0, 0.0, 0.0, 0.0, 0.0, 0.0, 0.0, 0.0, 0.0, 1.7308452978509552E9, 0.0, 2024-11-05 19:21:37.850
53.0, -182443.99070072063, -182497.65723915782, -182644.4634967403, -182674.28072384367, -182627.76674363218, -182566.36650161346, -182764.626474932, -182655.19233407883, -0.11800000000000001, 0.888, 0.402, 192.0, 0.0, 0.0, 0.0, 0.0, 0.0, 0.0, 0.0, 0.0, 0.0, 1.7308452978549123E9, 0.0, 2024-11-05 19:21:37.854
54.0, -182447.09759319993, -182500.74177989268, -182647.54803747512, -182677.43231981187, -182630.91833960038, -182569.47339409273, -182767.66631217796, -182658.3215783026, -0.11800000000000001, 0.888, 0.402, 192.0, 0.0, 0.0, 0.0, 0.0, 0.0, 0.0, 0.0, 0.0, 0.0, 1.730845297859804E9, 0.0, 2024-11-05 19:21:37.859
55.0, -182451.03150022405, -182504.80979738352, -182651.59370322153, -182681.29917160264, -182634.82989488007, -182573.42965286132, -182771.5778674576, -182662.30018881563, -0.11800000000000001, 0.888, 0.402, 192.0, 0.0, 0.0, 0.0, 0.0, 0.0, 0.0, 0.0, 0.0, 0.0, 1.730845297863836E9, 0.0, 2024-11-05 19:21:37.863
56.0, -182452.4173083803, -182506.15090205087, -182652.9124561444, -182682.64027626996, -182636.12629605847, -182574.7037022953, -182773.0307308472, -182663.70834871632, -0.11800000000000001, 0.888, 0.402, 192.0, 0.0, 0.0, 0.0, 0.0, 0.0, 0.0, 0.0, 0.0, 0.0, 1.730845297867842E9, 0.0, 2024-11-05 19:21:37.867
57.0, -182454.49602061464, -182508.09550381848, -182654.9241131454, -182684.76369199323, -182638.2497117817, -182576.78241452962, -182775.15414657048, -182665.67530222837, -0.116, 0.89, 0.402, 192.0, 252.0, 96.0, 27.0, 208.0, 12.0, 144.0, 0.0, 0.0, 0.0, 1.7308452978718832E9, 0.0, 2024-11-05 19:21:37.871
58.0, -182457.20058169373, -182510.84476838648, -182657.60632248002, -182687.4235495834, -182640.864865883, -182579.4869756087, -182777.70224543838, -182668.33515981855, -0.116, 0.89, 0.402, 192.0, 0.0, 0.0, 0.0, 0.0, 0.0, 0.0, 0.0, 0.0, 0.0, 1.7308452978758495E9, 0.0, 2024-11-05 19:21:37.875
59.0, -182462.14031721835, -182515.89626263338, -182662.65781672692, -182692.40798859694, -182645.89400838542, -182584.51611811115, -182782.7537396853, -182673.34195057655, -0.116, 0.89, 0.402, 192.0, 0.0, 0.0, 0.0, 0.0, 0.0, 0.0, 0.0, 0.0, 0.0, 1.7308452978787973E9, 0.0, 2024-11-05 19:21:37.878
60.0, -182463.63788409685, -182517.4832364897, -182664.24479058324, -182693.95025896435, -182647.48098224177, -182586.08074022303, -182784.27365830823, -182674.86186919952, -0.116, 0.89, 0.402, 192.0, 0.0, 0.0, 0.0, 0.0, 0.0, 0.0, 0.0, 0.0, 0.0, 1.7308452978827488E9, 0.0, 2024-11-05 19:21:37.882
61.0, -182465.60483760893, -182519.2937277906, -182666.14468886194, -182695.7607502652, -182649.29147354263, -182587.98063850173, -182786.26296356478, -182676.80647096713, -0.116, 0.89, 0.402, 192.0, 0.0, 0.0, 0.0, 0.0, 0.0, 0.0, 0.0, 0.0, 0.0, 1.7308452978878067E9, 0.0, 2024-11-05 19:21:37.887
62.0, -182468.13058473237, -182521.81947491402, -182668.6704359854, -182698.35355262205, -182651.83957241054, -182590.43933039182, -182788.6993037104, -182679.33221809057, -0.116, 0.89, 0.402, 192.0, 0.0, 0.0, 0.0, 0.0, 0.0, 0.0, 0.0, 0.0, 0.0, 1.7308452978918653E9, 0.0, 2024-11-05 19:21:37.891
63.0, -182469.62815161087, -182523.36174528144, -182670.1680028639, -182699.94052647837, -182653.33713928904, -182591.98160075923, -182790.12981535553, -182680.82978496907, -0.116, 0.89, 0.402, 192.0, 0.0, 0.0, 0.0, 0.0, 0.0, 0.0, 0.0, 0.0, 0.0, 1.730845297895918E9, 0.0, 2024-11-05 19:21:37.895
64.0, -182472.24330571215, -182525.86514066043, -182672.82786045407, -182702.51097709071, -182655.92994164585, -182594.5520513716, -182792.87907992353, -182683.37788383698, -0.116, 0.89, 0.402, 192.0, 0.0, 0.0, 0.0, 0.0, 0.0, 0.0, 0.0, 0.0, 0.0, 1.7308452978997865E9, 0.0, 2024-11-05 19:21:37.899
65.0, -182474.34436969095, -182527.80974242804, -182674.83951745505, -182704.5673375806, -182657.9639503913, -182596.63076360594, -182794.98014390233, -182685.47894781578, -0.116, 0.89, 0.402, 192.0, 0.0, 0.0, 0.0, 0.0, 0.0, 0.0, 0.0, 0.0, 0.0, 1.7308452979037535E9, 0.0, 2024-11-05 19:21:37.903
66.0, -182475.66312261383, -182529.32966105102, -182676.27002910018, -182705.9307939924, -182659.4168137809, -182598.08362699553, -182796.2988968252, -182686.90945946093, -0.116, 0.89, 0.402, 192.0, 0.0, 0.0, 0.0, 0.0, 0.0, 0.0, 0.0, 0.0, 0.0, 1.7308452979067912E9, 0.0, 2024-11-05 19:21:37.906
67.0, -182479.1723464933, -182532.8835884194, -182679.73454949076, -182709.5294248497, -182662.94838940483, -182601.61520261946, -182799.76341721576, -182690.4633868293, -0.108, 0.914, 0.41000000000000003, 192.0, 252.0, 160.0, 28.0, 144.0, 12.0, 208.0, 0.0, 0.0, 0.0, 1.7308452979109144E9, 0.0, 2024-11-05 19:21:37.910
68.0, -182483.82150934, -182537.46569603274, -182684.36136059303, -182714.08918071858, -182667.53049701816, -182606.19731023282, -182804.39022831802, -182695.0231426982, -0.108, 0.914, 0.41000000000000003, 192.0, 0.0, 0.0, 0.0, 0.0, 0.0, 0.0, 0.0, 0.0, 0.0, 1.73084529791592E9, 0.0, 2024-11-05 19:21:37.915
69.0, -182486.88369833038, -182540.55023676757, -182687.53530830567, -182717.1290179645, -182670.68209298636, -182609.28185096764, -182807.58652777513, -182698.13003517748, -0.108, 0.914, 0.41000000000000003, 192.0, 0.0, 0.0, 0.0, 0.0, 0.0, 0.0, 0.0, 0.0, 0.0, 1.730845297919835E9, 0.0, 2024-11-05 19:21:37.919
70.0, -182491.48815768817, -182545.17704786983, -182692.117415919, -182721.7781808112, -182675.26420059972, -182613.81925509206, -182812.14628364402, -182702.75684627972, -0.108, 0.914, 0.41000000000000003, 192.0, 0.0, 0.0, 0.0, 0.0, 0.0, 0.0, 0.0, 0.0, 0.0, 1.730845297923942E9, 0.0, 2024-11-05 19:21:37.923
71.0, -182494.43858795628, -182548.06042290456, -182694.97843920928, -182724.6839075904, -182678.16992737888, -182616.79203710463, -182814.94025170093, -182705.64022131448, -0.108, 0.914, 0.41000000000000003, 192.0, 0.0, 0.0, 0.0, 0.0, 0.0, 0.0, 0.0, 0.0, 0.0, 1.7308452979278953E9, 0.0, 2024-11-05 19:21:37.927
72.0, -182496.65141065736, -182550.340300839, -182697.28066888818, -182726.9861372693, -182680.49450880225, -182619.02721155016, -182817.35424010208, -182707.94245099337, -0.108, 0.914, 0.41000000000000003, 192.0, 0.0, 0.0, 0.0, 0.0, 0.0, 0.0, 0.0, 0.0, 0.0, 1.7308452979309316E9, 0.0, 2024-11-05 19:21:37.930
73.0, -182498.70777114722, -182552.50842005116, -182699.3146776336, -182729.10955299254, -182682.52851754767, -182621.1059237845, -182819.52235931426, -182710.04351497217, -0.108, 0.914, 0.41000000000000003, 192.0, 0.0, 0.0, 0.0, 0.0, 0.0, 0.0, 0.0, 0.0, 0.0, 1.7308452979349265E9, 0.0, 2024-11-05 19:21:37.934
74.0, -182500.45120721476, -182554.31891135205, -182701.0804654456, -182730.92004429342, -182684.36136059303, -182622.87171159647, -182821.31049887068, -182711.78695103968, -0.108, 0.914, 0.41000000000000003, 192.0, 0.0, 0.0, 0.0, 0.0, 0.0, 0.0, 0.0, 0.0, 0.0, 1.7308452979391005E9, 0.0, 2024-11-05 19:21:37.939
75.0, -182502.46286421572, -182556.19645788628, -182703.0250672132, -182732.79759082766, -182686.26125887173, -182624.88336859745, -182823.0986384271, -182713.6868493184, -0.108, 0.914, 0.41000000000000003, 192.0, 0.0, 0.0, 0.0, 0.0, 0.0, 0.0, 0.0, 0.0, 0.0, 1.7308452979440365E9, 0.0, 2024-11-05 19:21:37.944
76.0, -182504.3851142389, -182558.09635616498, -182704.9696689808, -182734.71984085083, -182688.22821238378, -182626.87267385397, -182825.13264717255, -182715.631451086, -0.108, 0.914, 0.41000000000000003, 192.0, 0.0, 0.0, 0.0, 0.0, 0.0, 0.0, 0.0, 0.0, 0.0, 1.7308452979479227E9, 0.0, 2024-11-05 19:21:37.947
77.0, -182507.60376544044, -182561.337359111, -182708.1659684379, -182737.84908507456, -182691.3127531186, -182630.09132505555, -182828.41835360747, -182718.91715752092, -0.094, 0.908, 0.406, 192.0, 253.0, 16.0, 28.0, 96.0, 12.0, 176.0, 0.0, 0.0, 0.0, 1.7308452979518719E9, 0.0, 2024-11-05 19:21:37.951
78.0, -182512.09646607598, -182565.8300597465, -182712.6810208179, -182742.40884094345, -182695.80545375415, -182634.53932220212, -182832.88870249855, -182723.36515466752, -0.094, 0.908, 0.406, 192.0, 0.0, 0.0, 0.0, 0.0, 0.0, 0.0, 0.0, 0.0, 0.0, 1.7308452979548993E9, 0.0, 2024-11-05 19:21:37.954
79.0, -182514.59986145495, -182568.4005103589, -182715.2738231747, -182744.9345880669, -182698.4653113443, -182637.13212455896, -182835.3920978775, -182725.86855004652, -0.094, 0.908, 0.406, 192.0, 0.0, 0.0, 0.0, 0.0, 0.0, 0.0, 0.0, 0.0, 0.0, 1.7308452979592035E9, 0.0, 2024-11-05 19:21:37.959
80.0, -182516.76798066712, -182570.41216735987, -182717.30783192013, -182746.99094855678, -182700.5216718342, -182639.12142981548, -182837.38140313406, -182727.94726228085, -0.094, 0.908, 0.406, 192.0, 0.0, 0.0, 0.0, 0.0, 0.0, 0.0, 0.0, 0.0, 0.0, 1.730845297962916E9, 0.0, 2024-11-05 19:21:37.962
81.0, -182518.86904464592, -182572.6473418054, -182719.4312476434, -182749.06966079114, -182702.64508755747, -182641.2001420498, -182839.6612810685, -182730.07067800412, -0.094, 0.908, 0.406, 192.0, 0.0, 0.0, 0.0, 0.0, 0.0, 0.0, 0.0, 0.0, 0.0, 1.7308452979669187E9, 0.0, 2024-11-05 19:21:37.966
82.0, -182522.02064061412, -182575.7989377736, -182722.5828436116, -182752.37771897053, -182705.9307939924, -182644.44114499583, -182842.87993227007, -182733.2893292057, -0.094, 0.908, 0.406, 192.0, 0.0, 0.0, 0.0, 0.0, 0.0, 0.0, 0.0, 0.0, 0.0, 1.7308452979709349E9, 0.0, 2024-11-05 19:21:37.970
83.0, -182524.74755343766, -182578.57055408604, -182725.35445992404, -182755.17168702744, -182708.63535507148, -182647.23511305274, -182845.47273462688, -182735.99389028476, -0.094, 0.908, 0.406, 192.0, 0.0, 0.0, 0.0, 0.0, 0.0, 0.0, 0.0, 0.0, 0.0, 1.7308452979759111E9, 0.0, 2024-11-05 19:21:37.975
84.0, -182526.22276857172, -182579.97871398673, -182726.85202680255, -182756.5798469281, -182710.11057020552, -182648.73267993124, -182846.97030150538, -182737.37969844101, -0.094, 0.908, 0.406, 192.0, 0.0, 0.0, 0.0, 0.0, 0.0, 0.0, 0.0, 0.0, 0.0, 1.7308452979799929E9, 0.0, 2024-11-05 19:21:37.979
85.0, -182530.67076571833, -182584.35965589999, -182731.1882652269, -182760.91608535245, -182714.49151211878, -182653.0689183556, -182851.5524091187, -182741.85004733206, -0.094, 0.908, 0.406, 192.0, 0.0, 0.0, 0.0, 0.0, 0.0, 0.0, 0.0, 0.0, 0.0, 1.7308452979830415E9, 0.0, 2024-11-05 19:21:37.983
86.0, -182535.3869837984, -182589.03117049113, -182735.94918679586, -182765.72171041035, -182719.14067496549, -182657.74043294674, -182856.2686271988, -182746.61096890105, -0.094, 0.908, 0.406, 192.0, 0.0, 0.0, 0.0, 0.0, 0.0, 0.0, 0.0, 0.0, 0.0, 1.7308452979870946E9, 0.0, 2024-11-05 19:21:37.987
87.0, -182537.33158556602, -182590.93106876983, -182737.9831955413, -182767.62160868905, -182721.06292498863, -182659.70738645882, -182858.10147024412, -182748.51086717975, -0.076, 0.916, 0.398, 192.0, 253.0, 160.0, 28.0, 160.0, 12.0, 112.0, 0.0, 0.0, 0.0, 1.7308452979909973E9, 0.0, 2024-11-05 19:21:37.990
88.0, -182540.03614664508, -182593.6579815934, -182740.66540487594, -182770.1920593014, -182723.70043083435, -182662.34489230454, -182860.6719208565, -182751.08131779212, -0.076, 0.916, 0.398, 192.0, 0.0, 0.0, 0.0, 0.0, 0.0, 0.0, 0.0, 0.0, 0.0, 1.7308452979950442E9, 0.0, 2024-11-05 19:21:37.995
89.0, -182544.32768158053, -182597.92716478434, -182745.00164330026, -182774.66240819247, -182727.96961402532, -182666.68113072886, -182865.05286276972, -182755.43990796088, -0.076, 0.916, 0.398, 192.0, 0.0, 0.0, 0.0, 0.0, 0.0, 0.0, 0.0, 0.0, 0.0, 1.730845298000044E9, 0.0, 2024-11-05 19:21:38.000
90.0, -182547.27811184863, -182600.87759505244, -182747.885018335, -182777.65754194948, -182730.94239603786, -182669.60920925252, -182868.20445873792, -182758.45739346236, -0.076, 0.916, 0.398, 192.0, 0.0, 0.0, 0.0, 0.0, 0.0, 0.0, 0.0, 0.0, 0.0, 1.7308452980039866E9, 0.0, 2024-11-05 19:21:38.003
91.0, -182548.70862349376, -182602.44221716432, -182749.27082649124, -182779.0880535946, -182732.46231466084, -182671.12912787547, -182869.59026689414, -182759.9326085964, -0.076, 0.916, 0.398, 192.0, 0.0, 0.0, 0.0, 0.0, 0.0, 0.0, 0.0, 0.0, 0.0, 1.7308452980080378E9, 0.0, 2024-11-05 19:21:38.008
92.0, -182548.39569907138, -182602.06223750857, -182748.91319857995, -182778.66337044997, -182732.127038494, -182670.72679647527, -182869.1208802606, -182759.61968417405, -0.076, 0.916, 0.398, 192.0, 0.0, 0.0, 0.0, 0.0, 0.0, 0.0, 0.0, 0.0, 0.0, 1.730845298011054E9, 0.0, 2024-11-05 19:21:38.011
93.0, -182551.16731538385, -182604.69974335431, -182751.59540791457, -182781.4349867624, -182734.8315995731, -182673.47606104327, -182871.93720006195, -182762.32424525314, -0.076, 0.916, 0.398, 192.0, 0.0, 0.0, 0.0, 0.0, 0.0, 0.0, 0.0, 0.0, 0.0, 1.7308452980150285E9, 0.0, 2024-11-05 19:21:38.015
94.0, -182553.5366002961, -182607.15843524438, -182754.14350678248, -182783.8936786525, -182737.24558797426, -182675.95710467783, -182874.39589195204, -182764.8276406321, -0.076, 0.916, 0.398, 192.0, 0.0, 0.0, 0.0, 0.0, 0.0, 0.0, 0.0, 0.0, 0.0, 1.7308452980190623E9, 0.0, 2024-11-05 19:21:38.019
95.0, -182554.94476019678, -182608.58894688953, -182755.61872191654, -182785.3018385532, -182738.74315485277, -182677.40996806743, -182875.80405185273, -182766.14639355498, -0.076, 0.916, 0.398, 192.0, 0.0, 0.0, 0.0, 0.0, 0.0, 0.0, 0.0, 0.0, 0.0, 1.7308452980230048E9, 0.0, 2024-11-05 19:21:38.023
96.0, -182559.30335036558, -182612.94753705832, -182759.8879051075, -182789.66042872198, -182743.0346897882, -182681.70150300284, -182880.07323504367, -182770.54968721268, -0.076, 0.916, 0.398, 192.0, 0.0, 0.0, 0.0, 0.0, 0.0, 0.0, 0.0, 0.0, 0.0, 1.7308452980270915E9, 0.0, 2024-11-05 19:21:38.027
97.0, -182563.61723704546, -182617.3061272271, -182764.22414353184, -182793.92961191293, -182747.37092821253, -182686.06009317163, -182884.40947346803, -182774.97533261482, -0.07200000000000001, 0.932, 0.39, 192.0, 253.0, 192.0, 29.0, 32.0, 12.0, 48.0, 0.0, 0.0, 0.0, 1.7308452980320504E9, 0.0, 2024-11-05 19:21:38.032
98.0, -182565.60654230198, -182619.31778422807, -182766.2805040217, -182795.96362065835, -182749.36023346905, -182688.00469493924, -182886.64464791355, -182776.9869896158, -0.07200000000000001, 0.932, 0.39, 192.0, 0.0, 0.0, 0.0, 0.0, 0.0, 0.0, 0.0, 0.0, 0.0, 1.7308452980362308E9, 0.0, 2024-11-05 19:21:38.036
99.0, -182570.32276038203, -182624.1457610304, -182771.01907384626, -182800.79159746072, -182754.21056201585, -182692.78796825267, -182891.38321773807, -182781.68085595142, -0.07200000000000001, 0.932, 0.39, 192.0, 0.0, 0.0, 0.0, 0.0, 0.0, 0.0, 0.0, 0.0, 0.0, 1.7308452980392847E9, 0.0, 2024-11-05 19:21:38.039
100.0, -182572.55793482758, -182626.42563896487, -182773.1871930584, -182803.09382713962, -182756.51279169475, -182695.09019793157, -182893.50663346134, -182783.8936786525, -0.07200000000000001, 0.932, 0.39, 192.0, 0.0, 0.0, 0.0, 0.0, 0.0, 0.0, 0.0, 0.0, 0.0, 1.7308452980429783E9, 0.0, 2024-11-05 19:21:38.042
101.0, -182575.50836509568, -182629.4431244663, -182776.27173379323, -182806.02190566325, -182759.55262894067, -182698.1747386664, -182896.63587768507, -182786.9558676429, -0.07200000000000001, 0.932, 0.39, 192.0, 0.0, 0.0, 0.0, 0.0, 0.0, 0.0, 0.0, 0.0, 0.0, 1.73084529804714E9, 0.0, 2024-11-05 19:21:38.047
102.0, -182579.1516994419, -182633.0641070681, -182779.82566116162, -182809.55348128718, -182763.0842045646, -182701.68396254588, -182900.27921203128, -182790.50979501128, -0.07200000000000001, 0.932, 0.39, 192.0, 0.0, 0.0, 0.0, 0.0, 0.0, 0.0, 0.0, 0.0, 0.0, 1.7308452980511732E9, 0.0, 2024-11-05 19:21:38.051
103.0, -182581.9903709877, -182635.8133716361, -182782.641980963, -182812.39215283302, -182765.90052436598, -182704.43322711388, -182903.02847659928, -182793.3484665571, -0.07200000000000001, 0.932, 0.39, 192.0, 0.0, 0.0, 0.0, 0.0, 0.0, 0.0, 0.0, 0.0, 0.0, 1.7308452980550992E9, 0.0, 2024-11-05 19:21:38.055
104.0, -182584.53846985562, -182638.27206352618, -182785.12302459753, -182814.96260344537, -182768.35921625607, -182707.00367772623, -182905.53187197828, -182795.896565425, -0.07200000000000001, 0.932, 0.39, 192.0, 0.0, 0.0, 0.0, 0.0, 0.0, 0.0, 0.0, 0.0, 0.0, 1.7308452980600257E9, 0.0, 2024-11-05 19:21:38.060
105.0, -182588.2488594352, -182641.9601013613, -182788.83341417712, -182818.6506412805, -182772.0472540912, -182710.69171556138, -182909.2199098134, -182799.47284453784, -0.07200000000000001, 0.932, 0.39, 192.0, 0.0, 0.0, 0.0, 0.0, 0.0, 0.0, 0.0, 0.0, 0.0, 1.730845298063126E9, 0.0, 2024-11-05 19:21:38.063
106.0, -182590.37227515844, -182644.12822057348, -182791.0462368782, -182820.81876049266, -182774.2824285367, -182712.9268900069, -182911.45508425892, -182801.73037072783, -0.07200000000000001, 0.932, 0.39, 192.0, 0.0, 0.0, 0.0, 0.0, 0.0, 0.0, 0.0, 0.0, 0.0, 1.730845298066986E9, 0.0, 2024-11-05 19:21:38.066
107.0, -182592.31687692605, -182645.9610636188, -182792.92378341244, -182822.56219656017, -182776.0929198376, -182714.80443654113, -182913.35498253762, -182803.67497249544, -0.07, 0.9380000000000001, 0.392, 192.0, 253.0, 208.0, 29.0, 80.0, 12.0, 64.0, 0.0, 0.0, 0.0, 1.7308452980709896E9, 0.0, 2024-11-05 19:21:38.070
108.0, -182592.71920832625, -182646.363395019, -182793.37081830154, -182822.94217621593, -182776.56230647117, -182715.20676794133, -182913.66790696, -182803.98789691782, -0.07, 0.9380000000000001, 0.392, 192.0, 0.0, 0.0, 0.0, 0.0, 0.0, 0.0, 0.0, 0.0, 0.0, 1.7308452980750268E9, 0.0, 2024-11-05 19:21:38.075
109.0, -182595.73669382773, -182649.49263924273, -182796.43300729193, -182826.18317916195, -182779.55744022818, -182718.24660518728, -182916.66304071702, -182807.11714114156, -0.07, 0.9380000000000001, 0.392, 192.0, 0.0, 0.0, 0.0, 0.0, 0.0, 0.0, 0.0, 0.0, 0.0, 1.7308452980792396E9, 0.0, 2024-11-05 19:21:38.079
110.0, -182600.6987810968, -182654.4100230229, -182801.41744630545, -182831.18996991994, -182784.47482400833, -182723.1863407119, -182921.7368867084, -182812.14628364402, -0.07, 0.9380000000000001, 0.392, 192.0, 0.0, 0.0, 0.0, 0.0, 0.0, 0.0, 0.0, 0.0, 0.0, 1.7308452980830865E9, 0.0, 2024-11-05 19:21:38.083
111.0, -182602.75514158668, -182656.57814223508, -182803.54086202872, -182833.2463304098, -182786.6429432205, -182725.22034945732, -182923.927357665, -182814.26969936726, -0.07, 0.9380000000000001, 0.392, 192.0, 0.0, 0.0, 0.0, 0.0, 0.0, 0.0, 0.0, 0.0, 0.0, 1.7308452980881443E9, 0.0, 2024-11-05 19:21:38.088
112.0, -182604.00683927618, -182657.82983992455, -182804.79255971822, -182834.4533246104, -182787.8499374211, -182726.4273436579, -182925.11200012112, -182815.49904531232, -0.07, 0.9380000000000001, 0.392, 192.0, 0.0, 0.0, 0.0, 0.0, 0.0, 0.0, 0.0, 0.0, 0.0, 1.730845298091195E9, 0.0, 2024-11-05 19:21:38.091
113.0, -182606.95726954428, -182660.6685114704, -182807.67593475294, -182837.31434790068, -182790.7556642003, -182729.42247741492, -182927.9283199225, -182818.36006860257, -0.07, 0.9380000000000001, 0.392, 192.0, 0.0, 0.0, 0.0, 0.0, 0.0, 0.0, 0.0, 0.0, 0.0, 1.7308452980950887E9, 0.0, 2024-11-05 19:21:38.095
114.0, -182608.76776084516, -182662.50135451573, -182809.44172256492, -182839.19189443492, -182792.63321073452, -182731.25532046024, -182929.7835147123, -182820.17055990346, -0.07, 0.9380000000000001, 0.392, 192.0, 0.0, 0.0, 0.0, 0.0, 0.0, 0.0, 0.0, 0.0, 0.0, 1.7308452980992763E9, 0.0, 2024-11-05 19:21:38.099
115.0, -182609.88534806794, -182663.8201074386, -182810.6487167655, -182840.37653689107, -182793.77314970174, -182732.46231466084, -182931.16932286852, -182821.44460933743, -0.07, 0.9380000000000001, 0.392, 192.0, 0.0, 0.0, 0.0, 0.0, 0.0, 0.0, 0.0, 0.0, 0.0, 1.7308452981031387E9, 0.0, 2024-11-05 19:21:38.103
116.0, -182614.35569695898, -182668.20104935183, -182815.09671391212, -182844.77983054877, -182798.1987951039, -182736.84325657407, -182935.50556129284, -182825.82555125066, -0.07, 0.9380000000000001, 0.392, 192.0, 0.0, 0.0, 0.0, 0.0, 0.0, 0.0, 0.0, 0.0, 0.0, 1.7308452981070855E9, 0.0, 2024-11-05 19:21:38.107
117.0, -182616.85909233798, -182670.615037753, -182817.62246103556, -182847.23852243883, -182800.657486994, -182739.30194846416, -182937.87484620512, -182828.26189139628, -0.062, 0.9420000000000001, 0.386, 192.0, 254.0, 16.0, 29.0, 112.0, 12.0, 16.0, 0.0, 0.0, 0.0, 1.7308452981112075E9, 0.0, 2024-11-05 19:21:38.111
118.0, -182618.11079002748, -182671.79968020914, -182818.76240000277, -182848.49022012833, -182801.88683293902, -182740.62070138703, -182939.2383026169, -182829.51358908578, -0.062, 0.9420000000000001, 0.386, 192.0, 0.0, 0.0, 0.0, 0.0, 0.0, 0.0, 0.0, 0.0, 0.0, 1.730845298116116E9, 0.0, 2024-11-05 19:21:38.116
119.0, -182622.5587871741, -182676.31473258912, -182823.21039714938, -182853.07232774168, -182806.37953357454, -182745.09105027808, -182943.75335499685, -182834.0062897213, -0.062, 0.9420000000000001, 0.386, 192.0, 0.0, 0.0, 0.0, 0.0, 0.0, 0.0, 0.0, 0.0, 0.0, 1.7308452981192725E9, 0.0, 2024-11-05 19:21:38.119
120.0, -182625.12923778646, -182678.84047971255, -182825.8479029951, -182855.5086678873, -182808.92763244244, -182747.54974216816, -182946.27910212032, -182836.46498161138, -0.062, 0.9420000000000001, 0.386, 192.0, 0.0, 0.0, 0.0, 0.0, 0.0, 0.0, 0.0, 0.0, 0.0, 1.7308452981220787E9, 0.0, 2024-11-05 19:21:38.122
121.0, -182628.41494422138, -182682.03677916966, -182828.97714721886, -182858.74967083332, -182812.12393189955, -182750.79074511418, -182949.40834634405, -182839.63892932402, -0.062, 0.9420000000000001, 0.386, 192.0, 0.0, 0.0, 0.0, 0.0, 0.0, 0.0, 0.0, 0.0, 0.0, 1.7308452981270769E9, 0.0, 2024-11-05 19:21:38.127
122.0, -182632.7958861346, -182686.46242457183, -182833.402792621, -182863.13061274655, -182816.57192904616, -182755.2834457497, -182953.81164000175, -182844.153981704, -0.062, 0.9420000000000001, 0.386, 192.0, 0.0, 0.0, 0.0, 0.0, 0.0, 0.0, 0.0, 0.0, 0.0, 1.7308452981311083E9, 0.0, 2024-11-05 19:21:38.131
123.0, -182634.47226696878, -182688.2729158727, -182835.19093217741, -182864.94110404744, -182818.36006860257, -182756.9374748394, -182955.7338900249, -182845.8974177715, -0.062, 0.9420000000000001, 0.386, 192.0, 0.0, 0.0, 0.0, 0.0, 0.0, 0.0, 0.0, 0.0, 0.0, 1.7308452981350992E9, 0.0, 2024-11-05 19:21:38.135
124.0, -182637.44504898132, -182691.2233461408, -182838.18606593445, -182867.91388606, -182821.31049887068, -182759.86555336305, -182958.57256157073, -182848.7584410618, -0.062, 0.9420000000000001, 0.386, 192.0, 0.0, 0.0, 0.0, 0.0, 0.0, 0.0, 0.0, 0.0, 0.0, 1.7308452981392088E9, 0.0, 2024-11-05 19:21:38.139
125.0, -182640.618996694, -182694.4196455979, -182841.3600136471, -182871.04313028374, -182824.43974309444, -182763.0395010757, -182961.70180579447, -182851.99944400782, -0.062, 0.9420000000000001, 0.386, 192.0, 0.0, 0.0, 0.0, 0.0, 0.0, 0.0, 0.0, 0.0, 0.0, 1.7308452981441157E9, 0.0, 2024-11-05 19:21:38.144
126.0, -182644.93288337387, -182698.8229392556, -182845.62919683807, -182875.35701696362, -182828.7536297743, -182767.4427947334, -182966.06039596326, -182856.4027376655, -0.062, 0.9420000000000001, 0.386, 192.0, 0.0, 0.0, 0.0, 0.0, 0.0, 0.0, 0.0, 0.0, 0.0, 1.7308452981470356E9, 0.0, 2024-11-05 19:21:38.147
127.0, -182644.28468278464, -182698.08533168858, -182845.0033479933, -182874.73116811886, -182828.150132674, -182766.6828354219, -182965.52395409634, -182855.84394405413, -0.06, 0.928, 0.388, 192.0, 254.0, 32.0, 29.0, 0.0, 12.0, 32.0, 0.0, 0.0, 0.0, 1.7308452981501322E9, 0.0, 2024-11-05 19:21:38.150
128.0, -182646.3186915301, -182700.09698868956, -182846.99265324982, -182876.67576988647, -182830.13943793054, -182768.7391959118, -182967.5803145862, -182857.78854582174, -0.06, 0.928, 0.388, 192.0, 0.0, 0.0, 0.0, 0.0, 0.0, 0.0, 0.0, 0.0, 0.0, 1.7308452981551166E9, 0.0, 2024-11-05 19:21:38.155
129.0, -182650.43141250988, -182704.18735792488, -182851.17242946298, -182880.83319435516, -182834.2968623992, -182772.8966203805, -182971.6259803326, -182861.8118598237, -0.06, 0.928, 0.388, 192.0, 0.0, 0.0, 0.0, 0.0, 0.0, 0.0, 0.0, 0.0, 0.0, 1.7308452981592317E9, 0.0, 2024-11-05 19:21:38.159
130.0, -182654.0076916227, -182707.6742300599, -182854.68165334244, -182884.45417695693, -182837.82843802316, -182776.4952512378, -182975.04579723428, -182865.29873195873, -0.06, 0.928, 0.388, 192.0, 0.0, 0.0, 0.0, 0.0, 0.0, 0.0, 0.0, 0.0, 0.0, 1.7308452981631875E9, 0.0, 2024-11-05 19:21:38.163
131.0, -182657.13693584644, -182710.8258260281, -182857.7661940773, -182887.5163659473, -182840.93533050246, -182779.57979197262, -182978.21974494695, -182868.49503141583, -0.06, 0.928, 0.388, 192.0, 0.0, 0.0, 0.0, 0.0, 0.0, 0.0, 0.0, 0.0, 0.0, 1.7308452981671007E9, 0.0, 2024-11-05 19:21:38.167
132.0, -182659.70738645882, -182713.4186283849, -182860.42605166748, -182890.17622353748, -182843.5504846037, -182782.1949460739, -182980.90195428158, -182871.19959249493, -0.06, 0.928, 0.388, 192.0, 0.0, 0.0, 0.0, 0.0, 0.0, 0.0, 0.0, 0.0, 0.0, 1.730845298171203E9, 0.0, 2024-11-05 19:21:38.171
133.0, -182661.04849112613, -182714.71502956332, -182861.7671563348, -182891.47262471588, -182844.77983054877, -182783.4913472523, -182982.17600371552, -182872.47364192887, -0.06, 0.928, 0.388, 192.0, 0.0, 0.0, 0.0, 0.0, 0.0, 0.0, 0.0, 0.0, 0.0, 1.7308452981743424E9, 0.0, 2024-11-05 19:21:38.174
134.0, -182663.4177760384, -182717.10666622003, -182864.13644124704, -182893.88661311707, -182847.19381894992, -182785.9500391424, -182984.45588164998, -182874.77587160777, -0.06, 0.928, 0.388, 192.0, 0.0, 0.0, 0.0, 0.0, 0.0, 0.0, 0.0, 0.0, 0.0, 1.7308452981781845E9, 0.0, 2024-11-05 19:21:38.178
135.0, -182666.30115107313, -182720.05709648813, -182866.93040930395, -182896.72528466288, -182850.0995457291, -182788.72165545484, -182987.42866366252, -182877.63689489805, -0.06, 0.928, 0.388, 192.0, 0.0, 0.0, 0.0, 0.0, 0.0, 0.0, 0.0, 0.0, 0.0, 1.7308452981832054E9, 0.0, 2024-11-05 19:21:38.183
136.0, -182669.89978193043, -182723.70043083435, -182870.57374365017, -182900.3239155202, -182853.78758356423, -182792.38734154552, -182991.1390532421, -182881.34728447764, -0.06, 0.928, 0.388, 192.0, 0.0, 0.0, 0.0, 0.0, 0.0, 0.0, 0.0, 0.0, 0.0, 1.7308452981871789E9, 0.0, 2024-11-05 19:21:38.187
137.0, -182671.06207264212, -182724.81801805712, -182871.78073785076, -182901.39679925406, -182854.905170787, -182793.52728051273, -182992.1895852315, -182882.48722344486, -0.058, 0.93, 0.392, 192.0, 254.0, 48.0, 29.0, 16.0, 12.0, 64.0, 0.0, 0.0, 0.0, 1.7308452981912897E9, 0.0, 2024-11-05 19:21:38.191
138.0, -182673.56546802112, -182727.34376518056, -182874.26178148531, -182903.9672498664, -182857.3191591882, -182796.03067589173, -182994.55887014378, -182884.90121184604, -0.058, 0.93, 0.392, 192.0, 0.0, 0.0, 0.0, 0.0, 0.0, 0.0, 0.0, 0.0, 0.0, 1.7308452981952226E9, 0.0, 2024-11-05 19:21:38.195
139.0, -182678.16992737888, -182731.92587279392, -182878.88859258755, -182908.6164127131, -182861.94597029043, -182800.67983873843, -182999.2974399683, -182889.52802294827, -0.058, 0.93, 0.392, 192.0, 0.0, 0.0, 0.0, 0.0, 0.0, 0.0, 0.0, 0.0, 0.0, 1.7308452981982796E9, 0.0, 2024-11-05 19:21:38.198
140.0, -182679.75690123523, -182733.46814316133, -182880.43086295496, -182910.181034825, -182863.57764763566, -182802.1997573614, -183000.951469058, -182891.15970029353, -0.058, 0.93, 0.392, 192.0, 0.0, 0.0, 0.0, 0.0, 0.0, 0.0, 0.0, 0.0, 0.0, 1.7308452982022343E9, 0.0, 2024-11-05 19:21:38.202
141.0, -182681.85796521403, -182735.4798001623, -182882.50957518932, -182912.2820988038, -182865.67871161446, -182804.23376610683, -183002.91842257004, -182893.2160607834, -0.058, 0.93, 0.392, 192.0, 0.0, 0.0, 0.0, 0.0, 0.0, 0.0, 0.0, 0.0, 0.0, 1.7308452982063491E9, 0.0, 2024-11-05 19:21:38.206
142.0, -182686.19420363836, -182739.92779730892, -182886.8681653581, -182916.7300959504, -182870.03730178325, -182808.70411499788, -183007.27701273884, -182897.59700269665, -0.058, 0.93, 0.392, 192.0, 0.0, 0.0, 0.0, 0.0, 0.0, 0.0, 0.0, 0.0, 0.0, 1.7308452982112007E9, 0.0, 2024-11-05 19:21:38.211
143.0, -182688.3176193616, -182742.05121303216, -182888.92452584798, -182918.80880818472, -182872.1160140176, -182810.78282723224, -183009.46748369545, -182899.69806667545, -0.058, 0.93, 0.392, 192.0, 0.0, 0.0, 0.0, 0.0, 0.0, 0.0, 0.0, 0.0, 0.0, 1.7308452982152624E9, 0.0, 2024-11-05 19:21:38.215
144.0, -182689.14463390646, -182742.87822757702, -182889.8185956262, -182919.5687674962, -182873.01008379582, -182811.60984177707, -183010.4509604515, -182900.59213645366, -0.058, 0.93, 0.392, 192.0, 0.0, 0.0, 0.0, 0.0, 0.0, 0.0, 0.0, 0.0, 0.0, 1.7308452982192516E9, 0.0, 2024-11-05 19:21:38.219
145.0, -182692.0727124301, -182745.82865784512, -182892.85843287213, -182922.5862529977, -182875.93816231945, -182814.56027204517, -183013.33433548623, -182903.4755114884, -0.058, 0.93, 0.392, 192.0, 0.0, 0.0, 0.0, 0.0, 0.0, 0.0, 0.0, 0.0, 0.0, 1.7308452982231607E9, 0.0, 2024-11-05 19:21:38.223
146.0, -182695.40312235395, -182749.11436428005, -182896.1217875626, -182925.7825524548, -182879.04505479874, -182817.8012749912, -183016.39652447662, -182906.7165144344, -0.058, 0.93, 0.392, 192.0, 0.0, 0.0, 0.0, 0.0, 0.0, 0.0, 0.0, 0.0, 0.0, 1.730845298227208E9, 0.0, 2024-11-05 19:21:38.227
147.0, -182698.6217735555, -182752.35536722606, -182899.3180870197, -182929.0235554008, -182882.33076123366, -182821.01992619276, -183019.65987916707, -182909.95751738042, -0.04, 0.936, 0.386, 192.0, 254.0, 192.0, 29.0, 64.0, 12.0, 16.0, 0.0, 0.0, 0.0, 1.730845298230223E9, 0.0, 2024-11-05 19:21:38.230
148.0, -182700.8122445121, -182754.61289341605, -182901.59796495416, -182931.34813682415, -182884.58828742366, -182823.34450761613, -183022.09621931272, -182912.30445054822, -0.04, 0.936, 0.386, 192.0, 0.0, 0.0, 0.0, 0.0, 0.0, 0.0, 0.0, 0.0, 0.0, 1.7308452982342515E9, 0.0, 2024-11-05 19:21:38.234
149.0, -182702.622735813, -182756.49043995028, -182903.408456255, -182933.20333161394, -182886.48818570236, -182825.17735066146, -183024.08552456924, -182914.1819970825, -0.04, 0.936, 0.386, 192.0, 0.0, 0.0, 0.0, 0.0, 0.0, 0.0, 0.0, 0.0, 0.0, 1.730845298238129E9, 0.0, 2024-11-05 19:21:38.238
150.0, -182705.5284625922, -182759.2844080072, -182906.24712780086, -182936.01965141532, -182889.32685724818, -182827.904263485, -183026.76773390386, -182916.95361339493, -0.04, 0.936, 0.386, 192.0, 0.0, 0.0, 0.0, 0.0, 0.0, 0.0, 0.0, 0.0, 0.0, 1.7308452982432053E9, 0.0, 2024-11-05 19:21:38.243
151.0, -182709.90940450542, -182763.6877016649, -182910.60571796962, -182940.40059332855, -182893.73015090587, -182832.3522606316, -183031.08162058375, -182921.31220356372, -0.04, 0.936, 0.386, 192.0, 0.0, 0.0, 0.0, 0.0, 0.0, 0.0, 0.0, 0.0, 0.0, 1.7308452982472205E9, 0.0, 2024-11-05 19:21:38.247
152.0, -182713.23981442928, -182767.06281507766, -182913.84672091567, -182943.82041023023, -182897.08291257417, -182835.63796706655, -183034.52378922986, -182924.7320204654, -0.04, 0.936, 0.386, 192.0, 0.0, 0.0, 0.0, 0.0, 0.0, 0.0, 0.0, 0.0, 0.0, 1.730845298251161E9, 0.0, 2024-11-05 19:21:38.251
153.0, -182716.4361138864, -182770.21441104586, -182917.08772386168, -182946.90495096505, -182900.23450854237, -182838.8119147792, -183037.72008868697, -182927.8389129447, -0.04, 0.936, 0.386, 192.0, 0.0, 0.0, 0.0, 0.0, 0.0, 0.0, 0.0, 0.0, 0.0, 1.730845298254172E9, 0.0, 2024-11-05 19:21:38.254
154.0, -182718.00073599824, -182771.75668141327, -182918.78645644028, -182948.40251784355, -182901.77677890979, -182840.37653689107, -183039.24000730994, -182929.3811833121, -0.04, 0.936, 0.386, 192.0, 0.0, 0.0, 0.0, 0.0, 0.0, 0.0, 0.0, 0.0, 0.0, 1.7308452982582395E9, 0.0, 2024-11-05 19:21:38.258
155.0, -182722.20286395584, -182776.11527158206, -182923.0332878868, -182952.73875626788, -182906.09066558967, -182844.73512705986, -183043.5538939898, -182933.69506999195, -0.04, 0.936, 0.386, 192.0, 0.0, 0.0, 0.0, 0.0, 0.0, 0.0, 0.0, 0.0, 0.0, 1.730845298262241E9, 0.0, 2024-11-05 19:21:38.262
156.0, -182725.42151515742, -182779.2892192947, -182926.25193908834, -182955.91270398055, -182909.24226155787, -182847.88672302803, -183046.7948969358, -182936.86901770462, -0.04, 0.936, 0.386, 192.0, 0.0, 0.0, 0.0, 0.0, 0.0, 0.0, 0.0, 0.0, 0.0, 1.7308452982673151E9, 0.0, 2024-11-05 19:21:38.267
157.0, -182728.95309078135, -182782.77609142973, -182929.67175599, -182959.35487262666, -182912.75148543736, -182851.39594690752, -183050.37117604868, -182940.40059332855, -0.024, 0.928, 0.38, 192.0, 255.0, 64.0, 29.0, 0.0, 11.0, 224.0, 0.0, 0.0, 0.0, 1.7308452982712605E9, 0.0, 2024-11-05 19:21:38.271
158.0, -182731.41178267144, -182785.32419029763, -182932.26455834683, -182961.8359162612, -182915.25488081633, -182853.87699054208, -183052.71810921648, -182942.90398870755, -0.024, 0.928, 0.38, 192.0, 0.0, 0.0, 0.0, 0.0, 0.0, 0.0, 0.0, 0.0, 0.0, 1.730845298275441E9, 0.0, 2024-11-05 19:21:38.275
159.0, -182731.90352104945, -182785.77122518673, -182932.7339449804, -182962.43941336148, -182915.7242674499, -182854.39108066453, -183053.23219933896, -182943.44043057447, -0.024, 0.928, 0.38, 192.0, 0.0, 0.0, 0.0, 0.0, 0.0, 0.0, 0.0, 0.0, 0.0, 1.7308452982792668E9, 0.0, 2024-11-05 19:21:38.279
160.0, -182732.21644547183, -182786.12885309802, -182933.0245176583, -182962.75233778387, -182916.03719187228, -182854.7040050869, -183053.67923422807, -182943.75335499685, -0.024, 0.928, 0.38, 192.0, 0.0, 0.0, 0.0, 0.0, 0.0, 0.0, 0.0, 0.0, 0.0, 1.7308452982822692E9, 0.0, 2024-11-05 19:21:38.282
161.0, -182735.92683505142, -182789.8392426776, -182936.71255549343, -182966.4850791079, -182919.81463668522, -182858.43674641094, -183057.456679041, -182947.46374457644, -0.024, 0.928, 0.38, 192.0, 0.0, 0.0, 0.0, 0.0, 0.0, 0.0, 0.0, 0.0, 0.0, 1.7308452982862408E9, 0.0, 2024-11-05 19:21:38.286
162.0, -182740.55364615365, -182794.4437020354, -182941.40642182904, -182971.11189021016, -182924.46379953192, -182863.1082610021, -183062.03878665433, -182952.09055567867, -0.024, 0.928, 0.38, 192.0, 0.0, 0.0, 0.0, 0.0, 0.0, 0.0, 0.0, 0.0, 0.0, 1.730845298291342E9, 0.0, 2024-11-05 19:21:38.291
163.0, -182742.69941362136, -182796.5000625253, -182943.46278231894, -182973.16825070005, -182926.49780827735, -182865.1199180031, -183064.05044365532, -182954.12456442413, -0.024, 0.928, 0.38, 192.0, 0.0, 0.0, 0.0, 0.0, 0.0, 0.0, 0.0, 0.0, 0.0, 1.7308452982944975E9, 0.0, 2024-11-05 19:21:38.294
164.0, -182746.16393401194, -182800.03163814923, -182946.94965445396, -182976.61041934617, -182929.96232866793, -182868.5620866492, -183067.6043710237, -182957.61143655915, -0.024, 0.928, 0.38, 192.0, 0.0, 0.0, 0.0, 0.0, 0.0, 0.0, 0.0, 0.0, 0.0, 1.7308452982983177E9, 0.0, 2024-11-05 19:21:38.298
165.0, -182749.13671602448, -182802.98206841733, -182949.8330294887, -182979.56084961427, -182933.00216591384, -182871.62427563957, -183070.6665600141, -182960.62892206063, -0.024, 0.928, 0.38, 192.0, 0.0, 0.0, 0.0, 0.0, 0.0, 0.0, 0.0, 0.0, 0.0, 1.7308452983022778E9, 0.0, 2024-11-05 19:21:38.302
166.0, -182751.2824834922, -182805.12783588504, -182952.00114870086, -182981.7289688264, -182935.1255816371, -182873.74769136283, -183072.78997573734, -182962.79704127277, -0.024, 0.928, 0.38, 192.0, 0.0, 0.0, 0.0, 0.0, 0.0, 0.0, 0.0, 0.0, 0.0, 1.730845298306308E9, 0.0, 2024-11-05 19:21:38.306
167.0, -182753.20473351536, -182807.09478939712, -182954.07986093522, -182983.76297757187, -182937.181942127, -182875.69229313044, -183074.68987401604, -182964.76399478485, -0.022, 0.926, 0.374, 192.0, 255.0, 80.0, 28.0, 240.0, 11.0, 176.0, 0.0, 0.0, 0.0, 1.7308452983113852E9, 0.0, 2024-11-05 19:21:38.311
168.0, -182756.3339777391, -182810.2016818764, -182957.18675341448, -182986.8475183067, -182940.3335380952, -182878.79918560974, -183077.8638217287, -182967.87088726414, -0.022, 0.926, 0.374, 192.0, 0.0, 0.0, 0.0, 0.0, 0.0, 0.0, 0.0, 0.0, 0.0, 1.7308452983157356E9, 0.0, 2024-11-05 19:21:38.315
169.0, -182759.66438766295, -182813.53209180024, -182960.47245984944, -182990.2449834639, -182943.61924453013, -182882.08489204466, -183081.2612868859, -182971.26835242135, -0.022, 0.926, 0.374, 192.0, 0.0, 0.0, 0.0, 0.0, 0.0, 0.0, 0.0, 0.0, 0.0, 1.7308452983194015E9, 0.0, 2024-11-05 19:21:38.319
170.0, -182763.0395010757, -182816.90720521298, -182963.82522151773, -182993.66480036554, -182947.01670968733, -182885.46000545743, -183084.56934506528, -182974.59876234518, -0.022, 0.926, 0.374, 192.0, 0.0, 0.0, 0.0, 0.0, 0.0, 0.0, 0.0, 0.0, 0.0, 1.7308452983224564E9, 0.0, 2024-11-05 19:21:38.322
171.0, -182767.15222205548, -182821.04227793723, -182967.91559075305, -182997.71046611198, -182951.08472717818, -182889.63978167056, -183088.54795557834, -182978.6444280916, -0.022, 0.926, 0.374, 192.0, 0.0, 0.0, 0.0, 0.0, 0.0, 0.0, 0.0, 0.0, 0.0, 1.730845298326416E9, 0.0, 2024-11-05 19:21:38.326
172.0, -182770.81790814616, -182824.7526675168, -182971.60362858817, -183001.3538004582, -182954.70570977996, -182893.39487473905, -183092.32540039127, -182982.35481767118, -0.022, 0.926, 0.374, 192.0, 0.0, 0.0, 0.0, 0.0, 0.0, 0.0, 0.0, 0.0, 0.0, 1.7308452983302884E9, 0.0, 2024-11-05 19:21:38.330
173.0, -182770.95201861288, -182824.81972275017, -182971.693035566, -183001.48791092492, -182954.75041326886, -182893.50663346134, -183092.57126958028, -182982.4889281379, -0.022, 0.926, 0.374, 192.0, 0.0, 0.0, 0.0, 0.0, 0.0, 0.0, 0.0, 0.0, 0.0, 1.7308452983343537E9, 0.0, 2024-11-05 19:21:38.334
174.0, -182774.17066981443, -182828.03837395174, -182974.9787420009, -183004.8406725932, -182958.05847144825, -182896.63587768507, -183095.83462427076, -182985.77463457282, -0.022, 0.926, 0.374, 192.0, 0.0, 0.0, 0.0, 0.0, 0.0, 0.0, 0.0, 0.0, 0.0, 1.7308452983383443E9, 0.0, 2024-11-05 19:21:38.338
175.0, -182777.07639659362, -182830.899397242, -182977.8397652912, -183007.67934413903, -182960.96419822745, -182899.60865969764, -183098.58388883877, -182988.5909543742, -0.022, 0.926, 0.374, 192.0, 0.0, 0.0, 0.0, 0.0, 0.0, 0.0, 0.0, 0.0, 0.0, 1.7308452983432932E9, 0.0, 2024-11-05 19:21:38.343
176.0, -182778.73042568332, -182832.6428333095, -182979.5384978698, -183009.31102148426, -182962.59587557268, -182901.24033704287, -183100.28262141737, -182990.31203869727, -0.022, 0.926, 0.374, 192.0, 0.0, 0.0, 0.0, 0.0, 0.0, 0.0, 0.0, 0.0, 0.0, 1.7308452983464456E9, 0.0, 2024-11-05 19:21:38.346
177.0, -182779.75860592828, -182833.67101355447, -182980.56667811476, -183010.33920172922, -182963.60170407317, -182902.20146205445, -183101.37785689568, -182991.31786719774, -0.032, 0.926, 0.372, 192.0, 255.0, 0.0, 28.0, 240.0, 11.0, 160.0, 0.0, 0.0, 0.0, 1.7308452983503966E9, 0.0, 2024-11-05 19:21:38.350
178.0, -182783.2901815522, -182837.06847871168, -182983.9864950164, -183013.73666688643, -182967.04387271928, -182905.68833418947, -183104.77532205288, -182994.71533235494, -0.032, 0.926, 0.372, 192.0, 0.0, 0.0, 0.0, 0.0, 0.0, 0.0, 0.0, 0.0, 0.0, 1.7308452983543308E9, 0.0, 2024-11-05 19:21:38.354
179.0, -182788.8557659216, -182842.67876656997, -182989.57443113023, -183019.34695474472, -182972.676512322, -182911.25391855882, -183110.2738511889, -183000.3479719577, -0.032, 0.926, 0.372, 192.0, 0.0, 0.0, 0.0, 0.0, 0.0, 0.0, 0.0, 0.0, 0.0, 1.7308452983583732E9, 0.0, 2024-11-05 19:21:38.358
180.0, -182791.31445781165, -182845.13745846003, -182991.9884195314, -183021.78329489034, -182975.20225944548, -182913.73496219338, -183112.7101913345, -183002.8066638478, -0.032, 0.926, 0.372, 192.0, 0.0, 0.0, 0.0, 0.0, 0.0, 0.0, 0.0, 0.0, 0.0, 1.7308452983624825E9, 0.0, 2024-11-05 19:21:38.362
181.0, -182794.51075726876, -182848.33375791716, -182995.22942247742, -183024.95724260298, -182978.39855890258, -182916.99831688387, -183116.04060125837, -183006.0476667938, -0.032, 0.926, 0.372, 192.0, 0.0, 0.0, 0.0, 0.0, 0.0, 0.0, 0.0, 0.0, 0.0, 1.7308452983664813E9, 0.0, 2024-11-05 19:21:38.366
182.0, -182797.7964637037, -182851.64181609653, -182998.62688763463, -183028.28765252684, -182981.7289688264, -182920.26167157432, -183119.43806641558, -183009.35572497317, -0.032, 0.926, 0.372, 192.0, 0.0, 0.0, 0.0, 0.0, 0.0, 0.0, 0.0, 0.0, 0.0, 1.7308452983713763E9, 0.0, 2024-11-05 19:21:38.371
183.0, -182799.56225151566, -182853.5640661197, -183000.45973067996, -183030.14284731663, -182983.51710838286, -182922.0721628752, -183121.09209550527, -183011.03210580733, -0.032, 0.926, 0.372, 192.0, 0.0, 0.0, 0.0, 0.0, 0.0, 0.0, 0.0, 0.0, 0.0, 1.7308452983744524E9, 0.0, 2024-11-05 19:21:38.374
184.0, -182804.32317308465, -182858.1685254775, -183005.06419003775, -183034.83671365224, -182988.16627122954, -182926.76602921082, -183125.76361009642, -183015.7483238874, -0.032, 0.926, 0.372, 192.0, 0.0, 0.0, 0.0, 0.0, 0.0, 0.0, 0.0, 0.0, 0.0, 1.7308452983783352E9, 0.0, 2024-11-05 19:21:38.378
185.0, -182805.9548504299, -182859.64374061153, -183006.67351563854, -183036.4013357641, -182989.6414863636, -182928.2859478338, -183127.3729356972, -183017.35764948817, -0.032, 0.926, 0.372, 192.0, 0.0, 0.0, 0.0, 0.0, 0.0, 0.0, 0.0, 0.0, 0.0, 1.730845298382476E9, 0.0, 2024-11-05 19:21:38.382
186.0, -182807.67593475294, -182861.5212871458, -183008.48400693943, -183038.1447718316, -182991.42962592002, -182930.00703215683, -183129.29518572037, -183019.14578904462, -0.032, 0.926, 0.372, 192.0, 0.0, 0.0, 0.0, 0.0, 0.0, 0.0, 0.0, 0.0, 0.0, 1.7308452983864713E9, 0.0, 2024-11-05 19:21:38.386
187.0, -182810.89458595452, -182864.78464183625, -183011.72500988544, -183041.5422369888, -182994.78238758832, -182933.31509033623, -183132.5361886664, -183022.40914373507, -0.032, 0.936, 0.368, 192.0, 255.0, 0.0, 29.0, 64.0, 11.0, 128.0, 0.0, 0.0, 0.0, 1.730845298390526E9, 0.0, 2024-11-05 19:21:38.390
188.0, -182813.91207145597, -182867.7127203599, -183014.60838492017, -183044.4032602791, -182997.6434108786, -182936.24316885986, -183135.3748602122, -183025.35957400317, -0.032, 0.936, 0.368, 192.0, 0.0, 0.0, 0.0, 0.0, 0.0, 0.0, 0.0, 0.0, 0.0, 1.7308452983945668E9, 0.0, 2024-11-05 19:21:38.394
189.0, -182816.77309474626, -182870.6184471391, -183017.46940821045, -183047.24193182492, -183000.6385446356, -182939.10419215015, -183138.25823524693, -183028.28765252684, -0.032, 0.936, 0.368, 192.0, 0.0, 0.0, 0.0, 0.0, 0.0, 0.0, 0.0, 0.0, 0.0, 1.7308452983994844E9, 0.0, 2024-11-05 19:21:38.399
190.0, -182818.42712383595, -182872.29482797324, -183019.14578904462, -183048.91831265908, -183002.35962895866, -182940.80292472875, -183140.06872654782, -183030.03108859435, -0.032, 0.936, 0.368, 192.0, 0.0, 0.0, 0.0, 0.0, 0.0, 0.0, 0.0, 0.0, 0.0, 1.7308452984024448E9, 0.0, 2024-11-05 19:21:38.402
191.0, -182820.21526339237, -182873.9712088074, -183020.86687336766, -183050.7064522155, -183004.05836153726, -182942.61341602964, -183141.76745912642, -183031.70746942848, -0.032, 0.936, 0.368, 192.0, 0.0, 0.0, 0.0, 0.0, 0.0, 0.0, 0.0, 0.0, 0.0, 1.7308452984065857E9, 0.0, 2024-11-05 19:21:38.406
192.0, -182821.33285061514, -182875.08879603015, -183021.98446059044, -183051.86874292718, -183005.1983005045, -182943.6862997635, -183142.81799111582, -183032.78035316235, -0.032, 0.936, 0.368, 192.0, 0.0, 0.0, 0.0, 0.0, 0.0, 0.0, 0.0, 0.0, 0.0, 1.7308452984105065E9, 0.0, 2024-11-05 19:21:38.410
193.0, -182824.5515018167, -182878.32979897616, -183025.15840830308, -183054.9979871509, -183008.3945999616, -182946.8825992206, -183146.10369755074, -183035.97665261946, -0.032, 0.936, 0.368, 192.0, 0.0, 0.0, 0.0, 0.0, 0.0, 0.0, 0.0, 0.0, 0.0, 1.7308452984145076E9, 0.0, 2024-11-05 19:21:38.414
194.0, -182828.01602220727, -182881.79431936675, -183028.73468741594, -183058.5072110304, -183011.85912035216, -182950.45887833345, -183149.72468015252, -183039.53057998786, -0.032, 0.936, 0.368, 192.0, 0.0, 0.0, 0.0, 0.0, 0.0, 0.0, 0.0, 0.0, 0.0, 1.7308452984184346E9, 0.0, 2024-11-05 19:21:38.418
195.0, -182830.83234200865, -182884.70004614594, -183031.64041419514, -183061.3682343207, -183014.72014364245, -182953.31990162373, -183152.47394472052, -183042.3468997892, -0.032, 0.936, 0.368, 192.0, 0.0, 0.0, 0.0, 0.0, 0.0, 0.0, 0.0, 0.0, 0.0, 1.730845298422373E9, 0.0, 2024-11-05 19:21:38.422
196.0, -182834.3415658881, -182888.23162176987, -183035.1496380746, -183064.89980994462, -183018.27407101085, -182956.89618073657, -183155.91611336663, -183045.9008271576, -0.032, 0.936, 0.368, 192.0, 0.0, 0.0, 0.0, 0.0, 0.0, 0.0, 0.0, 0.0, 0.0, 1.7308452984276032E9, 0.0, 2024-11-05 19:21:38.427
197.0, -182838.0966589566, -182891.94201134946, -183038.9047311431, -183068.6101995242, -183021.96210884597, -182960.56186682725, -183159.71590992404, -183049.700623715, -0.038, 0.9420000000000001, 0.376, 192.0, 254.0, 208.0, 29.0, 112.0, 11.0, 192.0, 0.0, 0.0, 0.0, 1.7308452984306405E9, 0.0, 2024-11-05 19:21:38.430
198.0, -182840.77886829127, -182894.62422068408, -183041.452830011, -183071.20300188102, -183024.5996146917, -182963.15466918406, -183162.46517449204, -183052.27107432738, -0.038, 0.9420000000000001, 0.376, 192.0, 0.0, 0.0, 0.0, 0.0, 0.0, 0.0, 0.0, 0.0, 0.0, 1.7308452984347303E9, 0.0, 2024-11-05 19:21:38.434
199.0, -182843.08109797016, -182896.8146916407, -183043.73270794546, -183073.460528071, -183026.85714088168, -182965.4345471185, -183164.74505242647, -183054.57330400628, -0.038, 0.9420000000000001, 0.376, 192.0, 0.0, 0.0, 0.0, 0.0, 0.0, 0.0, 0.0, 0.0, 0.0, 1.7308452984384832E9, 0.0, 2024-11-05 19:21:38.438
200.0, -182845.69625207142, -182899.45219748645, -183046.5043242579, -183076.18744089454, -183029.56170196077, -182968.1391081976, -183167.36020652775, -183057.3002168298, -0.038, 0.9420000000000001, 0.376, 192.0, 0.0, 0.0, 0.0, 0.0, 0.0, 0.0, 0.0, 0.0, 0.0, 1.7308452984426663E9, 0.0, 2024-11-05 19:21:38.442
201.0, -182847.59615035012, -182901.32974402068, -183048.4042225366, -183078.08733917325, -183031.52865547285, -182969.97195124294, -183169.14834608417, -183059.13305987514, -0.038, 0.9420000000000001, 0.376, 192.0, 0.0, 0.0, 0.0, 0.0, 0.0, 0.0, 0.0, 0.0, 0.0, 1.730845298446576E9, 0.0, 2024-11-05 19:21:38.446
202.0, -182850.3677666626, -182904.23547079987, -183051.2652458269, -183080.94836246353, -183034.3449752742, -182972.76591929985, -183172.09877635227, -183061.99408316542, -0.038, 0.9420000000000001, 0.376, 192.0, 0.0, 0.0, 0.0, 0.0, 0.0, 0.0, 0.0, 0.0, 0.0, 1.7308452984505544E9, 0.0, 2024-11-05 19:21:38.450
203.0, -182854.413432409, -182908.25878480182, -183055.17680110657, -183084.92697297657, -183038.36828927617, -182976.85628853517, -183176.1891455876, -183065.9726936785, -0.038, 0.9420000000000001, 0.376, 192.0, 0.0, 0.0, 0.0, 0.0, 0.0, 0.0, 0.0, 0.0, 0.0, 1.730845298455567E9, 0.0, 2024-11-05 19:21:38.455
204.0, -182854.79341206473, -182908.63876445757, -183055.57913250677, -183085.28460088786, -183038.77062067637, -182977.2809716798, -183176.3903112877, -183066.28561810084, -0.038, 0.9420000000000001, 0.376, 192.0, 0.0, 0.0, 0.0, 0.0, 0.0, 0.0, 0.0, 0.0, 0.0, 1.730845298458578E9, 0.0, 2024-11-05 19:21:38.458
205.0, -182857.5203248883, -182911.29862204776, -183058.2166383525, -183087.96681022248, -183041.36342303318, -182979.85142229218, -183179.0278171334, -183068.94547569103, -0.038, 0.9420000000000001, 0.376, 192.0, 0.0, 0.0, 0.0, 0.0, 0.0, 0.0, 0.0, 0.0, 0.0, 1.7308452984624805E9, 0.0, 2024-11-05 19:21:38.462
206.0, -182862.3706534351, -182916.10424710563, -183063.1116703882, -183092.77243528038, -183046.1466963466, -182984.72410258342, -183184.12401486922, -183073.8181559823, -0.038, 0.9420000000000001, 0.376, 192.0, 0.0, 0.0, 0.0, 0.0, 0.0, 0.0, 0.0, 0.0, 0.0, 1.730845298466807E9, 0.0, 2024-11-05 19:21:38.466
207.0, -182863.28707495774, -182917.19948258396, -183064.2069058665, -183093.84531901425, -183047.197228336, -182985.81933806173, -183185.21925034752, -183074.8686879717, -0.032, 0.918, 0.37, 192.0, 255.0, 0.0, 28.0, 176.0, 11.0, 144.0, 0.0, 0.0, 0.0, 1.7308452984706173E9, 0.0, 2024-11-05 19:21:38.470
208.0, -182866.43867092594, -182920.3287268077, -183067.24674311242, -183096.97456323798, -183050.39352779312, -182988.97093402993, -183188.236735849, -183078.0202839399, -0.032, 0.918, 0.37, 192.0, 0.0, 0.0, 0.0, 0.0, 0.0, 0.0, 0.0, 0.0, 0.0, 1.7308452984745958E9, 0.0, 2024-11-05 19:21:38.474
209.0, -182870.03730178325, -182923.8826541761, -183070.711263503, -183100.52849060638, -183053.83569643923, -182992.45780616498, -183191.70125623958, -183081.6189147972, -0.032, 0.918, 0.37, 192.0, 0.0, 0.0, 0.0, 0.0, 0.0, 0.0, 0.0, 0.0, 0.0, 1.7308452984786355E9, 0.0, 2024-11-05 19:21:38.478
210.0, -182871.75838610632, -182925.60373849914, -183072.5664582928, -183102.3613336517, -183055.62383599568, -182994.22359397693, -183193.5340992849, -183083.38470260915, -0.032, 0.918, 0.37, 192.0, 0.0, 0.0, 0.0, 0.0, 0.0, 0.0, 0.0, 0.0, 0.0, 1.7308452984827082E9, 0.0, 2024-11-05 19:21:38.482
211.0, -182875.24525824134, -182929.2247211009, -183076.14273740564, -183105.78115055338, -183059.1554116196, -182997.6881143675, -183197.1327301422, -183086.84922299974, -0.032, 0.918, 0.37, 192.0, 0.0, 0.0, 0.0, 0.0, 0.0, 0.0, 0.0, 0.0, 0.0, 1.7308452984856932E9, 0.0, 2024-11-05 19:21:38.485
212.0, -182877.1675082645, -182931.1246193796, -183078.0202839399, -183107.74810406545, -183061.0553098983, -182999.56566090175, -183199.01027667648, -183088.81617651178, -0.032, 0.918, 0.37, 192.0, 0.0, 0.0, 0.0, 0.0, 0.0, 0.0, 0.0, 0.0, 0.0, 1.730845298490594E9, 0.0, 2024-11-05 19:21:38.490
213.0, -182878.8662408431, -182932.64453800255, -183079.69666477403, -183109.44683664406, -183062.6646354991, -183001.2420417359, -183200.46314006604, -183090.44785385704, -0.032, 0.918, 0.37, 192.0, 0.0, 0.0, 0.0, 0.0, 0.0, 0.0, 0.0, 0.0, 0.0, 1.730845298494699E9, 0.0, 2024-11-05 19:21:38.494
214.0, -182882.50957518932, -182936.1761136265, -183083.13883342015, -183113.0231157569, -183066.3079698453, -183004.88537608212, -183204.17352964563, -183094.02413296988, -0.032, 0.918, 0.37, 192.0, 0.0, 0.0, 0.0, 0.0, 0.0, 0.0, 0.0, 0.0, 0.0, 1.7308452984986644E9, 0.0, 2024-11-05 19:21:38.498
215.0, -182884.07419730118, -182937.8301427162, -183084.83756599875, -183114.69949659106, -183067.961998935, -183006.4947016829, -183205.91696571314, -183095.67816205957, -0.032, 0.918, 0.37, 192.0, 0.0, 0.0, 0.0, 0.0, 0.0, 0.0, 0.0, 0.0, 0.0, 1.7308452985026324E9, 0.0, 2024-11-05 19:21:38.502
216.0, -182886.64464791355, -182940.3782415841, -183087.49742358894, -183117.24759545896, -183070.4206908251, -183009.04280055081, -183208.4427128366, -183098.15920569413, -0.032, 0.918, 0.37, 192.0, 0.0, 0.0, 0.0, 0.0, 0.0, 0.0, 0.0, 0.0, 0.0, 1.73084529850649E9, 0.0, 2024-11-05 19:21:38.506
217.0, -182890.60090668214, -182944.3792038416, -183091.45368235753, -183121.24855771646, -183074.39930133813, -183013.02141106385, -183212.3542681163, -183102.1601679516, -0.044, 0.9380000000000001, 0.366, 192.0, 254.0, 160.0, 29.0, 80.0, 11.0, 112.0, 0.0, 0.0, 0.0, 1.730845298510667E9, 0.0, 2024-11-05 19:21:38.510
218.0, -182892.90313636104, -182946.72613700942, -183093.77826378087, -183123.5284356509, -183076.79093799484, -183015.39069597612, -183214.745904773, -183104.52945286388, -0.044, 0.9380000000000001, 0.366, 192.0, 0.0, 0.0, 0.0, 0.0, 0.0, 0.0, 0.0, 0.0, 0.0, 1.7308452985136735E9, 0.0, 2024-11-05 19:21:38.513
219.0, -182895.74180790686, -182949.60951204415, -183096.6169353267, -183126.38945894118, -183079.67431302957, -183018.18466403303, -183217.62927980773, -183107.43517964307, -0.044, 0.9380000000000001, 0.366, 192.0, 0.0, 0.0, 0.0, 0.0, 0.0, 0.0, 0.0, 0.0, 0.0, 1.7308452985176983E9, 0.0, 2024-11-05 19:21:38.517
220.0, -182900.34626726466, -182954.07986093522, -183101.15433945114, -183131.10567702123, -183084.30112413183, -183022.78912339083, -183222.18903567662, -183112.0172872564, -0.044, 0.9380000000000001, 0.366, 192.0, 0.0, 0.0, 0.0, 0.0, 0.0, 0.0, 0.0, 0.0, 0.0, 1.730845298522607E9, 0.0, 2024-11-05 19:21:38.522
221.0, -182903.09553183266, -182956.7844220143, -183103.90360401914, -183133.7878863559, -183087.00568521093, -183025.51603621437, -183224.89359675572, -183114.74420007996, -0.044, 0.9380000000000001, 0.366, 192.0, 0.0, 0.0, 0.0, 0.0, 0.0, 0.0, 0.0, 0.0, 0.0, 1.7308452985265512E9, 0.0, 2024-11-05 19:21:38.526
222.0, -182905.64363070056, -182959.39957611557, -183106.5187581204, -183136.3359852238, -183089.59848756774, -183028.06413508227, -183227.48639911253, -183117.3146506923, -0.044, 0.9380000000000001, 0.366, 192.0, 0.0, 0.0, 0.0, 0.0, 0.0, 0.0, 0.0, 0.0, 0.0, 1.7308452985308356E9, 0.0, 2024-11-05 19:21:38.530
223.0, -182907.3200115347, -182961.187715672, -183108.2621941879, -183138.10177303574, -183091.38662712416, -183029.87462638316, -183229.36394564676, -183119.05808675982, -0.044, 0.9380000000000001, 0.366, 192.0, 0.0, 0.0, 0.0, 0.0, 0.0, 0.0, 0.0, 0.0, 0.0, 1.7308452985347557E9, 0.0, 2024-11-05 19:21:38.534
224.0, -182909.30931679122, -182963.04291046178, -183110.1173889777, -183139.8899125922, -183093.24182191395, -183031.7521729174, -183231.15208520318, -183121.00268852743, -0.044, 0.9380000000000001, 0.366, 192.0, 0.0, 0.0, 0.0, 0.0, 0.0, 0.0, 0.0, 0.0, 0.0, 1.7308452985389264E9, 0.0, 2024-11-05 19:21:38.538
225.0, -182912.1703400815, -182965.8815820076, -183113.00076401245, -183142.728584138, -183095.99108648195, -183034.5461409743, -183233.87899802675, -183123.8190083288, -0.044, 0.9380000000000001, 0.366, 192.0, 0.0, 0.0, 0.0, 0.0, 0.0, 0.0, 0.0, 0.0, 0.0, 1.7308452985417333E9, 0.0, 2024-11-05 19:21:38.541
226.0, -182914.2714040603, -182968.04970121977, -183115.05712450232, -183144.8296481168, -183098.09215046075, -183036.66955669757, -183236.00241375, -183125.89772056317, -0.044, 0.9380000000000001, 0.366, 192.0, 0.0, 0.0, 0.0, 0.0, 0.0, 0.0, 0.0, 0.0, 0.0, 1.7308452985455244E9, 0.0, 2024-11-05 19:21:38.545
227.0, -182917.64651747307, -182971.4248146325, -183118.49929314846, -183148.16005804064, -183101.40020864015, -183039.9999666214, -183239.57869286285, -183129.33988920928, -0.048, 0.9380000000000001, 0.368, 192.0, 254.0, 128.0, 29.0, 80.0, 11.0, 128.0, 0.0, 0.0, 0.0, 1.7308452985505924E9, 0.0, 2024-11-05 19:21:38.550
228.0, -182920.55224425223, -182974.2858379228, -183121.33796469428, -183151.08813656427, -183104.32828716378, -183042.92804514506, -183242.46206789758, -183132.15620901063, -0.048, 0.9380000000000001, 0.368, 192.0, 0.0, 0.0, 0.0, 0.0, 0.0, 0.0, 0.0, 0.0, 0.0, 1.730845298554752E9, 0.0, 2024-11-05 19:21:38.554
229.0, -182922.2286250864, -182976.00692224587, -183123.0814007618, -183152.87627612072, -183106.1164267202, -183044.6044259792, -183244.0937452428, -183133.8772933337, -0.048, 0.9380000000000001, 0.368, 192.0, 0.0, 0.0, 0.0, 0.0, 0.0, 0.0, 0.0, 0.0, 0.0, 1.7308452985586276E9, 0.0, 2024-11-05 19:21:38.558
230.0, -182924.9331861655, -182978.75618681387, -183125.80831358532, -183155.60318894425, -183108.75393256595, -183047.28663531382, -183246.753602833, -183136.5371509239, -0.048, 0.9380000000000001, 0.368, 192.0, 0.0, 0.0, 0.0, 0.0, 0.0, 0.0, 0.0, 0.0, 0.0, 1.7308452985626516E9, 0.0, 2024-11-05 19:21:38.562
231.0, -182928.64357574508, -182982.46657639346, -183129.45164793154, -183159.31357852384, -183112.5090256344, -183051.0640801268, -183250.5086959015, -183140.26989224792, -0.048, 0.9380000000000001, 0.368, 192.0, 0.0, 0.0, 0.0, 0.0, 0.0, 0.0, 0.0, 0.0, 0.0, 1.730845298566678E9, 0.0, 2024-11-05 19:21:38.566
232.0, -182930.5881775127, -182984.41117816107, -183131.46330493252, -183161.30288378036, -183114.5206826354, -183053.0533853833, -183252.6544633692, -183142.23684576, -0.048, 0.9380000000000001, 0.368, 192.0, 0.0, 0.0, 0.0, 0.0, 0.0, 0.0, 0.0, 0.0, 0.0, 1.730845298569574E9, 0.0, 2024-11-05 19:21:38.569
233.0, -182932.30926183573, -182986.15461422858, -183133.1843892556, -183163.04631984787, -183116.24176695847, -183054.7521179619, -183254.21908548108, -183143.95793008304, -0.048, 0.9380000000000001, 0.368, 192.0, 0.0, 0.0, 0.0, 0.0, 0.0, 0.0, 0.0, 0.0, 0.0, 1.730845298573826E9, 0.0, 2024-11-05 19:21:38.573
234.0, -182934.85736070364, -182988.72506484092, -183135.75483986794, -183165.66147394915, -183118.90162454863, -183057.32256857428, -183256.72248086007, -183146.4836772065, -0.048, 0.9380000000000001, 0.368, 192.0, 0.0, 0.0, 0.0, 0.0, 0.0, 0.0, 0.0, 0.0, 0.0, 1.7308452985788567E9, 0.0, 2024-11-05 19:21:38.578
235.0, -182938.99243342786, -182992.77073058733, -183139.8228573588, -183169.77419492893, -183122.94729029507, -183061.39058606513, -183260.9022570732, -183150.61874993073, -0.048, 0.9380000000000001, 0.368, 192.0, 0.0, 0.0, 0.0, 0.0, 0.0, 0.0, 0.0, 0.0, 0.0, 1.7308452985828094E9, 0.0, 2024-11-05 19:21:38.582
236.0, -182940.86997996212, -182994.6482771216, -183141.72275563751, -183171.67409320764, -183124.69072636258, -183063.22342911048, -183262.82450709637, -183152.49629646496, -0.048, 0.9380000000000001, 0.368, 192.0, 0.0, 0.0, 0.0, 0.0, 0.0, 0.0, 0.0, 0.0, 0.0, 1.7308452985867658E9, 0.0, 2024-11-05 19:21:38.586
237.0, -182943.26161661884, -182996.9952102894, -183144.09204054976, -183173.95397114207, -183127.06001127482, -183065.5703622783, -183265.17144026418, -183154.88793312167, -0.038, 0.93, 0.352, 192.0, 254.0, 208.0, 29.0, 16.0, 11.0, 0.0, 0.0, 0.0, 0.0, 1.730845298590638E9, 0.0, 2024-11-05 19:21:38.590
238.0, -182946.63673003158, -183000.48208242442, -183147.60126442925, -183177.3290845548, -183130.5692351543, -183069.03488266884, -183268.501850188, -183158.33010176782, -0.038, 0.93, 0.352, 192.0, 0.0, 0.0, 0.0, 0.0, 0.0, 0.0, 0.0, 0.0, 0.0, 1.7308452985937612E9, 0.0, 2024-11-05 19:21:38.593
239.0, -182949.00601494385, -183002.87371908114, -183149.99290108596, -183179.72072121155, -183132.96087181102, -183071.49357455893, -183270.9158385892, -183160.74409016897, -0.038, 0.93, 0.352, 192.0, 0.0, 0.0, 0.0, 0.0, 0.0, 0.0, 0.0, 0.0, 0.0, 1.7308452985976708E9, 0.0, 2024-11-05 19:21:38.597
240.0, -182950.682395778, -183004.43834119302, -183151.5798749423, -183181.2853433234, -183134.480790434, -183073.12525190416, -183272.59221942333, -183162.28636053638, -0.038, 0.93, 0.352, 192.0, 0.0, 0.0, 0.0, 0.0, 0.0, 0.0, 0.0, 0.0, 0.0, 1.73084529860172E9, 0.0, 2024-11-05 19:21:38.601
241.0, -182954.59395105767, -183008.28284123933, -183155.42437498862, -183185.15219511418, -183138.36999396922, -183077.0144554394, -183276.50377470301, -183166.19791581607, -0.038, 0.93, 0.352, 192.0, 0.0, 0.0, 0.0, 0.0, 0.0, 0.0, 0.0, 0.0, 0.0, 1.730845298606691E9, 0.0, 2024-11-05 19:21:38.606
242.0, -182958.10317493716, -183011.85912035216, -183159.11241282374, -183188.75082597148, -183141.99097657096, -183080.59073455224, -183279.9682950936, -183169.6847879511, -0.038, 0.93, 0.352, 192.0, 0.0, 0.0, 0.0, 0.0, 0.0, 0.0, 0.0, 0.0, 0.0, 1.730845298610665E9, 0.0, 2024-11-05 19:21:38.610
243.0, -182960.00307321586, -183013.8484256087, -183161.03466284688, -183190.740131228, -183143.9355783386, -183082.55768806432, -183282.1587660502, -183171.67409320764, -0.038, 0.93, 0.352, 192.0, 0.0, 0.0, 0.0, 0.0, 0.0, 0.0, 0.0, 0.0, 0.0, 1.730845298614591E9, 0.0, 2024-11-05 19:21:38.614
244.0, -182962.12648893913, -183015.9494895875, -183163.06867159234, -183192.77413997342, -183146.05899406184, -183084.54699332084, -183284.32688526236, -183173.81986067534, -0.038, 0.93, 0.352, 192.0, 0.0, 0.0, 0.0, 0.0, 0.0, 0.0, 0.0, 0.0, 0.0, 1.7308452986176448E9, 0.0, 2024-11-05 19:21:38.617
245.0, -182967.71442505295, -183021.44801872352, -183168.52249723944, -183198.3397243428, -183151.66928192013, -183090.11257769022, -183289.78071090946, -183179.29603806688, -0.038, 0.93, 0.352, 192.0, 0.0, 0.0, 0.0, 0.0, 0.0, 0.0, 0.0, 0.0, 0.0, 1.730845298621739E9, 0.0, 2024-11-05 19:21:38.621
246.0, -182973.45882337797, -183027.12536181515, -183174.3786542867, -183204.06177092335, -183157.39132850067, -183095.94638299305, -183295.43570225665, -183185.10749162527, -0.038, 0.93, 0.352, 192.0, 0.0, 0.0, 0.0, 0.0, 0.0, 0.0, 0.0, 0.0, 0.0, 1.7308452986257317E9, 0.0, 2024-11-05 19:21:38.625
247.0, -182974.4870036229, -183028.24294903793, -183175.40683453166, -183205.06759942384, -183158.37480525672, -183096.90750800463, -183296.44153075715, -183186.0462648924, -0.054, 0.9440000000000001, 0.34600000000000003, 192.0, 254.0, 80.0, 29.0, 128.0, 10.0, 208.0, 0.0, 0.0, 0.0, 1.7308452986296556E9, 0.0, 2024-11-05 19:21:38.629
248.0, -182976.45395713497, -183030.2993095278, -183177.39613978818, -183207.1016081693, -183160.34175876877, -183098.89681326115, -183298.5649464804, -183188.16968061563, -0.054, 0.9440000000000001, 0.34600000000000003, 192.0, 0.0, 0.0, 0.0, 0.0, 0.0, 0.0, 0.0, 0.0, 0.0, 1.7308452986346471E9, 0.0, 2024-11-05 19:21:38.634
249.0, -182979.76201531437, -183033.60736770718, -183180.6818462231, -183210.38731460422, -183163.64981694816, -183102.13781620716, -183301.94005989315, -183191.3883318172, -0.054, 0.9440000000000001, 0.34600000000000003, 192.0, 0.0, 0.0, 0.0, 0.0, 0.0, 0.0, 0.0, 0.0, 0.0, 1.7308452986387591E9, 0.0, 2024-11-05 19:21:38.638
250.0, -182984.3441229277, -183038.1447718316, -183185.21925034752, -183214.88001523973, -183168.20957281705, -183106.7199238205, -183306.29865006194, -183196.0374946639, -0.054, 0.9440000000000001, 0.34600000000000003, 192.0, 0.0, 0.0, 0.0, 0.0, 0.0, 0.0, 0.0, 0.0, 0.0, 1.7308452986427257E9, 0.0, 2024-11-05 19:21:38.642
251.0, -182986.55694562878, -183040.37994627716, -183187.4767765375, -183217.0928379408, -183170.3776920292, -183108.97745001048, -183308.42206578518, -183198.22796562052, -0.054, 0.9440000000000001, 0.34600000000000003, 192.0, 0.0, 0.0, 0.0, 0.0, 0.0, 0.0, 0.0, 0.0, 0.0, 1.730845298645761E9, 0.0, 2024-11-05 19:21:38.645
252.0, -182987.8980502961, -183041.6986992, -183188.90728818267, -183218.52334958594, -183171.7858519299, -183110.29620293336, -183309.87492917478, -183199.56907028783, -0.054, 0.9440000000000001, 0.34600000000000003, 192.0, 0.0, 0.0, 0.0, 0.0, 0.0, 0.0, 0.0, 0.0, 0.0, 1.7308452986498668E9, 0.0, 2024-11-05 19:21:38.649
253.0, -182990.55790788628, -183044.38090853466, -183191.52244228392, -183221.27261415395, -183174.46806126455, -183112.97841226798, -183312.62419374278, -183202.20657613358, -0.054, 0.9440000000000001, 0.34600000000000003, 192.0, 0.0, 0.0, 0.0, 0.0, 0.0, 0.0, 0.0, 0.0, 0.0, 1.730845298653742E9, 0.0, 2024-11-05 19:21:38.653
254.0, -182993.1507102431, -183047.01841438038, -183194.1375963852, -183223.86541651076, -183177.10556711027, -183115.727676836, -183315.12758912178, -183204.91113721265, -0.054, 0.9440000000000001, 0.34600000000000003, 192.0, 0.0, 0.0, 0.0, 0.0, 0.0, 0.0, 0.0, 0.0, 0.0, 1.7308452986577015E9, 0.0, 2024-11-05 19:21:38.657
255.0, -182996.68228586702, -183050.5946934932, -183197.7362272425, -183227.39699213472, -183180.726549712, -183119.23690071548, -183318.70386823462, -183208.5544715589, -0.054, 0.9440000000000001, 0.34600000000000003, 192.0, 0.0, 0.0, 0.0, 0.0, 0.0, 0.0, 0.0, 0.0, 0.0, 1.7308452986627831E9, 0.0, 2024-11-05 19:21:38.662
0.0, -182999.0515707793, -183053.0533853833, -183200.08316041032, -183229.85568402478, -183183.09583462428, -183121.60618562772, -183321.2072636136, -183210.87905298223, -0.054, 0.9440000000000001, 0.34600000000000003, 192.0, 0.0, 0.0, 0.0, 0.0, 0.0, 0.0, 0.0, 0.0, 0.0, 1.730845298666751E9, 0.0, 2024-11-05 19:21:38.666
1.0, -183001.51026266936, -183055.4673737845, -183202.4524453226, -183232.29202417043, -183185.46511953656, -183124.0201740289, -183323.73301073708, -183213.2483378945, -0.04, 0.9440000000000001, 0.334, 192.0, 254.0, 192.0, 29.0, 128.0, 10.0, 112.0, 0.0, 0.0, 0.0, 1.730845298670807E9, 0.0, 2024-11-05 19:21:38.670
2.0, -183004.46069293746, -183058.4178040526, -183205.38052384622, -183235.22010269406, -183188.54966027138, -183127.03765953038, -183326.6163857718, -183216.26582339595, -0.04, 0.9440000000000001, 0.334, 192.0, 0.0, 0.0, 0.0, 0.0, 0.0, 0.0, 0.0, 0.0, 0.0, 1.7308452986737869E9, 0.0, 2024-11-05 19:21:38.673
3.0, -183005.08654178222, -183058.93189417504, -183205.96166920205, -183235.73419281654, -183189.10845388277, -183127.55174965283, -183327.1751793832, -183216.82461700734, -0.04, 0.9440000000000001, 0.334, 192.0, 0.0, 0.0, 0.0, 0.0, 0.0, 0.0, 0.0, 0.0, 0.0, 1.730845298677749E9, 0.0, 2024-11-05 19:21:38.677
4.0, -183007.0534952943, -183060.92119943158, -183207.97332620303, -183237.63409109524, -183191.05305565038, -183129.473999676, -183329.14213289527, -183218.85862575276, -0.04, 0.9440000000000001, 0.334, 192.0, 0.0, 0.0, 0.0, 0.0, 0.0, 0.0, 0.0, 0.0, 0.0, 1.730845298681667E9, 0.0, 2024-11-05 19:21:38.681
5.0, -183010.36155347366, -183064.29631284432, -183211.3037361269, -183241.03155625245, -183194.27170685193, -183132.84911308874, -183332.6290050303, -183222.21138742106, -0.04, 0.9440000000000001, 0.334, 192.0, 0.0, 0.0, 0.0, 0.0, 0.0, 0.0, 0.0, 0.0, 0.0, 1.730845298685688E9, 0.0, 2024-11-05 19:21:38.685
6.0, -183012.9990593194, -183066.9114669456, -183214.03064895043, -183243.71376558708, -183196.8868609532, -183135.50897067893, -183335.1771038982, -183224.82654152234, -0.04, 0.9440000000000001, 0.334, 192.0, 0.0, 0.0, 0.0, 0.0, 0.0, 0.0, 0.0, 0.0, 0.0, 1.7308452986898203E9, 0.0, 2024-11-05 19:21:38.689
7.0, -183015.9494895875, -183069.8618972137, -183216.93637572962, -183246.66419585518, -183199.8372912213, -183138.4370492026, -183338.01577544402, -183227.68756481263, -0.04, 0.9440000000000001, 0.334, 192.0, 0.0, 0.0, 0.0, 0.0, 0.0, 0.0, 0.0, 0.0, 0.0, 1.730845298694837E9, 0.0, 2024-11-05 19:21:38.694
8.0, -183018.63169892214, -183072.58881003724, -183219.61858506425, -183249.43581216765, -183202.5865557893, -183141.2310172595, -183340.7873917565, -183230.39212589173, -0.04, 0.9440000000000001, 0.334, 192.0, 0.0, 0.0, 0.0, 0.0, 0.0, 0.0, 0.0, 0.0, 0.0, 1.7308452986979384E9, 0.0, 2024-11-05 19:21:38.697
9.0, -183021.71623965696, -183075.62864728316, -183222.77018103245, -183252.5427046469, -183205.76050350195, -183144.27085450542, -183344.0730981914, -183233.54372185993, -0.04, 0.9440000000000001, 0.334, 192.0, 0.0, 0.0, 0.0, 0.0, 0.0, 0.0, 0.0, 0.0, 0.0, 1.7308452987016733E9, 0.0, 2024-11-05 19:21:38.701
10.0, -183024.82313213625, -183078.713188018, -183225.76531478946, -183255.5601901484, -183208.8897477257, -183147.31069175134, -183347.1352871818, -183236.62826259475, -0.04, 0.9440000000000001, 0.334, 192.0, 0.0, 0.0, 0.0, 0.0, 0.0, 0.0, 0.0, 0.0, 0.0, 1.730845298705772E9, 0.0, 2024-11-05 19:21:38.705
11.0, -183027.19241704853, -183081.06012118582, -183228.17930319064, -183257.9518268051, -183211.1919774046, -183149.72468015252, -183349.34810988285, -183239.06460274037, -0.036000000000000004, 0.9460000000000001, 0.338, 192.0, 254.0, 224.0, 29.0, 144.0, 10.0, 144.0, 0.0, 0.0, 0.0, 1.7308452987097456E9, 0.0, 2024-11-05 19:21:38.709
12.0, -183029.18172230505, -183083.07177818677, -183230.25801542497, -183259.98583555053, -183213.2483378945, -183151.71398540903, -183351.4268221172, -183241.0539079969, -0.036000000000000004, 0.9460000000000001, 0.338, 192.0, 0.0, 0.0, 0.0, 0.0, 0.0, 0.0, 0.0, 0.0, 0.0, 1.7308452987137177E9, 0.0, 2024-11-05 19:21:38.713
13.0, -183033.76382991837, -183087.63153405566, -183234.81777129386, -183264.54559141942, -183217.76339027446, -183156.27374127792, -183356.09833670835, -183245.68071909915, -0.036000000000000004, 0.9460000000000001, 0.338, 192.0, 0.0, 0.0, 0.0, 0.0, 0.0, 0.0, 0.0, 0.0, 0.0, 1.7308452987177043E9, 0.0, 2024-11-05 19:21:38.717
14.0, -183036.75896367538, -183090.51490909042, -183237.81290505087, -183267.58542866533, -183220.69146879812, -183159.20181980156, -183359.04876697646, -183248.6087976228, -0.036000000000000004, 0.9460000000000001, 0.338, 192.0, 0.0, 0.0, 0.0, 0.0, 0.0, 0.0, 0.0, 0.0, 0.0, 1.7308452987227707E9, 0.0, 2024-11-05 19:21:38.722
15.0, -183037.58597822025, -183091.40897886863, -183238.50580912898, -183268.23362925454, -183221.58553857633, -183160.00648260195, -183359.71931931013, -183249.32405344537, -0.036000000000000004, 0.9460000000000001, 0.338, 192.0, 0.0, 0.0, 0.0, 0.0, 0.0, 0.0, 0.0, 0.0, 0.0, 1.7308452987257385E9, 0.0, 2024-11-05 19:21:38.725
16.0, -183040.62581546616, -183094.42646437007, -183241.5456463749, -183271.3181699894, -183224.62537582224, -183163.15807857015, -183362.84856353386, -183252.3415389468, -0.036000000000000004, 0.9460000000000001, 0.338, 192.0, 0.0, 0.0, 0.0, 0.0, 0.0, 0.0, 0.0, 0.0, 0.0, 1.7308452987287748E9, 0.0, 2024-11-05 19:21:38.728
17.0, -183043.5985974787, -183097.42159812708, -183244.56313187638, -183274.3580072353, -183227.62050957925, -183166.06380534935, -183365.88840077978, -183255.3590244483, -0.036000000000000004, 0.9460000000000001, 0.338, 192.0, 0.0, 0.0, 0.0, 0.0, 0.0, 0.0, 0.0, 0.0, 0.0, 1.7308452987338493E9, 0.0, 2024-11-05 19:21:38.733
18.0, -183046.23610332445, -183100.14851095065, -183247.22298946657, -183277.0625683144, -183230.25801542497, -183168.6342559617, -183368.59296185887, -183257.97417854957, -0.036000000000000004, 0.9460000000000001, 0.338, 192.0, 0.0, 0.0, 0.0, 0.0, 0.0, 0.0, 0.0, 0.0, 0.0, 1.730845298737718E9, 0.0, 2024-11-05 19:21:38.737
19.0, -183050.1029551152, -183103.94830750805, -183251.1568964907, -183280.92942010515, -183234.05781198238, -183172.50110775247, -183372.32570318293, -183261.8633820848, -0.036000000000000004, 0.9460000000000001, 0.338, 192.0, 0.0, 0.0, 0.0, 0.0, 0.0, 0.0, 0.0, 0.0, 0.0, 1.7308452987419615E9, 0.0, 2024-11-05 19:21:38.741
20.0, -183053.56747550578, -183107.3681244097, -183254.4426029256, -183284.23747828454, -183237.38822190624, -183175.94327639858, -183375.61140961785, -183265.32790247537, -0.036000000000000004, 0.9460000000000001, 0.338, 192.0, 0.0, 0.0, 0.0, 0.0, 0.0, 0.0, 0.0, 0.0, 0.0, 1.730845298745874E9, 0.0, 2024-11-05 19:21:38.745
21.0, -183055.89205692912, -183109.6256505997, -183256.67777737117, -183286.49500447453, -183239.71280332957, -183178.15609909967, -183377.95834278566, -183267.5630769209, -0.026000000000000002, 0.934, 0.336, 192.0, 255.0, 48.0, 29.0, 48.0, 10.0, 128.0, 0.0, 0.0, 0.0, 1.730845298750789E9, 0.0, 2024-11-05 19:21:38.750
22.0, -183056.964940663, -183110.78794131137, -183257.8624198273, -183287.67964693066, -183240.91979753016, -183179.29603806688, -183379.2323922196, -183268.63596065473, -0.026000000000000002, 0.934, 0.336, 192.0, 0.0, 0.0, 0.0, 0.0, 0.0, 0.0, 0.0, 0.0, 0.0, 1.730845298753929E9, 0.0, 2024-11-05 19:21:38.753
23.0, -183060.49651628692, -183114.3642204242, -183261.41634719569, -183291.18887081015, -183244.4066696652, -183182.8276136908, -183382.69691261018, -183272.27929500095, -0.026000000000000002, 0.934, 0.336, 192.0, 0.0, 0.0, 0.0, 0.0, 0.0, 0.0, 0.0, 0.0, 0.0, 1.730845298757939E9, 0.0, 2024-11-05 19:21:38.757
24.0, -183063.93868493303, -183117.7169820925, -183264.83616409733, -183294.5639842229, -183247.8488383113, -183186.3368375703, -183386.04967427847, -183275.7214636471, -0.026000000000000002, 0.934, 0.336, 192.0, 0.0, 0.0, 0.0, 0.0, 0.0, 0.0, 0.0, 0.0, 0.0, 1.7308452987619002E9, 0.0, 2024-11-05 19:21:38.761
25.0, -183066.84441171223, -183120.73446759398, -183267.78659436543, -183297.55911797992, -183250.82162032387, -183189.30961958287, -183389.11186326886, -183278.69424565963, -0.026000000000000002, 0.934, 0.336, 192.0, 0.0, 0.0, 0.0, 0.0, 0.0, 0.0, 0.0, 0.0, 0.0, 1.7308452987661505E9, 0.0, 2024-11-05 19:21:38.766
26.0, -183068.74430999093, -183122.58966238378, -183269.68649264413, -183299.48136800306, -183252.72151860257, -183191.1424626282, -183391.034113292, -183280.52708870496, -0.026000000000000002, 0.934, 0.336, 192.0, 0.0, 0.0, 0.0, 0.0, 0.0, 0.0, 0.0, 0.0, 0.0, 1.7308452987698493E9, 0.0, 2024-11-05 19:21:38.769
27.0, -183071.53827804784, -183125.33892695178, -183272.48046070104, -183302.14122559325, -183255.4037279372, -183193.95878242957, -183393.7386743711, -183283.25400152852, -0.026000000000000002, 0.934, 0.336, 192.0, 0.0, 0.0, 0.0, 0.0, 0.0, 0.0, 0.0, 0.0, 0.0, 1.7308452987739015E9, 0.0, 2024-11-05 19:21:38.773
28.0, -183073.75110074892, -183127.5741013973, -183274.7156351466, -183304.44345527215, -183257.68360587163, -183196.10454989728, -183395.9291453277, -183285.44447248513, -0.026000000000000002, 0.934, 0.336, 192.0, 0.0, 0.0, 0.0, 0.0, 0.0, 0.0, 0.0, 0.0, 0.0, 1.7308452987789009E9, 0.0, 2024-11-05 19:21:38.778
29.0, -183076.92504846156, -183130.6362903877, -183277.88958285924, -183307.57269949588, -183260.87990532877, -183199.25614586548, -183399.10309304038, -183288.61842019777, -0.026000000000000002, 0.934, 0.336, 192.0, 0.0, 0.0, 0.0, 0.0, 0.0, 0.0, 0.0, 0.0, 0.0, 1.7308452987818723E9, 0.0, 2024-11-05 19:21:38.781
30.0, -183079.98723745195, -183133.76553461142, -183280.92942010515, -183310.6572402307, -183263.9644460636, -183202.3406866003, -183402.3440959864, -183291.77001616597, -0.026000000000000002, 0.934, 0.336, 192.0, 0.0, 0.0, 0.0, 0.0, 0.0, 0.0, 0.0, 0.0, 0.0, 1.730845298785176E9, 0.0, 2024-11-05 19:21:38.785
31.0, -183082.82590899777, -183136.6265579017, -183283.79044339544, -183313.42885654318, -183266.78076586494, -183205.13465465722, -183405.07100880993, -183294.51928073398, -0.01, 0.9380000000000001, 0.338, 192.0, 255.0, 176.0, 29.0, 80.0, 10.0, 144.0, 0.0, 0.0, 0.0, 1.730845298789948E9, 0.0, 2024-11-05 19:21:38.789
32.0, -183085.08343518776, -183138.8840840917, -183286.13737656325, -183315.77578971098, -183269.03829205493, -183207.57099480284, -183407.1944245332, -183296.79915866844, -0.01, 0.9380000000000001, 0.338, 192.0, 0.0, 0.0, 0.0, 0.0, 0.0, 0.0, 0.0, 0.0, 0.0, 1.730845298793912E9, 0.0, 2024-11-05 19:21:38.793
33.0, -183086.98333346646, -183140.8286858593, -183287.88081263076, -183317.7203914786, -183270.93819033363, -183209.4485413371, -183409.18372978971, -183298.69905694714, -0.01, 0.9380000000000001, 0.338, 192.0, 0.0, 0.0, 0.0, 0.0, 0.0, 0.0, 0.0, 0.0, 0.0, 1.7308452987979455E9, 0.0, 2024-11-05 19:21:38.797
34.0, -183091.49838584644, -183145.38844172817, -183292.48527198855, -183322.23544385858, -183275.54264969143, -183213.9412419726, -183413.8999478698, -183303.2141093271, -0.01, 0.9380000000000001, 0.338, 192.0, 0.0, 0.0, 0.0, 0.0, 0.0, 0.0, 0.0, 0.0, 0.0, 1.730845298802046E9, 0.0, 2024-11-05 19:21:38.802
35.0, -183092.8171387693, -183146.57308418432, -183293.82637665587, -183323.5094932925, -183276.8614026143, -183215.1929396621, -183415.1516455593, -183304.55521399443, -0.01, 0.9380000000000001, 0.338, 192.0, 0.0, 0.0, 0.0, 0.0, 0.0, 0.0, 0.0, 0.0, 0.0, 1.730845298804917E9, 0.0, 2024-11-05 19:21:38.804
36.0, -183094.53822309236, -183148.227113274, -183295.50275749003, -183325.18587412668, -183278.5601351929, -183216.82461700734, -183416.78332290452, -183306.2092430841, -0.01, 0.9380000000000001, 0.338, 192.0, 0.0, 0.0, 0.0, 0.0, 0.0, 0.0, 0.0, 0.0, 0.0, 1.7308452988088524E9, 0.0, 2024-11-05 19:21:38.808
37.0, -183098.20390918304, -183151.95985459804, -183299.2131470696, -183328.98567068408, -183282.22582128356, -183220.57971007584, -183420.42665725073, -183309.98668789706, -0.01, 0.9380000000000001, 0.338, 192.0, 0.0, 0.0, 0.0, 0.0, 0.0, 0.0, 0.0, 0.0, 0.0, 1.7308452988129137E9, 0.0, 2024-11-05 19:21:38.812
38.0, -183102.1154644627, -183155.82670638882, -183303.19175758265, -183332.9195777082, -183286.13737656325, -183224.55832058887, -183424.4946747416, -183313.94294666566, -0.01, 0.9380000000000001, 0.338, 192.0, 0.0, 0.0, 0.0, 0.0, 0.0, 0.0, 0.0, 0.0, 0.0, 1.7308452988181317E9, 0.0, 2024-11-05 19:21:38.818
39.0, -183103.23305168547, -183156.98899710047, -183304.24228957205, -183333.9701096976, -183287.29966727493, -183225.65355606718, -183425.63461370883, -183315.03818214397, -0.01, 0.9380000000000001, 0.338, 192.0, 0.0, 0.0, 0.0, 0.0, 0.0, 0.0, 0.0, 0.0, 0.0, 1.7308452988220313E9, 0.0, 2024-11-05 19:21:38.822
40.0, -183106.42935114258, -183160.23000004652, -183307.4162372847, -183337.21111264362, -183290.54067022094, -183228.91691075766, -183428.78620967703, -183318.30153683445, -0.01, 0.9380000000000001, 0.338, 192.0, 0.0, 0.0, 0.0, 0.0, 0.0, 0.0, 0.0, 0.0, 0.0, 1.7308452988260975E9, 0.0, 2024-11-05 19:21:38.826
41.0, -183110.475016889, -183164.25331404846, -183311.48425477557, -183341.21207490112, -183294.54163247845, -183232.91787301516, -183432.76482019006, -183322.34720258086, -0.01, 0.9380000000000001, 0.338, 192.0, 0.0, 0.0, 0.0, 0.0, 0.0, 0.0, 0.0, 0.0, 0.0, 1.7308452988301375E9, 0.0, 2024-11-05 19:21:38.830
42.0, -183112.9113570346, -183166.75670942746, -183313.9205949212, -183343.6260633023, -183296.91091739072, -183235.3989166497, -183435.31291905796, -183324.80589447092, -0.024, 0.9560000000000001, 0.362, 192.0, 255.0, 64.0, 29.0, 224.0, 11.0, 80.0, 0.0, 0.0, 0.0, 1.7308452988332396E9, 0.0, 2024-11-05 19:21:38.833
43.0, -183113.58190936828, -183167.49431699447, -183314.6134989993, -183344.36367086932, -183297.62617321327, -183236.06946898336, -183436.05052662498, -183325.49879854906, -0.024, 0.9560000000000001, 0.362, 192.0, 0.0, 0.0, 0.0, 0.0, 0.0, 0.0, 0.0, 0.0, 0.0, 1.730845298837186E9, 0.0, 2024-11-05 19:21:38.837
44.0, -183115.1688832246, -183169.01423561745, -183316.28987983346, -183345.9729964701, -183299.2131470696, -183237.63409109524, -183437.5480935035, -183327.2198828721, -0.024, 0.9560000000000001, 0.362, 192.0, 0.0, 0.0, 0.0, 0.0, 0.0, 0.0, 0.0, 0.0, 0.0, 1.730845298840993E9, 0.0, 2024-11-05 19:21:38.840
45.0, -183120.55565363832, -183174.35630254226, -183321.54253978046, -183351.1809529282, -183304.5105105055, -183242.93145453115, -183442.91251217277, -183332.45019107463, -0.024, 0.9560000000000001, 0.362, 192.0, 0.0, 0.0, 0.0, 0.0, 0.0, 0.0, 0.0, 0.0, 0.0, 1.7308452988460095E9, 0.0, 2024-11-05 19:21:38.846
46.0, -183124.84718857377, -183178.5807822443, -183325.6776125047, -183355.47248786362, -183308.7126384631, -183247.245341211, -183447.2487505971, -183336.60761554333, -0.024, 0.9560000000000001, 0.362, 192.0, 0.0, 0.0, 0.0, 0.0, 0.0, 0.0, 0.0, 0.0, 0.0, 1.7308452988500178E9, 0.0, 2024-11-05 19:21:38.850
47.0, -183128.5352264089, -183182.2911718239, -183329.49976080653, -183359.20522918765, -183312.40067629825, -183250.9557307906, -183450.98149192115, -183340.34035686738, -0.024, 0.9560000000000001, 0.362, 192.0, 0.0, 0.0, 0.0, 0.0, 0.0, 0.0, 0.0, 0.0, 0.0, 1.7308452988539982E9, 0.0, 2024-11-05 19:21:38.853
48.0, -183128.35641245323, -183182.24646833498, -183329.4774090621, -183359.1828774432, -183312.33362106487, -183250.86632381278, -183450.73562273214, -183340.2285981451, -0.024, 0.9560000000000001, 0.362, 192.0, 0.0, 0.0, 0.0, 0.0, 0.0, 0.0, 0.0, 0.0, 0.0, 1.7308452988580847E9, 0.0, 2024-11-05 19:21:38.858
49.0, -183129.6751653761, -183183.56522125786, -183330.8185137294, -183360.56868559943, -183313.74178096556, -183252.2074284801, -183452.1437826328, -183341.54735106794, -0.024, 0.9560000000000001, 0.362, 192.0, 0.0, 0.0, 0.0, 0.0, 0.0, 0.0, 0.0, 0.0, 0.0, 1.730845298861141E9, 0.0, 2024-11-05 19:21:38.861
50.0, -183133.5196654224, -183187.49912828198, -183334.70771726462, -183364.45788913465, -183317.58628101187, -183256.0966320153, -183456.12239314587, -183345.41420285872, -0.024, 0.9560000000000001, 0.362, 192.0, 0.0, 0.0, 0.0, 0.0, 0.0, 0.0, 0.0, 0.0, 0.0, 1.730845298864962E9, 0.0, 2024-11-05 19:21:38.864
51.0, -183139.39817421415, -183193.2882300959, -183340.45211558964, -183370.15758397075, -183323.3753828258, -183261.88573382923, -183461.93384670423, -183351.29271165046, -0.024, 0.9560000000000001, 0.362, 192.0, 0.0, 0.0, 0.0, 0.0, 0.0, 0.0, 0.0, 0.0, 0.0, 1.730845298869182E9, 0.0, 2024-11-05 19:21:38.869
52.0, -183140.85103760374, -183194.67403825212, -183341.9273307237, -183371.61044736035, -183324.80589447092, -183263.3162454744, -183463.31965486048, -183352.72322329562, -0.032, 0.932, 0.36, 192.0, 255.0, 0.0, 29.0, 32.0, 11.0, 64.0, 0.0, 0.0, 0.0, 1.7308452988740163E9, 0.0, 2024-11-05 19:21:38.874
53.0, -183141.85686610424, -183195.72457024152, -183342.91080747973, -183372.61627586084, -183325.8117229714, -183264.2550187415, -183464.3031316165, -183353.70670005164, -0.032, 0.932, 0.36, 192.0, 0.0, 0.0, 0.0, 0.0, 0.0, 0.0, 0.0, 0.0, 0.0, 1.7308452988779535E9, 0.0, 2024-11-05 19:21:38.877
54.0, -183146.43897371757, -183200.2843261104, -183347.47056334862, -183377.04192126298, -183330.4161823292, -183268.74771937702, -183468.8628874854, -183358.31115940944, -0.032, 0.932, 0.36, 192.0, 0.0, 0.0, 0.0, 0.0, 0.0, 0.0, 0.0, 0.0, 0.0, 1.7308452988820655E9, 0.0, 2024-11-05 19:21:38.882
55.0, -183148.54003769637, -183202.27363136693, -183349.4822203496, -183379.12063349734, -183332.3831358413, -183270.82643161138, -183470.98630320863, -183360.34516815486, -0.032, 0.932, 0.36, 192.0, 0.0, 0.0, 0.0, 0.0, 0.0, 0.0, 0.0, 0.0, 0.0, 1.7308452988858724E9, 0.0, 2024-11-05 19:21:38.885
56.0, -183149.6799766636, -183203.48062556752, -183350.62215931682, -183380.3276276979, -183333.5230748085, -183272.03342581194, -183472.1038904314, -183361.44040363317, -0.032, 0.932, 0.36, 192.0, 0.0, 0.0, 0.0, 0.0, 0.0, 0.0, 0.0, 0.0, 0.0, 1.730845298889192E9, 0.0, 2024-11-05 19:21:38.889
57.0, -183153.79269764337, -183207.61569829175, -183354.80193552995, -183384.4850521666, -183337.74755451054, -183276.19085028063, -183476.0601492, -183365.50842112405, -0.032, 0.932, 0.36, 192.0, 0.0, 0.0, 0.0, 0.0, 0.0, 0.0, 0.0, 0.0, 0.0, 1.730845298893008E9, 0.0, 2024-11-05 19:21:38.893
58.0, -183155.53613371088, -183209.38148610372, -183356.56772334193, -183386.273191723, -183339.55804581143, -183277.93428634814, -183477.87064050089, -183367.31891242493, -0.032, 0.932, 0.36, 192.0, 0.0, 0.0, 0.0, 0.0, 0.0, 0.0, 0.0, 0.0, 0.0, 1.7308452988971498E9, 0.0, 2024-11-05 19:21:38.897
59.0, -183158.59832270126, -183212.4436750941, -183359.67461582122, -183389.40243594677, -183342.66493829072, -183280.92942010515, -183481.08929170243, -183370.3811014153, -0.032, 0.932, 0.36, 192.0, 0.0, 0.0, 0.0, 0.0, 0.0, 0.0, 0.0, 0.0, 0.0, 1.730845298901072E9, 0.0, 2024-11-05 19:21:38.901
60.0, -183162.19695355857, -183216.10936118476, -183363.40735714525, -183393.02341854852, -183346.24121740356, -183284.6174579403, -183484.73262604864, -183374.06913925044, -0.032, 0.932, 0.36, 192.0, 0.0, 0.0, 0.0, 0.0, 0.0, 0.0, 0.0, 0.0, 0.0, 1.7308452989061997E9, 0.0, 2024-11-05 19:21:38.906
61.0, -183164.38742451518, -183218.16572167465, -183365.50842112405, -183395.21388950516, -183348.3869848713, -183286.83028064136, -183486.811338283, -183376.19255497368, -0.032, 0.932, 0.36, 192.0, 0.0, 0.0, 0.0, 0.0, 0.0, 0.0, 0.0, 0.0, 0.0, 1.7308452989101233E9, 0.0, 2024-11-05 19:21:38.910
62.0, -183167.96370362805, -183221.65259380967, -183369.01764500354, -183398.7454651291, -183351.94091223966, -183290.31715277638, -183490.3652656514, -183379.70177885317, -0.028, 0.93, 0.354, 192.0, 255.0, 32.0, 29.0, 16.0, 11.0, 16.0, 0.0, 0.0, 0.0, 1.7308452989141495E9, 0.0, 2024-11-05 19:21:38.914
63.0, -183172.34464554128, -183226.05588746737, -183373.35388342786, -183403.12640704232, -183356.36655764183, -183294.65339120073, -183494.79091105354, -183384.06036902196, -0.028, 0.93, 0.354, 192.0, 0.0, 0.0, 0.0, 0.0, 0.0, 0.0, 0.0, 0.0, 0.0, 1.7308452989181135E9, 0.0, 2024-11-05 19:21:38.918
64.0, -183173.64104671968, -183227.48639911253, -183374.80674681746, -183404.534566943, -183357.75236579805, -183296.10625459033, -183496.22142269867, -183385.55793590046, -0.028, 0.93, 0.354, 192.0, 0.0, 0.0, 0.0, 0.0, 0.0, 0.0, 0.0, 0.0, 0.0, 1.7308452989211483E9, 0.0, 2024-11-05 19:21:38.921
65.0, -183176.0773868653, -183229.85568402478, -183377.19838347417, -183406.8367966219, -183360.07694722142, -183298.49789124704, -183498.47894888866, -183387.94957255718, -0.028, 0.93, 0.354, 192.0, 0.0, 0.0, 0.0, 0.0, 0.0, 0.0, 0.0, 0.0, 0.0, 1.73084529892521E9, 0.0, 2024-11-05 19:21:38.925
66.0, -183178.1784508441, -183231.97909974804, -183379.16533698625, -183408.9378606007, -183362.13330771128, -183300.53189999246, -183500.58001286746, -183389.9388778137, -0.028, 0.93, 0.354, 192.0, 0.0, 0.0, 0.0, 0.0, 0.0, 0.0, 0.0, 0.0, 0.0, 1.7308452989300516E9, 0.0, 2024-11-05 19:21:38.930
67.0, -183182.4252822906, -183236.15887596118, -183383.41216843275, -183413.20704379166, -183366.31308392444, -183304.73402795006, -183504.84919605844, -183394.1857092602, -0.028, 0.93, 0.354, 192.0, 0.0, 0.0, 0.0, 0.0, 0.0, 0.0, 0.0, 0.0, 0.0, 1.7308452989340553E9, 0.0, 2024-11-05 19:21:38.934
68.0, -183184.66045673616, -183238.43875389564, -183385.69204636718, -183415.48692172611, -183368.59296185887, -183307.03625762896, -183507.19612922624, -183396.4879389391, -0.028, 0.93, 0.354, 192.0, 0.0, 0.0, 0.0, 0.0, 0.0, 0.0, 0.0, 0.0, 0.0, 1.7308452989381313E9, 0.0, 2024-11-05 19:21:38.938
69.0, -183183.76638695796, -183237.56703586187, -183384.79797658898, -183414.548148459, -183367.78829905848, -183306.23159482857, -183506.25735595913, -183395.5268139275, -0.028, 0.93, 0.354, 192.0, 0.0, 0.0, 0.0, 0.0, 0.0, 0.0, 0.0, 0.0, 0.0, 1.7308452989409652E9, 0.0, 2024-11-05 19:21:38.940
70.0, -183188.54966027138, -183242.48441964205, -183389.5812499024, -183419.42082875024, -183372.54922062746, -183311.03721988646, -183511.15238799484, -183400.3994942188, -0.028, 0.93, 0.354, 192.0, 0.0, 0.0, 0.0, 0.0, 0.0, 0.0, 0.0, 0.0, 0.0, 1.7308452989451156E9, 0.0, 2024-11-05 19:21:38.945
71.0, -183192.17064287313, -183245.9936435215, -183393.1798807597, -183422.97475611864, -183376.0807962514, -183314.6134989993, -183514.72866710767, -183404.02047682053, -0.028, 0.93, 0.354, 192.0, 0.0, 0.0, 0.0, 0.0, 0.0, 0.0, 0.0, 0.0, 0.0, 1.730845298949304E9, 0.0, 2024-11-05 19:21:38.949
72.0, -183194.80814871888, -183248.6982046006, -183395.90679358327, -183425.63461370883, -183378.7853573305, -183317.42981880068, -183517.4555799312, -183406.7026861552, -0.032, 0.9400000000000001, 0.356, 192.0, 255.0, 0.0, 29.0, 96.0, 11.0, 32.0, 0.0, 0.0, 0.0, 1.7308452989550323E9, 0.0, 2024-11-05 19:21:38.955
73.0, -183195.992791175, -183249.88284705675, -183397.15849127277, -183426.88631139832, -183380.10411025336, -183318.63681300127, -183518.68492587627, -183407.8873286113, -0.032, 0.9400000000000001, 0.356, 192.0, 0.0, 0.0, 0.0, 0.0, 0.0, 0.0, 0.0, 0.0, 0.0, 1.7308452989580748E9, 0.0, 2024-11-05 19:21:38.958
74.0, -183198.51853829843, -183252.38624243572, -183399.57247967392, -183429.38970677732, -183382.54045039898, -183321.00609791352, -183521.14361776636, -183410.3460205014, -0.032, 0.9400000000000001, 0.356, 192.0, 0.0, 0.0, 0.0, 0.0, 0.0, 0.0, 0.0, 0.0, 0.0, 1.7308452989620633E9, 0.0, 2024-11-05 19:21:38.962
75.0, -183201.26780286644, -183255.22491398157, -183402.36644773083, -183432.13897134532, -183385.31206671146, -183323.75536248152, -183523.89288233436, -183413.18469204722, -0.032, 0.9400000000000001, 0.356, 192.0, 0.0, 0.0, 0.0, 0.0, 0.0, 0.0, 0.0, 0.0, 0.0, 1.7308452989660609E9, 0.0, 2024-11-05 19:21:38.966
76.0, -183203.97236394553, -183257.750661105, -183404.95925008768, -183434.70942195767, -183387.90486906827, -183326.4152200717, -183526.6197951579, -183415.77749440403, -0.032, 0.9400000000000001, 0.356, 192.0, 0.0, 0.0, 0.0, 0.0, 0.0, 0.0, 0.0, 0.0, 0.0, 1.7308452989696064E9, 0.0, 2024-11-05 19:21:38.969
77.0, -183206.16283490215, -183259.91878031718, -183407.21677627764, -183436.92224465875, -183390.07298828042, -183328.6727462617, -183528.9220248368, -183417.9903171051, -0.032, 0.9400000000000001, 0.356, 192.0, 0.0, 0.0, 0.0, 0.0, 0.0, 0.0, 0.0, 0.0, 0.0, 1.7308452989730709E9, 0.0, 2024-11-05 19:21:38.973
78.0, -183208.1521401587, -183261.88573382923, -183409.27313676753, -183438.91154991527, -183392.1293487703, -183330.6173480293, -183530.88897834887, -183420.0019741061, -0.032, 0.9400000000000001, 0.356, 192.0, 0.0, 0.0, 0.0, 0.0, 0.0, 0.0, 0.0, 0.0, 0.0, 1.7308452989771078E9, 0.0, 2024-11-05 19:21:38.977
79.0, -183211.996640205, -183265.84199259782, -183413.11763681384, -183442.82310519496, -183396.0856075389, -183334.50655156453, -183534.68877490627, -183423.98058461913, -0.032, 0.9400000000000001, 0.356, 192.0, 0.0, 0.0, 0.0, 0.0, 0.0, 0.0, 0.0, 0.0, 0.0, 1.7308452989810908E9, 0.0, 2024-11-05 19:21:38.981
80.0, -183215.12588442874, -183268.99358856602, -183416.2021775487, -183445.88529418534, -183399.17014827373, -183337.59109229938, -183537.79566738554, -183427.06512535395, -0.032, 0.9400000000000001, 0.356, 192.0, 0.0, 0.0, 0.0, 0.0, 0.0, 0.0, 0.0, 0.0, 0.0, 1.7308452989850967E9, 0.0, 2024-11-05 19:21:38.985
81.0, -183218.61275656376, -183272.39105372323, -183419.53258747252, -183449.37216632036, -183402.56761343093, -183341.05561268993, -183541.2825395206, -183430.44023876672, -0.032, 0.9400000000000001, 0.356, 192.0, 0.0, 0.0, 0.0, 0.0, 0.0, 0.0, 0.0, 0.0, 0.0, 1.7308452989901295E9, 0.0, 2024-11-05 19:21:38.990
82.0, -183220.31148914236, -183274.08978630183, -183421.25367179557, -183451.1379541323, -183404.31104949844, -183342.776697013, -183542.824809888, -183432.13897134532, -0.034, 0.9400000000000001, 0.356, 192.0, 254.0, 240.0, 29.0, 96.0, 11.0, 32.0, 0.0, 0.0, 0.0, 1.7308452989942672E9, 0.0, 2024-11-05 19:21:38.994
83.0, -183224.51361709996, -183278.29191425943, -183425.47815149763, -183455.27302685656, -183408.46847396714, -183346.91176973723, -183547.0269378456, -183436.31874755846, -0.034, 0.9400000000000001, 0.356, 192.0, 0.0, 0.0, 0.0, 0.0, 0.0, 0.0, 0.0, 0.0, 0.0, 1.7308452989972928E9, 0.0, 2024-11-05 19:21:38.997
84.0, -183227.84402702382, -183281.64467592773, -183428.80856142147, -183458.58108503596, -183411.77653214653, -183350.26453140553, -183550.49145823615, -183439.62680573785, -0.034, 0.9400000000000001, 0.356, 192.0, 0.0, 0.0, 0.0, 0.0, 0.0, 0.0, 0.0, 0.0, 0.0, 1.7308452990012207E9, 0.0, 2024-11-05 19:21:39.001
85.0, -183230.68269856964, -183284.50569921802, -183431.69193645622, -183461.57621879296, -183414.7046106702, -183353.21496167363, -183553.4865919932, -183442.57723600595, -0.034, 0.9400000000000001, 0.356, 192.0, 0.0, 0.0, 0.0, 0.0, 0.0, 0.0, 0.0, 0.0, 0.0, 1.7308452990051124E9, 0.0, 2024-11-05 19:21:39.005
86.0, -183232.11321021477, -183285.84680388533, -183433.16715159026, -183462.98437869363, -183416.0904188264, -183354.5784180854, -183554.76064142713, -183444.00774765108, -0.034, 0.9400000000000001, 0.356, 192.0, 0.0, 0.0, 0.0, 0.0, 0.0, 0.0, 0.0, 0.0, 0.0, 1.730845299009303E9, 0.0, 2024-11-05 19:21:39.009
87.0, -183233.85664628228, -183287.6125916973, -183434.91058765777, -183464.72781476117, -183417.87855838283, -183356.32185415292, -183556.4817257502, -183445.7958872075, -0.034, 0.9400000000000001, 0.356, 192.0, 0.0, 0.0, 0.0, 0.0, 0.0, 0.0, 0.0, 0.0, 0.0, 1.7308452990131354E9, 0.0, 2024-11-05 19:21:39.013
88.0, -183235.28715792744, -183289.11015857582, -183436.40815453627, -183466.18067815073, -183419.37612526133, -183357.75236579805, -183558.04634786205, -183447.22639885265, -0.034, 0.9400000000000001, 0.356, 192.0, 0.0, 0.0, 0.0, 0.0, 0.0, 0.0, 0.0, 0.0, 0.0, 1.7308452990180583E9, 0.0, 2024-11-05 19:21:39.018
89.0, -183239.4445823961, -183293.26758304448, -183440.63263423834, -183470.315750875, -183423.48884624112, -183361.88743852227, -183562.2261240752, -183451.38382332135, -0.034, 0.9400000000000001, 0.356, 192.0, 0.0, 0.0, 0.0, 0.0, 0.0, 0.0, 0.0, 0.0, 0.0, 1.730845299022066E9, 0.0, 2024-11-05 19:21:39.022
90.0, -183241.992681264, -183295.77097842348, -183443.15838136178, -183472.81914625398, -183425.92518638674, -183364.41318564574, -183564.59540898746, -183453.77545997806, -0.034, 0.9400000000000001, 0.356, 192.0, 0.0, 0.0, 0.0, 0.0, 0.0, 0.0, 0.0, 0.0, 0.0, 1.7308452990250993E9, 0.0, 2024-11-05 19:21:39.025
91.0, -183245.23368421005, -183299.07903660287, -183446.4440877967, -183476.17190792228, -183429.23324456613, -183367.76594731404, -183567.85876367794, -183457.17292513527, -0.034, 0.9400000000000001, 0.356, 192.0, 0.0, 0.0, 0.0, 0.0, 0.0, 0.0, 0.0, 0.0, 0.0, 1.7308452990292923E9, 0.0, 2024-11-05 19:21:39.029
92.0, -183247.31239644438, -183301.09069360385, -183448.47809654215, -183478.2506201566, -183431.35666028937, -183369.75525257055, -183570.00453114565, -183459.22928562516, -0.024, 0.9520000000000001, 0.37, 192.0, 255.0, 64.0, 29.0, 192.0, 11.0, 144.0, 0.0, 0.0, 0.0, 1.7308452990332625E9, 0.0, 2024-11-05 19:21:39.033
93.0, -183251.6039313798, -183305.44928377264, -183452.81433496648, -183482.54215509203, -183435.64819522479, -183373.95738052815, -183574.2290108477, -183463.58787579392, -0.024, 0.9520000000000001, 0.37, 192.0, 0.0, 0.0, 0.0, 0.0, 0.0, 0.0, 0.0, 0.0, 0.0, 1.7308452990393388E9, 0.0, 2024-11-05 19:21:39.039
94.0, -183253.72734710306, -183307.63975472926, -183454.8930472008, -183484.6655708153, -183437.74925920359, -183376.10314799586, -183576.37477831542, -183465.7112915172, -0.024, 0.9520000000000001, 0.37, 192.0, 0.0, 0.0, 0.0, 0.0, 0.0, 0.0, 0.0, 0.0, 0.0, 1.730845299042202E9, 0.0, 2024-11-05 19:21:39.042
95.0, -183255.67194887067, -183309.40554254124, -183456.68118675725, -183486.49841386062, -183439.58210224894, -183378.025398019, -183578.25232484966, -183467.56648630698, -0.024, 0.9520000000000001, 0.37, 192.0, 0.0, 0.0, 0.0, 0.0, 0.0, 0.0, 0.0, 0.0, 0.0, 1.7308452990461864E9, 0.0, 2024-11-05 19:21:39.046
96.0, -183259.51644891698, -183313.33944956536, -183460.57039029247, -183490.38761739584, -183443.38189880634, -183381.80284283197, -183582.16388012934, -183471.4109863533, -0.024, 0.9520000000000001, 0.37, 192.0, 0.0, 0.0, 0.0, 0.0, 0.0, 0.0, 0.0, 0.0, 0.0, 1.7308452990492759E9, 0.0, 2024-11-05 19:21:39.049
97.0, -183262.82450709637, -183316.69221123366, -183463.8560967274, -183493.71802731967, -183446.801715708, -183385.15560450027, -183585.53899354208, -183474.74139627712, -0.024, 0.9520000000000001, 0.37, 192.0, 0.0, 0.0, 0.0, 0.0, 0.0, 0.0, 0.0, 0.0, 0.0, 1.7308452990533004E9, 0.0, 2024-11-05 19:21:39.053
98.0, -183264.83616409733, -183318.63681300127, -183465.8454019839, -183495.6626290873, -183448.88042794235, -183387.2790202235, -183587.59535403198, -183476.7530532781, -0.024, 0.9520000000000001, 0.37, 192.0, 0.0, 0.0, 0.0, 0.0, 0.0, 0.0, 0.0, 0.0, 0.0, 1.730845299057252E9, 0.0, 2024-11-05 19:21:39.057
99.0, -183267.87600134328, -183321.6766502472, -183468.9969979521, -183498.70246633323, -183451.9426169327, -183390.29650572498, -183590.59048778898, -183479.8152422685, -0.024, 0.9520000000000001, 0.37, 192.0, 0.0, 0.0, 0.0, 0.0, 0.0, 0.0, 0.0, 0.0, 0.0, 1.7308452990612936E9, 0.0, 2024-11-05 19:21:39.061
100.0, -183270.93819033363, -183324.80589447092, -183472.1038904314, -183501.85406230143, -183455.0942129009, -183393.40339820427, -183593.74208375718, -183482.94448649223, -0.024, 0.9520000000000001, 0.37, 192.0, 0.0, 0.0, 0.0, 0.0, 0.0, 0.0, 0.0, 0.0, 0.0, 1.730845299065102E9, 0.0, 2024-11-05 19:21:39.065
101.0, -183272.6145711678, -183326.39286832727, -183473.66851254329, -183503.4633879022, -183456.61413152388, -183395.0797790384, -183595.46316808026, -183484.553812093, -0.024, 0.9520000000000001, 0.37, 192.0, 0.0, 0.0, 0.0, 0.0, 0.0, 0.0, 0.0, 0.0, 0.0, 1.7308452990693846E9, 0.0, 2024-11-05 19:21:39.069
102.0, -183275.9673328361, -183329.70092650663, -183477.04362595602, -183506.88320480386, -183459.87748621436, -183398.32078198442, -183598.7265227707, -183487.9065737613, -0.03, 0.9520000000000001, 0.372, 192.0, 255.0, 16.0, 29.0, 192.0, 11.0, 160.0, 0.0, 0.0, 0.0, 1.7308452990731804E9, 0.0, 2024-11-05 19:21:39.073
103.0, -183277.1072718033, -183330.8185137294, -183478.22826841215, -183508.00079202664, -183461.03977692602, -183399.3936657183, -183599.7323512712, -183489.00180923962, -0.03, 0.9520000000000001, 0.372, 192.0, 0.0, 0.0, 0.0, 0.0, 0.0, 0.0, 0.0, 0.0, 0.0, 1.7308452990771983E9, 0.0, 2024-11-05 19:21:39.077
104.0, -183281.62232418326, -183335.49002832058, -183482.8103760255, -183512.53819615106, -183465.68893977272, -183404.06518030944, -183604.40386586238, -183493.5615651085, -0.03, 0.9520000000000001, 0.372, 192.0, 0.0, 0.0, 0.0, 0.0, 0.0, 0.0, 0.0, 0.0, 0.0, 1.7308452990801852E9, 0.0, 2024-11-05 19:21:39.080
105.0, -183283.99160909554, -183337.74755451054, -183485.13495744884, -183514.84042582996, -183467.99116945162, -183406.3897617328, -183606.8849094969, -183495.84144304294, -0.03, 0.9520000000000001, 0.372, 192.0, 0.0, 0.0, 0.0, 0.0, 0.0, 0.0, 0.0, 0.0, 0.0, 1.730845299085124E9, 0.0, 2024-11-05 19:21:39.085
106.0, -183284.14807130673, -183337.79225799948, -183485.1573091933, -183514.95218455224, -183468.0135211961, -183406.47916871062, -183606.9296129858, -183496.02025699857, -0.03, 0.9520000000000001, 0.372, 192.0, 0.0, 0.0, 0.0, 0.0, 0.0, 0.0, 0.0, 0.0, 0.0, 1.730845299089414E9, 0.0, 2024-11-05 19:21:39.089
107.0, -183287.54553646393, -183341.21207490112, -183488.44301562823, -183518.34964970945, -183471.38863460883, -183409.83193037892, -183610.21531942073, -183499.4624256447, -0.03, 0.9520000000000001, 0.372, 192.0, 0.0, 0.0, 0.0, 0.0, 0.0, 0.0, 0.0, 0.0, 0.0, 1.730845299093133E9, 0.0, 2024-11-05 19:21:39.093
108.0, -183290.89829813223, -183344.6765952917, -183491.8628325299, -183521.74711486665, -183474.83080325494, -183413.2517472806, -183613.52337760013, -183502.81518731298, -0.03, 0.9520000000000001, 0.372, 192.0, 0.0, 0.0, 0.0, 0.0, 0.0, 0.0, 0.0, 0.0, 0.0, 1.7308452990972188E9, 0.0, 2024-11-05 19:21:39.097
109.0, -183293.13347257776, -183346.91176973723, -183494.2097656977, -183523.9599375677, -183477.1106811894, -183415.5539769595, -183615.95971774575, -183505.11741699188, -0.03, 0.9520000000000001, 0.372, 192.0, 0.0, 0.0, 0.0, 0.0, 0.0, 0.0, 0.0, 0.0, 0.0, 1.730845299101216E9, 0.0, 2024-11-05 19:21:39.101
110.0, -183297.17913832417, -183350.9797872281, -183498.25543144412, -183527.9608998252, -183481.08929170243, -183419.48788398362, -183620.02773523662, -183509.18543448276, -0.03, 0.9520000000000001, 0.372, 192.0, 0.0, 0.0, 0.0, 0.0, 0.0, 0.0, 0.0, 0.0, 0.0, 1.7308452991054037E9, 0.0, 2024-11-05 19:21:39.105
111.0, -183298.00615286903, -183351.71739479512, -183499.06009424452, -183528.74321088116, -183481.89395450283, -183420.31489852845, -183620.7429910592, -183509.90069030534, -0.03, 0.9520000000000001, 0.372, 192.0, 0.0, 0.0, 0.0, 0.0, 0.0, 0.0, 0.0, 0.0, 0.0, 1.730845299108286E9, 0.0, 2024-11-05 19:21:39.108
112.0, -183300.53189999246, -183354.08667970737, -183501.42937915676, -183531.2242545157, -183484.35264639292, -183422.72888692963, -183623.2016829493, -183512.3146787065, -0.038, 0.9460000000000001, 0.37, 192.0, 254.0, 208.0, 29.0, 144.0, 11.0, 144.0, 0.0, 0.0, 0.0, 1.73084529911334E9, 0.0, 2024-11-05 19:21:39.113
113.0, -183303.54938549394, -183357.3276826534, -183504.60332686943, -183534.39820222833, -183487.57129759446, -183425.88048289783, -183626.35327891746, -183515.4662746747, -0.038, 0.9460000000000001, 0.37, 192.0, 0.0, 0.0, 0.0, 0.0, 0.0, 0.0, 0.0, 0.0, 0.0, 1.7308452991171267E9, 0.0, 2024-11-05 19:21:39.117
114.0, -183306.23159482857, -183360.05459547695, -183507.2631844596, -183537.03570807408, -183490.23115518465, -183428.60739572137, -183629.10254348547, -183518.2155392427, -0.038, 0.9460000000000001, 0.37, 192.0, 0.0, 0.0, 0.0, 0.0, 0.0, 0.0, 0.0, 0.0, 0.0, 1.730845299121246E9, 0.0, 2024-11-05 19:21:39.121
115.0, -183308.35501055184, -183362.17801120022, -183509.3642484384, -183539.15912379732, -183492.309867419, -183430.73081144464, -183631.15890397536, -183520.33895496596, -0.038, 0.9460000000000001, 0.37, 192.0, 0.0, 0.0, 0.0, 0.0, 0.0, 0.0, 0.0, 0.0, 0.0, 1.7308452991252446E9, 0.0, 2024-11-05 19:21:39.125
116.0, -183312.08775187586, -183365.97780775762, -183513.11934150688, -183543.00362384363, -183496.13201572085, -183434.50825625757, -183634.86929355495, -183524.07169629, -0.038, 0.9460000000000001, 0.37, 192.0, 0.0, 0.0, 0.0, 0.0, 0.0, 0.0, 0.0, 0.0, 0.0, 1.7308452991302881E9, 0.0, 2024-11-05 19:21:39.130
117.0, -183316.4239903002, -183370.22463920413, -183517.52263516458, -183547.33986226798, -183500.42355065627, -183438.91154991527, -183639.27258721265, -183528.3185277365, -0.038, 0.9460000000000001, 0.37, 192.0, 0.0, 0.0, 0.0, 0.0, 0.0, 0.0, 0.0, 0.0, 0.0, 1.730845299133146E9, 0.0, 2024-11-05 19:21:39.133
118.0, -183320.93904268017, -183374.76204332855, -183522.1047427779, -183551.7878594146, -183504.96095478072, -183443.38189880634, -183643.92175005935, -183532.8782836054, -0.038, 0.9460000000000001, 0.37, 192.0, 0.0, 0.0, 0.0, 0.0, 0.0, 0.0, 0.0, 0.0, 0.0, 1.7308452991373937E9, 0.0, 2024-11-05 19:21:39.137
119.0, -183322.68247874768, -183376.43842416268, -183523.82582710098, -183553.50894373763, -183506.70439084823, -183445.03592789604, -183645.6428343824, -183534.6217196729, -0.038, 0.9460000000000001, 0.37, 192.0, 0.0, 0.0, 0.0, 0.0, 0.0, 0.0, 0.0, 0.0, 0.0, 1.7308452991414304E9, 0.0, 2024-11-05 19:21:39.141
120.0, -183325.74466773806, -183379.54531664198, -183526.88801609137, -183556.6828914503, -183509.8112833275, -183448.18752386424, -183648.68267162834, -183537.70626040772, -0.038, 0.9460000000000001, 0.37, 192.0, 0.0, 0.0, 0.0, 0.0, 0.0, 0.0, 0.0, 0.0, 0.0, 1.7308452991454368E9, 0.0, 2024-11-05 19:21:39.145
121.0, -183328.7621532395, -183382.51809865455, -183529.8607981039, -183559.6333217184, -183512.73936185116, -183451.16030587678, -183651.67780538535, -183540.70139416473, -0.038, 0.9460000000000001, 0.37, 192.0, 0.0, 0.0, 0.0, 0.0, 0.0, 0.0, 0.0, 0.0, 0.0, 1.7308452991494694E9, 0.0, 2024-11-05 19:21:39.149
122.0, -183330.14796139573, -183383.85920332186, -183531.38071672688, -183561.06383336353, -183514.19222524075, -183452.546114033, -183653.0412617971, -183542.15425755433, -0.04, 0.9380000000000001, 0.366, 192.0, 254.0, 192.0, 29.0, 80.0, 11.0, 112.0, 0.0, 0.0, 0.0, 1.7308452991534767E9, 0.0, 2024-11-05 19:21:39.153
123.0, -183331.95845269662, -183385.781453345, -183533.2135597722, -183562.94137989776, -183516.069771775, -183454.42366056726, -183654.91880833136, -183544.05415583303, -0.04, 0.9380000000000001, 0.366, 192.0, 0.0, 0.0, 0.0, 0.0, 0.0, 0.0, 0.0, 0.0, 0.0, 1.7308452991563983E9, 0.0, 2024-11-05 19:21:39.156
124.0, -183335.1771038982, -183389.04480803548, -183536.3651557404, -183566.09297586596, -183519.2660712321, -183457.68701525772, -183658.11510778847, -183547.3175105235, -0.04, 0.9380000000000001, 0.366, 192.0, 0.0, 0.0, 0.0, 0.0, 0.0, 0.0, 0.0, 0.0, 0.0, 1.7308452991603577E9, 0.0, 2024-11-05 19:21:39.160
125.0, -183339.93802546719, -183393.80572960447, -183541.1707807983, -183570.89860092386, -183524.02699280108, -183462.4479368267, -183662.853677613, -183552.0337286036, -0.04, 0.9380000000000001, 0.366, 192.0, 0.0, 0.0, 0.0, 0.0, 0.0, 0.0, 0.0, 0.0, 0.0, 1.7308452991643012E9, 0.0, 2024-11-05 19:21:39.164
126.0, -183341.50264757904, -183395.34799997188, -183542.71305116572, -183572.44087129127, -183525.5692631685, -183464.0125589386, -183664.41829972487, -183553.68775769326, -0.04, 0.9380000000000001, 0.366, 192.0, 0.0, 0.0, 0.0, 0.0, 0.0, 0.0, 0.0, 0.0, 0.0, 1.730845299169415E9, 0.0, 2024-11-05 19:21:39.169
127.0, -183343.40254585774, -183397.31495348393, -183544.59059769998, -183574.34076956997, -183527.5138649361, -183465.89010547282, -183666.38525323692, -183555.56530422752, -0.04, 0.9380000000000001, 0.366, 192.0, 0.0, 0.0, 0.0, 0.0, 0.0, 0.0, 0.0, 0.0, 0.0, 1.7308452991734233E9, 0.0, 2024-11-05 19:21:39.173
128.0, -183346.8223627594, -183400.7347703856, -183548.05511809053, -183577.80528996055, -183531.00073707112, -183469.3546258634, -183669.7603666497, -183558.91806589582, -0.04, 0.9380000000000001, 0.366, 192.0, 0.0, 0.0, 0.0, 0.0, 0.0, 0.0, 0.0, 0.0, 0.0, 1.7308452991772292E9, 0.0, 2024-11-05 19:21:39.177
129.0, -183347.9846534711, -183401.80765411948, -183549.1727053133, -183578.92287718333, -183532.073620805, -183470.51691657508, -183670.9003056169, -183560.03565311857, -0.04, 0.9380000000000001, 0.366, 192.0, 0.0, 0.0, 0.0, 0.0, 0.0, 0.0, 0.0, 0.0, 0.0, 1.730845299181608E9, 0.0, 2024-11-05 19:21:39.181
130.0, -183351.44917386165, -183405.2945262545, -183552.5701704705, -183582.40974931835, -183535.49343770667, -183473.93673347673, -183674.47658472977, -183563.52252525362, -0.04, 0.9380000000000001, 0.366, 192.0, 0.0, 0.0, 0.0, 0.0, 0.0, 0.0, 0.0, 0.0, 0.0, 1.7308452991855428E9, 0.0, 2024-11-05 19:21:39.185
131.0, -183354.46665936313, -183408.3343635004, -183555.7217664387, -183585.4719383087, -183538.5779784415, -183476.99892246712, -183677.53877372012, -183566.6294177329, -0.04, 0.9380000000000001, 0.366, 192.0, 0.0, 0.0, 0.0, 0.0, 0.0, 0.0, 0.0, 0.0, 0.0, 1.73084529918831E9, 0.0, 2024-11-05 19:21:39.188
132.0, -183358.60173208735, -183412.46943622464, -183559.90154265185, -183589.6293627774, -183542.824809888, -183481.20105042472, -183681.74090167772, -183570.69743522376, -0.038, 0.9420000000000001, 0.362, 192.0, 254.0, 208.0, 29.0, 112.0, 11.0, 80.0, 0.0, 0.0, 0.0, 1.7308452991923285E9, 0.0, 2024-11-05 19:21:39.192
133.0, -183360.6804443217, -183414.5034449701, -183561.91319965283, -183591.7304267562, -183544.8811703779, -183483.27976265905, -183683.7525586787, -183572.68674048028, -0.038, 0.9420000000000001, 0.362, 192.0, 0.0, 0.0, 0.0, 0.0, 0.0, 0.0, 0.0, 0.0, 0.0, 1.7308452991964116E9, 0.0, 2024-11-05 19:21:39.196
