%OpenBCI Raw EXG Data
%Number of channels = 8
%Sample Rate = 250 Hz
%Board = OpenBCI_GUI$BoardCytonSerial
Sample Index, EXG Channel 0, EXG Channel 1, EXG Channel 2, EXG Channel 3, EXG Channel 4, EXG Channel 5, EXG Channel 6, EXG Channel 7, Accel Channel 0, Accel Channel 1, Accel Channel 2, Not Used, Digital Channel 0 (D11), Digital Channel 1 (D12), Digital Channel 2 (D13), Digital Channel 3 (D17), Not Used, Digital Channel 4 (D18), Analog Channel 0, Analog Channel 1, Analog Channel 2, Timestamp, Marker Channel, Timestamp (Formatted)
0.0, -187500.02235174447, -81518.62251980574, -186566.032357935, -150629.47876804814, -173004.55844456656, -172297.99745058984, -166289.17798866963, -138112.36776260947, -0.10200000000000001, 0.78, 0.556, 192.0, 252.0, 208.0, 24.0, 96.0, 17.0, 96.0, 0.0, 0.0, 0.0, 1.7395352385683467E9, 0.0, 2025-02-14 09:13:58.568
1.0, -187500.02235174447, -81179.12187327408, -186943.03923166267, -150991.0405863572, -173304.87648306804, -172684.23559477754, -166665.62606878593, -138022.8713778104, -0.10200000000000001, 0.78, 0.556, 192.0, 0.0, 0.0, 0.0, 0.0, 0.0, 0.0, 0.0, 0.0, 0.0, 1.7395352385684023E9, 0.0, 2025-02-14 09:13:58.568
2.0, -187500.02235174447, -81248.61344678563, -186909.33280102408, -150948.41580968094, -173475.71086593997, -172753.3695403778, -166618.68740542978, -138220.63961275097, -0.10200000000000001, 0.78, 0.556, 192.0, 0.0, 0.0, 0.0, 0.0, 0.0, 0.0, 0.0, 0.0, 0.0, 1.7395352385684175E9, 0.0, 2025-02-14 09:13:58.568
3.0, -187500.02235174447, -81498.79652247389, -186751.70829912525, -150810.70671209178, -173431.96850204092, -172614.989890455, -166449.73056909212, -138543.33174745223, -0.10200000000000001, 0.78, 0.556, 192.0, 0.0, 0.0, 0.0, 0.0, 0.0, 0.0, 0.0, 0.0, 0.0, 1.7395352385684347E9, 0.0, 2025-02-14 09:13:58.568
4.0, -187500.02235174447, -81375.97368669197, -186995.07409275463, -151084.3144159692, -173481.07528460925, -172755.8729357568, -166691.9340720098, -138594.964277144, -0.10200000000000001, 0.78, 0.556, 192.0, 0.0, 0.0, 0.0, 0.0, 0.0, 0.0, 0.0, 0.0, 0.0, 1.7395352385684474E9, 0.0, 2025-02-14 09:13:58.568
5.0, -187500.02235174447, -81024.04547024316, -187416.11390305925, -151517.3571130463, -173759.98035192257, -173174.54346114915, -167101.55214089778, -138486.4912613024, -0.10200000000000001, 0.78, 0.556, 192.0, 0.0, 0.0, 0.0, 0.0, 0.0, 0.0, 0.0, 0.0, 0.0, 1.739535238568465E9, 0.0, 2025-02-14 09:13:58.568
6.0, -187500.02235174447, -81016.4235253839, -187470.54040080792, -151561.47945660108, -173973.1042353039, -173319.5168756863, -167137.22552504844, -138630.25768163893, -0.10200000000000001, 0.78, 0.556, 192.0, 0.0, 0.0, 0.0, 0.0, 0.0, 0.0, 0.0, 0.0, 0.0, 1.739535238568477E9, 0.0, 2025-02-14 09:13:58.568
7.0, -187500.02235174447, -81280.59879310118, -187292.3075905213, -151381.74907943598, -173948.69613035873, -173140.03236771017, -166949.35911290158, -138963.72335716765, -0.134, 0.838, 0.608, 192.0, 251.0, 208.0, 26.0, 48.0, 19.0, 0.0, 0.0, 0.0, 0.0, 1.7395352385684884E9, 0.0, 2025-02-14 09:13:58.568
8.0, -187500.02235174447, -81225.2782255743, -187439.67264171515, -151557.3220321324, -173941.83414481094, -173203.60072894106, -167100.05457401928, -139067.83778284048, -0.134, 0.838, 0.608, 192.0, 0.0, 0.0, 0.0, 0.0, 0.0, 0.0, 0.0, 0.0, 0.0, 1.7395352385685008E9, 0.0, 2025-02-14 09:13:58.568
9.0, -187500.02235174447, -80857.74849149567, -187500.02235174447, -152000.6241799145, -174182.09304596105, -173571.4657391865, -167512.2877970085, -138953.73212739613, -0.134, 0.838, 0.608, 192.0, 0.0, 0.0, 0.0, 0.0, 0.0, 0.0, 0.0, 0.0, 0.0, 1.7395352385685124E9, 0.0, 2025-02-14 09:13:58.568
10.0, -187500.02235174447, -80765.18991770624, -187500.02235174447, -152106.39263467703, -174436.50060135135, -173767.40113108171, -167632.1154990334, -139039.42871563777, -0.134, 0.838, 0.608, 192.0, 0.0, 0.0, 0.0, 0.0, 0.0, 0.0, 0.0, 0.0, 0.0, 1.7395352385685241E9, 0.0, 2025-02-14 09:13:58.568
11.0, -187500.02235174447, -81024.93954002137, -187500.02235174447, -151903.32703630056, -174437.30526415174, -173643.70657726607, -167452.04984570146, -139372.8943911665, -0.134, 0.838, 0.608, 192.0, 0.0, 0.0, 0.0, 0.0, 0.0, 0.0, 0.0, 0.0, 0.0, 1.7395352385685391E9, 0.0, 2025-02-14 09:13:58.568
12.0, -187500.02235174447, -81055.56142992515, -187500.02235174447, -151993.24810424427, -174409.9690806829, -173645.9417517116, -167540.71921595564, -139541.69476529298, -0.134, 0.838, 0.608, 192.0, 0.0, 0.0, 0.0, 0.0, 0.0, 0.0, 0.0, 0.0, 0.0, 1.739535238568549E9, 0.0, 2025-02-14 09:13:58.568
13.0, -187500.02235174447, -80702.6944402092, -187500.02235174447, -152424.99440014295, -174632.3689380132, -174002.76500019612, -167967.70459028537, -139440.5084181438, -0.134, 0.838, 0.608, 192.0, 0.0, 0.0, 0.0, 0.0, 0.0, 0.0, 0.0, 0.0, 0.0, 1.7395352385685668E9, 0.0, 2025-02-14 09:13:58.568
14.0, -187500.02235174447, -80536.21864750609, -187500.02235174447, -152604.43420463018, -174914.00091815006, -174285.42516057793, -168154.96750533194, -139471.28677025877, -0.134, 0.838, 0.608, 192.0, 0.0, 0.0, 0.0, 0.0, 0.0, 0.0, 0.0, 0.0, 0.0, 1.7395352385685787E9, 0.0, 2025-02-14 09:13:58.568
15.0, -187500.02235174447, -80771.15783347581, -187500.02235174447, -152413.23738255948, -174966.48281413113, -174173.88995574595, -167983.61903233756, -139785.57464904484, -0.134, 0.838, 0.608, 192.0, 0.0, 0.0, 0.0, 0.0, 0.0, 0.0, 0.0, 0.0, 0.0, 1.739535238568762E9, 0.0, 2025-02-14 09:13:58.568
16.0, -187500.02235174447, -80865.57160205503, -187500.02235174447, -152409.30347553533, -174924.55094153297, -174113.51789397217, -168001.27691045727, -140000.41961674925, -0.134, 0.838, 0.608, 192.0, 0.0, 0.0, 0.0, 0.0, 0.0, 0.0, 0.0, 0.0, 0.0, 1.7395352385687761E9, 0.0, 2025-02-14 09:13:58.568
17.0, -187500.02235174447, -80535.48103993906, -187500.02235174447, -152807.4550995177, -175114.63017638092, -174425.21297040142, -168416.7511363925, -139918.8357494874, -0.132, 0.782, 0.542, 192.0, 251.0, 224.0, 24.0, 112.0, 16.0, 240.0, 0.0, 0.0, 0.0, 1.7395352385687892E9, 0.0, 2025-02-14 09:13:58.568
18.0, -187500.02235174447, -80290.66238292008, -187500.02235174447, -153069.79752418966, -175420.0444126182, -174749.98381733702, -168687.073133835, -139894.74056896457, -0.132, 0.782, 0.542, 192.0, 0.0, 0.0, 0.0, 0.0, 0.0, 0.0, 0.0, 0.0, 0.0, 1.7395352385688028E9, 0.0, 2025-02-14 09:13:58.568
19.0, -187500.02235174447, -80493.19153942961, -187500.02235174447, -152927.70748468727, -175497.7167246004, -174701.36877314674, -168519.16682948673, -140175.76905200112, -0.132, 0.782, 0.542, 192.0, 0.0, 0.0, 0.0, 0.0, 0.0, 0.0, 0.0, 0.0, 0.0, 1.7395352385688155E9, 0.0, 2025-02-14 09:13:58.568
20.0, -187500.02235174447, -80673.30189625049, -187500.02235174447, -152886.5802748895, -175435.98120641484, -174593.43219917206, -168449.25057283053, -140437.21740689487, -0.132, 0.782, 0.542, 192.0, 0.0, 0.0, 0.0, 0.0, 0.0, 0.0, 0.0, 0.0, 0.0, 1.739535238568828E9, 0.0, 2025-02-14 09:13:58.568
21.0, -187500.02235174447, -80414.13341929119, -187500.02235174447, -153280.172143003, -175572.3939028256, -174851.8183650754, -168812.80169639608, -140391.66455169494, -0.132, 0.782, 0.542, 192.0, 0.0, 0.0, 0.0, 0.0, 0.0, 0.0, 0.0, 0.0, 0.0, 1.7395352385688405E9, 0.0, 2025-02-14 09:13:58.568
22.0, -187500.02235174447, -80117.57047385818, -187500.02235174447, -153623.69610353664, -175882.05497050943, -175237.7212330963, -169148.36843590363, -140325.45868461832, -0.132, 0.782, 0.542, 192.0, 0.0, 0.0, 0.0, 0.0, 0.0, 0.0, 0.0, 0.0, 0.0, 1.7395352385688572E9, 0.0, 2025-02-14 09:13:58.568
23.0, -187500.02235174447, -80254.20668771348, -187500.02235174447, -153493.3854333622, -176007.51531213705, -175279.6754574389, -169059.74376913832, -140563.48241132288, -0.132, 0.782, 0.542, 192.0, 0.0, 0.0, 0.0, 0.0, 0.0, 0.0, 0.0, 0.0, 0.0, 1.7395352385688696E9, 0.0, 2025-02-14 09:13:58.568
24.0, -187500.02235174447, -80478.17116715565, -187500.02235174447, -153361.3983823536, -175931.49702924455, -175132.46686845625, -168939.4243287354, -140857.251388699, -0.132, 0.782, 0.542, 192.0, 0.0, 0.0, 0.0, 0.0, 0.0, 0.0, 0.0, 0.0, 0.0, 1.7395352385688818E9, 0.0, 2025-02-14 09:13:58.568
25.0, -187500.02235174447, -80275.97728681294, -187500.02235174447, -153707.0681103549, -176004.0954952354, -175287.0291813647, -169244.63739927261, -140852.0881357298, -0.132, 0.782, 0.542, 192.0, 0.0, 0.0, 0.0, 0.0, 0.0, 0.0, 0.0, 0.0, 0.0, 1.7395352385688944E9, 0.0, 2025-02-14 09:13:58.568
26.0, -187500.02235174447, -79932.27451232368, -187500.02235174447, -154129.6725427714, -176292.88003359796, -175650.60265667472, -169626.9863399251, -140752.60052115924, -0.132, 0.782, 0.542, 192.0, 0.0, 0.0, 0.0, 0.0, 0.0, 0.0, 0.0, 0.0, 0.0, 1.7395352385689068E9, 0.0, 2025-02-14 09:13:58.568
27.0, -187500.02235174447, -79990.8807862855, -187500.02235174447, -154086.06428933912, -176467.93889617192, -175759.90268706117, -169595.51508373203, -140938.94701468313, -0.16, 0.848, 0.556, 192.0, 251.0, 0.0, 26.0, 128.0, 17.0, 96.0, 0.0, 0.0, 0.0, 1.7395352385689192E9, 0.0, 2025-02-14 09:13:58.568
28.0, -187500.02235174447, -80243.00846374137, -187500.02235174447, -153919.6779036138, -176417.4910089363, -175614.90692077958, -169443.81379411387, -141260.49921041718, -0.16, 0.848, 0.556, 192.0, 0.0, 0.0, 0.0, 0.0, 0.0, 0.0, 0.0, 0.0, 0.0, 1.739535238568933E9, 0.0, 2025-02-14 09:13:58.568
29.0, -187500.02235174447, -80114.44122963444, -187500.02235174447, -154157.70163031836, -176455.28780881022, -175738.89204727317, -169684.34091619743, -141313.33873430954, -0.16, 0.848, 0.556, 192.0, 0.0, 0.0, 0.0, 0.0, 0.0, 0.0, 0.0, 0.0, 0.0, 1.7395352385689456E9, 0.0, 2025-02-14 09:13:58.568
30.0, -187500.02235174447, -79742.28468445358, -187500.02235174447, -154581.89303659118, -176737.4115273251, -176123.7220315602, -170101.17859854444, -141199.076616654, -0.16, 0.848, 0.556, 192.0, 0.0, 0.0, 0.0, 0.0, 0.0, 0.0, 0.0, 0.0, 0.0, 1.739535238568988E9, 0.0, 2025-02-14 09:13:58.568
31.0, -187500.02235174447, -79724.87267552289, -187500.02235174447, -154619.42161553164, -176947.45086997162, -176266.9073065409, -170135.22030534988, -141331.6001095295, -0.16, 0.848, 0.556, 192.0, 0.0, 0.0, 0.0, 0.0, 0.0, 0.0, 0.0, 0.0, 0.0, 1.7395352385690017E9, 0.0, 2025-02-14 09:13:58.569
32.0, -187500.02235174447, -79993.40653340895, -187500.02235174447, -154447.4472936925, -176916.09137250084, -176071.15072860132, -169931.9088377844, -141661.31069198975, -0.16, 0.848, 0.556, 192.0, 0.0, 0.0, 0.0, 0.0, 0.0, 0.0, 0.0, 0.0, 0.0, 1.7395352385690143E9, 0.0, 2025-02-14 09:13:58.569
33.0, -187500.02235174447, -79948.41247182041, -187500.02235174447, -154589.42557447264, -176921.8134190814, -176114.35665063342, -170094.67424090795, -141773.80702183332, -0.16, 0.848, 0.556, 192.0, 0.0, 0.0, 0.0, 0.0, 0.0, 0.0, 0.0, 0.0, 0.0, 1.7395352385690272E9, 0.0, 2025-02-14 09:13:58.569
34.0, -187500.02235174447, -79575.33950511689, -187500.02235174447, -154973.87557910391, -177161.8264510425, -176537.78809759475, -170558.3611796333, -141662.1377065346, -0.16, 0.848, 0.556, 192.0, 0.0, 0.0, 0.0, 0.0, 0.0, 0.0, 0.0, 0.0, 0.0, 1.7395352385690396E9, 0.0, 2025-02-14 09:13:58.569
35.0, -187500.02235174447, -79479.3611144258, -187500.02235174447, -155094.4632404403, -177423.54302686968, -176736.226884869, -170673.29384962248, -141743.945091241, -0.16, 0.848, 0.556, 192.0, 0.0, 0.0, 0.0, 0.0, 0.0, 0.0, 0.0, 0.0, 0.0, 1.739535238569052E9, 0.0, 2025-02-14 09:13:58.569
36.0, -187500.02235174447, -79752.29826596956, -187500.02235174447, -154907.96028470522, -177431.8355240626, -176575.24962130186, -170439.71812006453, -142079.02009237054, -0.16, 0.848, 0.556, 192.0, 0.0, 0.0, 0.0, 0.0, 0.0, 0.0, 0.0, 0.0, 0.0, 1.739535238569066E9, 0.0, 2025-02-14 09:13:58.569
37.0, -187500.02235174447, -79792.10672284446, -187500.02235174447, -155001.10000385047, -177382.8181484721, -176536.670510372, -170526.73346122904, -142251.24028339869, -0.154, 0.88, 0.56, 192.0, 251.0, 48.0, 27.0, 128.0, 17.0, 128.0, 0.0, 0.0, 0.0, 1.7395352385690813E9, 0.0, 2025-02-14 09:13:58.569
38.0, -187500.02235174447, -79439.46325057307, -187500.02235174447, -155418.56353504225, -177593.50569170783, -176880.1050639278, -170962.6595333409, -142152.82555256196, -0.154, 0.88, 0.56, 192.0, 0.0, 0.0, 0.0, 0.0, 0.0, 0.0, 0.0, 0.0, 0.0, 1.7395352385690942E9, 0.0, 2025-02-14 09:13:58.569
39.0, -187500.02235174447, -79262.12451006466, -187500.02235174447, -155579.6302055872, -177869.41562526414, -177193.65533514685, -171150.21302106537, -142180.69817789772, -0.154, 0.88, 0.56, 192.0, 0.0, 0.0, 0.0, 0.0, 0.0, 0.0, 0.0, 0.0, 0.0, 1.739535238569106E9, 0.0, 2025-02-14 09:13:58.569
40.0, -187500.02235174447, -79499.1647600132, -187500.02235174447, -155377.30221477774, -177899.6351837677, -177074.2970197555, -170960.53611761762, -142494.11433865005, -0.154, 0.88, 0.56, 192.0, 0.0, 0.0, 0.0, 0.0, 0.0, 0.0, 0.0, 0.0, 0.0, 1.739535238569121E9, 0.0, 2025-02-14 09:13:58.569
41.0, -187500.02235174447, -79608.8447700554, -187500.02235174447, -155361.20895876992, -177841.85592435073, -176980.64321048776, -170952.1542134469, -142719.46462624843, -0.154, 0.88, 0.56, 192.0, 0.0, 0.0, 0.0, 0.0, 0.0, 0.0, 0.0, 0.0, 0.0, 1.7395352385691452E9, 0.0, 2025-02-14 09:13:58.569
42.0, -187500.02235174447, -79287.00200164343, -187500.02235174447, -155759.7182106636, -178002.34144953985, -177285.67746706933, -171348.60710485067, -142646.64264281307, -0.154, 0.88, 0.56, 192.0, 0.0, 0.0, 0.0, 0.0, 0.0, 0.0, 0.0, 0.0, 0.0, 1.7395352385691583E9, 0.0, 2025-02-14 09:13:58.569
43.0, -187500.02235174447, -79039.41172831198, -187500.02235174447, -156020.22779229018, -178297.60799379446, -177601.95465111194, -171614.61521561327, -142625.3637820916, -0.154, 0.88, 0.56, 192.0, 0.0, 0.0, 0.0, 0.0, 0.0, 0.0, 0.0, 0.0, 0.0, 1.739535238569173E9, 0.0, 2025-02-14 09:13:58.569
44.0, -187500.02235174447, -79231.7484893499, -187500.02235174447, -155848.72285708462, -178374.0509598316, -177567.04122627273, -171451.53688806738, -142911.734332053, -0.154, 0.88, 0.56, 192.0, 0.0, 0.0, 0.0, 0.0, 0.0, 0.0, 0.0, 0.0, 0.0, 1.7395352385691853E9, 0.0, 2025-02-14 09:13:58.569
45.0, -187500.02235174447, -79413.19995083808, -187500.02235174447, -155761.84162638686, -178290.52249080213, -177445.87241958053, -171366.17557599256, -143184.8950010413, -0.154, 0.88, 0.56, 192.0, 0.0, 0.0, 0.0, 0.0, 0.0, 0.0, 0.0, 0.0, 0.0, 1.7395352385692058E9, 0.0, 2025-02-14 09:13:58.569
46.0, -187500.02235174447, -79149.56112498774, -187500.02235174447, -156107.86898229946, -178409.09849513753, -177691.9874777779, -171718.86375175283, -143152.06028843645, -0.154, 0.88, 0.56, 192.0, 0.0, 0.0, 0.0, 0.0, 0.0, 0.0, 0.0, 0.0, 0.0, 1.7395352385692174E9, 0.0, 2025-02-14 09:13:58.569
47.0, -187500.02235174447, -78842.47050791628, -187500.02235174447, -156425.93430589847, -178711.76346680685, -178049.2354094071, -172051.77063367018, -143091.55411619594, -0.14400000000000002, 0.8220000000000001, 0.538, 192.0, 251.0, 128.0, 25.0, 176.0, 16.0, 208.0, 0.0, 0.0, 0.0, 1.73953523856923E9, 0.0, 2025-02-14 09:13:58.569
48.0, -187500.02235174447, -78970.97068678983, -187500.02235174447, -156299.19991483688, -178843.95168351554, -178048.6766157957, -171948.32676033102, -143330.4272091898, -0.14400000000000002, 0.8220000000000001, 0.538, 192.0, 0.0, 0.0, 0.0, 0.0, 0.0, 0.0, 0.0, 0.0, 0.0, 1.7395352385692437E9, 0.0, 2025-02-14 09:13:58.569
49.0, -187500.02235174447, -79193.9963929649, -187500.02235174447, -156148.32563976356, -178767.6428279451, -177898.67405875612, -171807.33195630694, -143635.01443088226, -0.14400000000000002, 0.8220000000000001, 0.538, 192.0, 0.0, 0.0, 0.0, 0.0, 0.0, 0.0, 0.0, 0.0, 0.0, 1.7395352385692556E9, 0.0, 2025-02-14 09:13:58.569
50.0, -187500.02235174447, -78995.51290220176, -187500.02235174447, -156432.39396004606, -178832.59699733224, -178073.37529341882, -172105.7724482742, -143646.10089613212, -0.14400000000000002, 0.8220000000000001, 0.538, 192.0, 0.0, 0.0, 0.0, 0.0, 0.0, 0.0, 0.0, 0.0, 0.0, 1.739535238569268E9, 0.0, 2025-02-14 09:13:58.569
51.0, -187500.02235174447, -78645.70810147621, -187500.02235174447, -156805.9139616387, -179133.16090502273, -178448.10228921202, -172498.13497044265, -143554.90577875444, -0.14400000000000002, 0.8220000000000001, 0.538, 192.0, 0.0, 0.0, 0.0, 0.0, 0.0, 0.0, 0.0, 0.0, 0.0, 1.7395352385692797E9, 0.0, 2025-02-14 09:13:58.569
52.0, -187500.02235174447, -78708.2259307177, -187500.02235174447, -156760.96460353906, -179307.34804956295, -178529.149714607, -172463.42271130357, -143747.421353748, -0.14400000000000002, 0.8220000000000001, 0.538, 192.0, 0.0, 0.0, 0.0, 0.0, 0.0, 0.0, 0.0, 0.0, 0.0, 1.7395352385692909E9, 0.0, 2025-02-14 09:13:58.569
53.0, -187500.02235174447, -78973.71995135784, -187500.02235174447, -156579.37903158416, -179240.78455457505, -178385.0480181036, -172274.9751538009, -144077.24369493054, -0.14400000000000002, 0.8220000000000001, 0.538, 192.0, 0.0, 0.0, 0.0, 0.0, 0.0, 0.0, 0.0, 0.0, 0.0, 1.7395352385693026E9, 0.0, 2025-02-14 09:13:58.569
54.0, -187500.02235174447, -78856.4626999453, -187500.02235174447, -156815.10052860982, -179269.08186305547, -178510.9777463648, -172493.12817968466, -144142.1755125732, -0.14400000000000002, 0.8220000000000001, 0.538, 192.0, 0.0, 0.0, 0.0, 0.0, 0.0, 0.0, 0.0, 0.0, 0.0, 1.7395352385693142E9, 0.0, 2025-02-14 09:13:58.569
55.0, -187500.02235174447, -78490.58699495638, -187500.02235174447, -157246.4668448528, -179550.26680830322, -178887.91756485912, -172910.94933878773, -144036.11648513275, -0.14400000000000002, 0.8220000000000001, 0.538, 192.0, 0.0, 0.0, 0.0, 0.0, 0.0, 0.0, 0.0, 0.0, 0.0, 1.7395352385693257E9, 0.0, 2025-02-14 09:13:58.569
56.0, -187500.02235174447, -78469.4198929572, -187500.02235174447, -157280.19562723587, -179764.3741684406, -179041.69756671163, -172944.7675281486, -144169.7799169755, -0.14400000000000002, 0.8220000000000001, 0.538, 192.0, 0.0, 0.0, 0.0, 0.0, 0.0, 0.0, 0.0, 0.0, 0.0, 1.739535238569345E9, 0.0, 2025-02-14 09:13:58.569
57.0, -187500.02235174447, -78742.87113462343, -187500.02235174447, -157076.07949687, -179722.86697898712, -178862.3695209467, -172742.2160198946, -144504.6984558938, -0.146, 0.8220000000000001, 0.556, 192.0, 251.0, 112.0, 25.0, 176.0, 17.0, 96.0, 0.0, 0.0, 0.0, 1.739535238569357E9, 0.0, 2025-02-14 09:13:58.569
58.0, -187500.02235174447, -78701.83333180349, -187500.02235174447, -157227.78078648815, -179703.6668305, -178923.74741122097, -172873.9572017142, -144624.14617826298, -0.146, 0.8220000000000001, 0.556, 192.0, 0.0, 0.0, 0.0, 0.0, 0.0, 0.0, 0.0, 0.0, 0.0, 1.73953523856937E9, 0.0, 2025-02-14 09:13:58.569
59.0, -187500.02235174447, -78325.85463832077, -187500.02235174447, -157672.20052149304, -179951.63708348718, -179301.29072681555, -173306.3069947132, -144513.9073746094, -0.146, 0.8220000000000001, 0.556, 192.0, 0.0, 0.0, 0.0, 0.0, 0.0, 0.0, 0.0, 0.0, 0.0, 1.739535238569382E9, 0.0, 2025-02-14 09:13:58.569
60.0, -187500.02235174447, -78220.1085353027, -187500.02235174447, -157788.85427580526, -180207.74337145608, -179502.9258135469, -173444.70899638045, -144589.99271273526, -0.146, 0.8220000000000001, 0.556, 192.0, 0.0, 0.0, 0.0, 0.0, 0.0, 0.0, 0.0, 0.0, 0.0, 1.7395352385694156E9, 0.0, 2025-02-14 09:13:58.569
61.0, -187500.02235174447, -78479.9252128512, -187500.02235174447, -157576.91503488005, -180211.96785115814, -179378.60541088646, -173243.81151721615, -144914.83061490426, -0.146, 0.8220000000000001, 0.556, 192.0, 0.0, 0.0, 0.0, 0.0, 0.0, 0.0, 0.0, 0.0, 0.0, 1.7395352385694282E9, 0.0, 2025-02-14 09:13:58.569
62.0, -187500.02235174447, -78519.44309704818, -187500.02235174447, -157653.02272475036, -180175.0204175735, -179359.7405385662, -173310.3526604596, -145084.41330008666, -0.146, 0.8220000000000001, 0.556, 192.0, 0.0, 0.0, 0.0, 0.0, 0.0, 0.0, 0.0, 0.0, 0.0, 1.7395352385694404E9, 0.0, 2025-02-14 09:13:58.569
63.0, -187500.02235174447, -78160.40702586259, -187500.02235174447, -158099.1635440783, -180393.44166439076, -179697.14012111904, -173744.82586918186, -144981.5729238478, -0.146, 0.8220000000000001, 0.556, 192.0, 0.0, 0.0, 0.0, 0.0, 0.0, 0.0, 0.0, 0.0, 0.0, 1.739535238569458E9, 0.0, 2025-02-14 09:13:58.569
64.0, -187500.02235174447, -77973.81466314968, -187500.02235174447, -158296.14946796294, -180667.0046647793, -180004.34249691278, -173931.0159004946, -145002.04712176885, -0.146, 0.8220000000000001, 0.556, 192.0, 0.0, 0.0, 0.0, 0.0, 0.0, 0.0, 0.0, 0.0, 0.0, 1.7395352385694792E9, 0.0, 2025-02-14 09:13:58.569
65.0, -187500.02235174447, -78200.0590205263, -187500.02235174447, -158111.4793552732, -180697.22422328286, -179909.34758297773, -173736.06398535537, -145306.05319810548, -0.146, 0.8220000000000001, 0.556, 192.0, 0.0, 0.0, 0.0, 0.0, 0.0, 0.0, 0.0, 0.0, 0.0, 1.7395352385694911E9, 0.0, 2025-02-14 09:13:58.569
66.0, -187500.02235174447, -78294.29397514988, -187500.02235174447, -158136.20038464075, -180637.09803069808, -179837.9114076986, -173734.72288068806, -145518.4394739198, -0.146, 0.8220000000000001, 0.556, 192.0, 0.0, 0.0, 0.0, 0.0, 0.0, 0.0, 0.0, 0.0, 0.0, 1.7395352385695057E9, 0.0, 2025-02-14 09:13:58.569
67.0, -187500.02235174447, -77955.1509565295, -187500.02235174447, -158568.01373577284, -180822.61750967713, -180142.69979509115, -174150.13005138995, -145432.29585078906, -0.114, 0.8200000000000001, 0.5720000000000001, 192.0, 252.0, 112.0, 25.0, 160.0, 17.0, 224.0, 0.0, 0.0, 0.0, 1.739535238569517E9, 0.0, 2025-02-14 09:13:58.569
68.0, -187500.02235174447, -77675.75415083815, -187500.02235174447, -158856.32888750185, -181134.98313844003, -180482.37925557845, -174433.77368852778, -145390.54279214656, -0.114, 0.8200000000000001, 0.5720000000000001, 192.0, 0.0, 0.0, 0.0, 0.0, 0.0, 0.0, 0.0, 0.0, 0.0, 1.739535238569529E9, 0.0, 2025-02-14 09:13:58.569
69.0, -187500.02235174447, -77828.28245500117, -187500.02235174447, -158720.38557772466, -181222.75843891603, -180421.6272141489, -174292.77888450373, -145645.79971382616, -0.114, 0.8200000000000001, 0.5720000000000001, 192.0, 0.0, 0.0, 0.0, 0.0, 0.0, 0.0, 0.0, 0.0, 0.0, 1.7395352385695405E9, 0.0, 2025-02-14 09:13:58.569
70.0, -187500.02235174447, -77957.14026178601, -187500.02235174447, -158670.38472537813, -181165.40386264373, -180320.55262572202, -174230.73044189578, -145882.57174284122, -0.114, 0.8200000000000001, 0.5720000000000001, 192.0, 0.0, 0.0, 0.0, 0.0, 0.0, 0.0, 0.0, 0.0, 0.0, 1.7395352385695524E9, 0.0, 2025-02-14 09:13:58.569
71.0, -187500.02235174447, -77635.36454860742, -187500.02235174447, -159070.5927098504, -181301.99537301008, -180627.35267011556, -174604.02692604388, -145810.5097187173, -0.114, 0.8200000000000001, 0.5720000000000001, 192.0, 0.0, 0.0, 0.0, 0.0, 0.0, 0.0, 0.0, 0.0, 0.0, 1.7395352385695639E9, 0.0, 2025-02-14 09:13:58.569
72.0, -187500.02235174447, -77259.1846894246, -187500.02235174447, -159457.27788892723, -181626.34153680105, -181006.0806281663, -174984.18539573974, -145702.55079299817, -0.114, 0.8200000000000001, 0.5720000000000001, 192.0, 0.0, 0.0, 0.0, 0.0, 0.0, 0.0, 0.0, 0.0, 0.0, 1.739535238569576E9, 0.0, 2025-02-14 09:13:58.569
73.0, -187500.02235174447, -77304.0446405464, -187500.02235174447, -159409.60161800406, -181810.67637332398, -180985.53937501187, -174955.7986802815, -145886.05861497624, -0.114, 0.8200000000000001, 0.5720000000000001, 192.0, 0.0, 0.0, 0.0, 0.0, 0.0, 0.0, 0.0, 0.0, 0.0, 1.7395352385695875E9, 0.0, 2025-02-14 09:13:58.569
74.0, -187500.02235174447, -77439.45150845665, -187500.02235174447, -159307.07416618755, -181790.44804459193, -180913.81262705478, -174854.65703662124, -146129.35735337227, -0.114, 0.8200000000000001, 0.5720000000000001, 192.0, 0.0, 0.0, 0.0, 0.0, 0.0, 0.0, 0.0, 0.0, 0.0, 1.739535238569606E9, 0.0, 2025-02-14 09:13:58.569
75.0, -187500.02235174447, -77131.22095241796, -187500.02235174447, -159668.21130135196, -181906.90063320406, -181195.44460719166, -175205.17709316936, -146069.20880904305, -0.114, 0.8200000000000001, 0.5720000000000001, 192.0, 0.0, 0.0, 0.0, 0.0, 0.0, 0.0, 0.0, 0.0, 0.0, 1.7395352385696175E9, 0.0, 2025-02-14 09:13:58.569
76.0, -187500.02235174447, -76642.20948722475, -187500.02235174447, -160149.37730424135, -182263.18743982166, -181660.94203721787, -175694.38972406267, -145884.0246062308, -0.114, 0.8200000000000001, 0.5720000000000001, 192.0, 0.0, 0.0, 0.0, 0.0, 0.0, 0.0, 0.0, 0.0, 0.0, 1.7395352385696292E9, 0.0, 2025-02-14 09:13:58.569
77.0, -187500.02235174447, -76517.93378805325, -187500.02235174447, -160220.3664446314, -182541.19843735677, -181838.39253644855, -175789.6528589312, -145947.81648490627, -0.112, 0.8, 0.556, 192.0, 252.0, 128.0, 25.0, 0.0, 17.0, 96.0, 0.0, 0.0, 0.0, 1.739535238569641E9, 0.0, 2025-02-14 09:13:58.569
78.0, -187500.02235174447, -76548.2651052791, -187500.02235174447, -160193.65611000732, -182610.66765912386, -181819.28179493928, -175771.3467802223, -146115.94630669907, -0.112, 0.8, 0.556, 192.0, 0.0, 0.0, 0.0, 0.0, 0.0, 0.0, 0.0, 0.0, 0.0, 1.7395352385696533E9, 0.0, 2025-02-14 09:13:58.569
79.0, -187500.02235174447, -76147.76654812892, -187500.02235174447, -160614.3606441451, -182812.52626329975, -182105.2947169894, -176192.40894227134, -145984.74156674644, -0.112, 0.8, 0.556, 192.0, 0.0, 0.0, 0.0, 0.0, 0.0, 0.0, 0.0, 0.0, 0.0, 1.7395352385696652E9, 0.0, 2025-02-14 09:13:58.569
80.0, -187500.02235174447, -75529.80786917303, -187500.02235174447, -161194.0978400824, -183261.57280940688, -182654.25356081172, -176782.56205112484, -145707.6916942229, -0.112, 0.8, 0.556, 192.0, 0.0, 0.0, 0.0, 0.0, 0.0, 0.0, 0.0, 0.0, 0.0, 1.739535238569677E9, 0.0, 2025-02-14 09:13:58.569
81.0, -187500.02235174447, -75319.58971257087, -187500.02235174447, -161338.11012960793, -183615.2891654121, -182922.2286250864, -176942.757003636, -145716.07359839365, -0.112, 0.8, 0.556, 192.0, 0.0, 0.0, 0.0, 0.0, 0.0, 0.0, 0.0, 0.0, 0.0, 1.7395352385696893E9, 0.0, 2025-02-14 09:13:58.569
82.0, -187500.02235174447, -75335.39239590078, -187500.02235174447, -161307.46588795973, -183732.6581755469, -182916.66304071702, -176916.67251785667, -145878.45902186146, -0.112, 0.8, 0.556, 192.0, 0.0, 0.0, 0.0, 0.0, 0.0, 0.0, 0.0, 0.0, 0.0, 1.739535238569704E9, 0.0, 2025-02-14 09:13:58.569
83.0, -187500.02235174447, -74979.95495557248, -187500.02235174447, -161692.49703794683, -183901.36914269556, -183182.31352356836, -177269.80772850607, -145782.54768640373, -0.112, 0.8, 0.556, 192.0, 0.0, 0.0, 0.0, 0.0, 0.0, 0.0, 0.0, 0.0, 0.0, 1.7395352385697172E9, 0.0, 2025-02-14 09:13:58.569
84.0, -187500.02235174447, -74224.018958094, -187500.02235174447, -162421.65564556787, -184388.48070961007, -183788.381074474, -177992.32786802386, -145404.73614987568, -0.112, 0.8, 0.556, 192.0, 0.0, 0.0, 0.0, 0.0, 0.0, 0.0, 0.0, 0.0, 0.0, 1.7395352385697296E9, 0.0, 2025-02-14 09:13:58.569
85.0, -187500.02235174447, -73661.87258504303, -187500.02235174447, -162880.08992434622, -184945.57558841415, -184282.95812403658, -178462.29564694114, -145160.92332135717, -0.112, 0.8, 0.556, 192.0, 0.0, 0.0, 0.0, 0.0, 0.0, 0.0, 0.0, 0.0, 0.0, 1.739535238569742E9, 0.0, 2025-02-14 09:13:58.569
86.0, -187500.02235174447, -73444.16659404834, -187500.02235174447, -163008.1877718196, -185263.79737422435, -184484.3473415789, -178596.0037822728, -145155.26833000997, -0.112, 0.8, 0.556, 192.0, 0.0, 0.0, 0.0, 0.0, 0.0, 0.0, 0.0, 0.0, 0.0, 1.739535238569756E9, 0.0, 2025-02-14 09:13:58.569
87.0, -187500.02235174447, -73007.81583879184, -187500.02235174447, -163414.0283958946, -185546.055203206, -184786.7664440592, -178995.87649057826, -145000.5272031459, -0.116, 0.8160000000000001, 0.5760000000000001, 192.0, 252.0, 96.0, 25.0, 128.0, 18.0, 0.0, 0.0, 0.0, 0.0, 1.7395352385697684E9, 0.0, 2025-02-14 09:13:58.569
88.0, -187500.02235174447, -72176.04037237649, -187500.02235174447, -164172.69130619662, -186086.8780120466, -185443.95243453415, -179760.30615094973, -144572.15602065992, -0.116, 0.8160000000000001, 0.5760000000000001, 192.0, 0.0, 0.0, 0.0, 0.0, 0.0, 0.0, 0.0, 0.0, 0.0, 1.7395352385697813E9, 0.0, 2025-02-14 09:13:58.569
89.0, -187500.02235174447, -71515.47926848881, -187500.02235174447, -164696.5714927401, -186707.1165689369, -186048.58947379465, -180290.42247419627, -144265.57949371095, -0.116, 0.8160000000000001, 0.5760000000000001, 192.0, 0.0, 0.0, 0.0, 0.0, 0.0, 0.0, 0.0, 0.0, 0.0, 1.7395352385698097E9, 0.0, 2025-02-14 09:13:58.569
90.0, -187500.02235174447, -71278.12609411789, -187500.02235174447, -164820.53426748925, -187074.08750940414, -186278.7230347065, -180420.57668215953, -144258.62810118534, -0.116, 0.8160000000000001, 0.5760000000000001, 192.0, 0.0, 0.0, 0.0, 0.0, 0.0, 0.0, 0.0, 0.0, 0.0, 1.7395352385698287E9, 0.0, 2025-02-14 09:13:58.569
91.0, -187500.02235174447, -70944.70512207808, -187500.02235174447, -165127.4684223495, -187313.13941635363, -186503.31336299342, -180713.8986246465, -144184.46501308263, -0.116, 0.8160000000000001, 0.5760000000000001, 192.0, 0.0, 0.0, 0.0, 0.0, 0.0, 0.0, 0.0, 0.0, 0.0, 1.7395352385698411E9, 0.0, 2025-02-14 09:13:58.569
92.0, -187500.02235174447, -70185.6175286314, -187500.02235174447, -165838.07508207264, -187500.02235174447, -187091.18659391245, -181419.09616221144, -143817.06938947077, -0.116, 0.8160000000000001, 0.5760000000000001, 192.0, 0.0, 0.0, 0.0, 0.0, 0.0, 0.0, 0.0, 0.0, 0.0, 1.739535238569854E9, 0.0, 2025-02-14 09:13:58.569
93.0, -187500.02235174447, -69492.35582260559, -187500.02235174447, -166416.7170425316, -187500.02235174447, -187500.02235174447, -182005.8518059077, -143496.03128385916, -0.116, 0.8160000000000001, 0.5760000000000001, 192.0, 0.0, 0.0, 0.0, 0.0, 0.0, 0.0, 0.0, 0.0, 0.0, 1.7395352385698657E9, 0.0, 2025-02-14 09:13:58.569
94.0, -187500.02235174447, -69238.6411712934, -187500.02235174447, -166552.9509249867, -187500.02235174447, -187500.02235174447, -182149.0370808884, -143485.66007443191, -0.116, 0.8160000000000001, 0.5760000000000001, 192.0, 0.0, 0.0, 0.0, 0.0, 0.0, 0.0, 0.0, 0.0, 0.0, 1.739535238569877E9, 0.0, 2025-02-14 09:13:58.569
95.0, -187500.02235174447, -68994.89539800827, -187500.02235174447, -166751.63558144995, -187500.02235174447, -187500.02235174447, -182337.79756281347, -143481.5697051966, -0.116, 0.8160000000000001, 0.5760000000000001, 192.0, 0.0, 0.0, 0.0, 0.0, 0.0, 0.0, 0.0, 0.0, 0.0, 1.7395352385698884E9, 0.0, 2025-02-14 09:13:58.569
96.0, -187500.02235174447, -68317.83870671257, -187500.02235174447, -167385.41929548018, -187500.02235174447, -187500.02235174447, -182968.9884744869, -143176.37898640384, -0.116, 0.8160000000000001, 0.5760000000000001, 192.0, 0.0, 0.0, 0.0, 0.0, 0.0, 0.0, 0.0, 0.0, 0.0, 1.7395352385698996E9, 0.0, 2025-02-14 09:13:58.569
97.0, -187500.02235174447, -67588.88126479165, -187500.02235174447, -168004.897893059, -187500.02235174447, -187500.02235174447, -183600.1346826714, -142836.3642497497, -0.106, 0.804, 0.5760000000000001, 192.0, 252.0, 176.0, 25.0, 32.0, 18.0, 0.0, 0.0, 0.0, 0.0, 1.739535238569911E9, 0.0, 2025-02-14 09:13:58.569
98.0, -187500.02235174447, -67297.0345374387, -187500.02235174447, -168173.13947357412, -187500.02235174447, -187500.02235174447, -183777.45107143535, -142803.17190923356, -0.106, 0.804, 0.5760000000000001, 192.0, 0.0, 0.0, 0.0, 0.0, 0.0, 0.0, 0.0, 0.0, 0.0, 1.7395352385699227E9, 0.0, 2025-02-14 09:13:58.569
99.0, -187500.02235174447, -67126.60248596699, -187500.02235174447, -168287.40159122963, -187500.02235174447, -187500.02235174447, -183889.72388383435, -142858.1795523381, -0.106, 0.804, 0.5760000000000001, 192.0, 0.0, 0.0, 0.0, 0.0, 0.0, 0.0, 0.0, 0.0, 0.0, 1.7395352385699341E9, 0.0, 2025-02-14 09:13:58.569
100.0, -187500.02235174447, -66578.29184273384, -187500.02235174447, -168822.77057442316, -187500.02235174447, -187500.02235174447, -184414.65460236726, -142646.7096980464, -0.106, 0.804, 0.5760000000000001, 192.0, 0.0, 0.0, 0.0, 0.0, 0.0, 0.0, 0.0, 0.0, 0.0, 1.7395352385699456E9, 0.0, 2025-02-14 09:13:58.569
101.0, -187500.02235174447, -65906.59957010741, -187500.02235174447, -169426.62530262774, -187500.02235174447, -187500.02235174447, -185017.81642649372, -142348.0456886346, -0.106, 0.804, 0.5760000000000001, 192.0, 0.0, 0.0, 0.0, 0.0, 0.0, 0.0, 0.0, 0.0, 0.0, 1.7395352385699668E9, 0.0, 2025-02-14 09:13:58.569
102.0, -187500.02235174447, -65663.92668055615, -187500.02235174447, -169577.9689643346, -187500.02235174447, -187500.02235174447, -185182.5487831293, -142354.7959154601, -0.106, 0.804, 0.5760000000000001, 192.0, 0.0, 0.0, 0.0, 0.0, 0.0, 0.0, 0.0, 0.0, 0.0, 1.7395352385699785E9, 0.0, 2025-02-14 09:13:58.569
103.0, -187500.02235174447, -65667.57001490236, -187500.02235174447, -169540.19451620514, -187500.02235174447, -187500.02235174447, -185155.21259966047, -142541.03065026173, -0.106, 0.804, 0.5760000000000001, 192.0, 0.0, 0.0, 0.0, 0.0, 0.0, 0.0, 0.0, 0.0, 0.0, 1.73953523856999E9, 0.0, 2025-02-14 09:13:58.569
104.0, -187500.02235174447, -65343.156795878036, -187500.02235174447, -169869.77098819864, -187500.02235174447, -187500.02235174447, -185480.7881093965, -142501.66922827592, -0.106, 0.804, 0.5760000000000001, 192.0, 0.0, 0.0, 0.0, 0.0, 0.0, 0.0, 0.0, 0.0, 0.0, 1.739535238570008E9, 0.0, 2025-02-14 09:13:58.570
105.0, -187500.02235174447, -64805.66439696126, -187500.02235174447, -170367.6113924517, -187500.02235174447, -187500.02235174447, -185980.26019099477, -142314.62983067392, -0.106, 0.804, 0.5760000000000001, 192.0, 0.0, 0.0, 0.0, 0.0, 0.0, 0.0, 0.0, 0.0, 0.0, 1.7395352385700202E9, 0.0, 2025-02-14 09:13:58.570
106.0, -187500.02235174447, -64631.052569276406, -187500.02235174447, -170472.17285301362, -187500.02235174447, -187500.02235174447, -186089.2249452144, -142385.52956408614, -0.106, 0.804, 0.5760000000000001, 192.0, 0.0, 0.0, 0.0, 0.0, 0.0, 0.0, 0.0, 0.0, 0.0, 1.7395352385700316E9, 0.0, 2025-02-14 09:13:58.570
107.0, -187500.02235174447, -64777.88117860332, -187500.02235174447, -170304.78063878784, -187500.02235174447, -187500.02235174447, -185934.14854218348, -142685.89230607657, -0.116, 0.804, 0.588, 192.0, 252.0, 96.0, 25.0, 32.0, 18.0, 96.0, 0.0, 0.0, 0.0, 1.7395352385700448E9, 0.0, 2025-02-14 09:13:58.570
108.0, -187500.02235174447, -64664.44607549263, -187500.02235174447, -170461.22049823054, -187500.02235174447, -187500.02235174447, -186092.2200789714, -142803.8648133117, -0.116, 0.804, 0.588, 192.0, 0.0, 0.0, 0.0, 0.0, 0.0, 0.0, 0.0, 0.0, 0.0, 1.7395352385700648E9, 0.0, 2025-02-14 09:13:58.570
109.0, -187500.02235174447, -64239.71822735289, -187500.02235174447, -170896.5430732421, -187500.02235174447, -187500.02235174447, -186521.15005506875, -142703.81840512974, -0.116, 0.804, 0.588, 192.0, 0.0, 0.0, 0.0, 0.0, 0.0, 0.0, 0.0, 0.0, 0.0, 1.7395352385700765E9, 0.0, 2025-02-14 09:13:58.570
110.0, -187500.02235174447, -64088.463972623824, -187500.02235174447, -171013.4650484878, -187500.02235174447, -187500.02235174447, -186643.34704200592, -142795.97464751895, -0.116, 0.804, 0.588, 192.0, 0.0, 0.0, 0.0, 0.0, 0.0, 0.0, 0.0, 0.0, 0.0, 1.739535238570088E9, 0.0, 2025-02-14 09:13:58.570
111.0, -187500.02235174447, -64314.283646855794, -187500.02235174447, -170794.14973189234, -187500.02235174447, -187500.02235174447, -186438.04626918392, -143158.25172165057, -0.116, 0.804, 0.588, 192.0, 0.0, 0.0, 0.0, 0.0, 0.0, 0.0, 0.0, 0.0, 0.0, 1.7395352385700996E9, 0.0, 2025-02-14 09:13:58.570
112.0, -187500.02235174447, -64353.62271709713, -187500.02235174447, -170819.563665338, -187500.02235174447, -187500.02235174447, -186452.7090135466, -143389.72638722975, -0.116, 0.804, 0.588, 192.0, 0.0, 0.0, 0.0, 0.0, 0.0, 0.0, 0.0, 0.0, 0.0, 1.7395352385701215E9, 0.0, 2025-02-14 09:13:58.570
113.0, -187500.02235174447, -64024.91796313739, -187500.02235174447, -171184.94763194892, -187500.02235174447, -187500.02235174447, -186812.32623008805, -143360.4456019933, -0.116, 0.804, 0.588, 192.0, 0.0, 0.0, 0.0, 0.0, 0.0, 0.0, 0.0, 0.0, 0.0, 1.7395352385701337E9, 0.0, 2025-02-14 09:13:58.570
114.0, -187500.02235174447, -63867.40521996084, -187500.02235174447, -171323.17081966053, -187500.02235174447, -187500.02235174447, -186955.84678123557, -143453.74178334975, -0.116, 0.804, 0.588, 192.0, 0.0, 0.0, 0.0, 0.0, 0.0, 0.0, 0.0, 0.0, 0.0, 1.7395352385701456E9, 0.0, 2025-02-14 09:13:58.570
115.0, -187500.02235174447, -64132.56396443415, -187500.02235174447, -171073.79240677267, -187500.02235174447, -187500.02235174447, -186702.48975783464, -143846.7525061074, -0.116, 0.804, 0.588, 192.0, 0.0, 0.0, 0.0, 0.0, 0.0, 0.0, 0.0, 0.0, 0.0, 1.7395352385701578E9, 0.0, 2025-02-14 09:13:58.570
116.0, -187500.02235174447, -64302.63838799458, -187500.02235174447, -170988.83342609805, -187500.02235174447, -187500.02235174447, -186611.36169569037, -144176.038405423, -0.116, 0.804, 0.588, 192.0, 0.0, 0.0, 0.0, 0.0, 0.0, 0.0, 0.0, 0.0, 0.0, 1.7395352385701697E9, 0.0, 2025-02-14 09:13:58.570
117.0, -187500.02235174447, -64067.38627760247, -187500.02235174447, -171296.75105771437, -187500.02235174447, -187500.02235174447, -186914.33959178205, -144214.97514426414, -0.10200000000000001, 0.804, 0.596, 192.0, 252.0, 208.0, 25.0, 32.0, 18.0, 160.0, 0.0, 0.0, 0.0, 1.739535238570182E9, 0.0, 2025-02-14 09:13:58.570
118.0, -187500.02235174447, -63909.091223369986, -187500.02235174447, -171476.90611802414, -187500.02235174447, -187500.02235174447, -187091.63362880156, -144310.14887215482, -0.10200000000000001, 0.804, 0.596, 192.0, 0.0, 0.0, 0.0, 0.0, 0.0, 0.0, 0.0, 0.0, 0.0, 1.7395352385701947E9, 0.0, 2025-02-14 09:13:58.570
119.0, -187500.02235174447, -64190.27616861775, -187500.02235174447, -171215.6142253416, -187500.02235174447, -187500.02235174447, -186843.3057479031, -144723.29851666672, -0.10200000000000001, 0.804, 0.596, 192.0, 0.0, 0.0, 0.0, 0.0, 0.0, 0.0, 0.0, 0.0, 0.0, 1.7395352385702612E9, 0.0, 2025-02-14 09:13:58.570
120.0, -187500.02235174447, -64466.253157407424, -187500.02235174447, -171004.07731581657, -187500.02235174447, -187500.02235174447, -186639.99428033762, -145130.34613494232, -0.10200000000000001, 0.804, 0.596, 192.0, 0.0, 0.0, 0.0, 0.0, 0.0, 0.0, 0.0, 0.0, 0.0, 1.7395352390487003E9, 0.0, 2025-02-14 09:13:59.048
121.0, -187500.02235174447, -64318.30696085775, -187500.02235174447, -171226.90185629152, -187500.02235174447, -187500.02235174447, -186864.51755339117, -145234.0805809594, -0.10200000000000001, 0.804, 0.596, 192.0, 0.0, 0.0, 0.0, 0.0, 0.0, 0.0, 0.0, 0.0, 0.0, 1.7395352390487475E9, 0.0, 2025-02-14 09:13:59.048
122.0, -187500.02235174447, -64141.59406919409, -187500.02235174447, -171425.31829182128, -187500.02235174447, -187500.02235174447, -187070.71239599137, -145319.97833490116, -0.10200000000000001, 0.804, 0.596, 192.0, 0.0, 0.0, 0.0, 0.0, 0.0, 0.0, 0.0, 0.0, 0.0, 1.7395352390487757E9, 0.0, 2025-02-14 09:13:59.048
123.0, -187500.02235174447, -64405.81404040028, -187500.02235174447, -171170.08372188613, -187500.02235174447, -187500.02235174447, -186833.18040766483, -145724.90253745348, -0.10200000000000001, 0.804, 0.596, 192.0, 0.0, 0.0, 0.0, 0.0, 0.0, 0.0, 0.0, 0.0, 0.0, 1.7395352390488107E9, 0.0, 2025-02-14 09:13:59.048
124.0, -187500.02235174447, -64786.55365545198, -187500.02235174447, -170869.56451768454, -187500.02235174447, -187500.02235174447, -186542.98770940158, -146210.74005493405, -0.10200000000000001, 0.804, 0.596, 192.0, 0.0, 0.0, 0.0, 0.0, 0.0, 0.0, 0.0, 0.0, 0.0, 1.7395352390488355E9, 0.0, 2025-02-14 09:13:59.048
125.0, -187500.02235174447, -64775.333079735414, -187500.02235174447, -170975.9141178029, -187500.02235174447, -187500.02235174447, -186653.7629549221, -146412.44219689874, -0.10200000000000001, 0.804, 0.596, 192.0, 0.0, 0.0, 0.0, 0.0, 0.0, 0.0, 0.0, 0.0, 0.0, 1.7395352390488477E9, 0.0, 2025-02-14 09:13:59.048
126.0, -187500.02235174447, -64624.25763896199, -187500.02235174447, -171180.79020748023, -187500.02235174447, -187500.02235174447, -186870.99955928323, -146514.7461312707, -0.10200000000000001, 0.804, 0.596, 192.0, 0.0, 0.0, 0.0, 0.0, 0.0, 0.0, 0.0, 0.0, 0.0, 1.7395352390488596E9, 0.0, 2025-02-14 09:13:59.048
127.0, -187500.02235174447, -64883.98490953266, -187500.02235174447, -170957.38452164942, -187500.02235174447, -187500.02235174447, -186656.60162646792, -146913.0318657198, -0.1, 0.78, 0.592, 192.0, 252.0, 224.0, 24.0, 96.0, 18.0, 128.0, 0.0, 0.0, 0.0, 1.7395352390488715E9, 0.0, 2025-02-14 09:13:59.048
128.0, -187500.02235174447, -65360.92643272, -187500.02235174447, -170575.95200251963, -187500.02235174447, -187500.02235174447, -186271.7045869475, -147465.6563956328, -0.1, 0.78, 0.592, 192.0, 0.0, 0.0, 0.0, 0.0, 0.0, 0.0, 0.0, 0.0, 0.0, 1.7395352390489094E9, 0.0, 2025-02-14 09:13:59.048
129.0, -187500.02235174447, -65498.8590477537, -187500.02235174447, -170570.8111012949, -187500.02235174447, -187500.02235174447, -186259.54523796384, -147772.94817840436, -0.1, 0.78, 0.592, 192.0, 0.0, 0.0, 0.0, 0.0, 0.0, 0.0, 0.0, 0.0, 0.0, 1.739535239048921E9, 0.0, 2025-02-14 09:13:59.048
130.0, -187500.02235174447, -65394.92343603652, -187500.02235174447, -170767.59585947942, -187500.02235174447, -187500.02235174447, -186446.31641463237, -147905.53872651324, -0.1, 0.78, 0.592, 192.0, 0.0, 0.0, 0.0, 0.0, 0.0, 0.0, 0.0, 0.0, 0.0, 1.7395352390489333E9, 0.0, 2025-02-14 09:13:59.048
131.0, -187500.02235174447, -65620.65370329066, -187500.02235174447, -170593.20754923913, -187500.02235174447, -187500.02235174447, -186280.39941554063, -148277.8964373942, -0.1, 0.78, 0.592, 192.0, 0.0, 0.0, 0.0, 0.0, 0.0, 0.0, 0.0, 0.0, 0.0, 1.7395352390489452E9, 0.0, 2025-02-14 09:13:59.048
132.0, -187500.02235174447, -66159.17428245238, -187500.02235174447, -170159.2707823838, -187500.02235174447, -187500.02235174447, -185854.73279413377, -148874.4868486508, -0.1, 0.78, 0.592, 192.0, 0.0, 0.0, 0.0, 0.0, 0.0, 0.0, 0.0, 0.0, 0.0, 1.7395352390489569E9, 0.0, 2025-02-14 09:13:59.048
133.0, -187500.02235174447, -66428.11047173863, -187500.02235174447, -170050.26132467526, -187500.02235174447, -187500.02235174447, -185729.3395077395, -149277.04176629087, -0.1, 0.78, 0.592, 192.0, 0.0, 0.0, 0.0, 0.0, 0.0, 0.0, 0.0, 0.0, 0.0, 1.739535239048968E9, 0.0, 2025-02-14 09:13:59.048
134.0, -187500.02235174447, -66383.58579678366, -187500.02235174447, -170215.1724952665, -187500.02235174447, -187500.02235174447, -185873.26239028721, -149451.16185559772, -0.1, 0.78, 0.592, 192.0, 0.0, 0.0, 0.0, 0.0, 0.0, 0.0, 0.0, 0.0, 0.0, 1.7395352390490093E9, 0.0, 2025-02-14 09:13:59.049
135.0, -187500.02235174447, -66593.17810454108, -187500.02235174447, -170075.2952784652, -187500.02235174447, -187500.02235174447, -185735.4415339758, -149808.5662494381, -0.1, 0.78, 0.592, 192.0, 0.0, 0.0, 0.0, 0.0, 0.0, 0.0, 0.0, 0.0, 0.0, 1.7395352390490196E9, 0.0, 2025-02-14 09:13:59.049
136.0, -187500.02235174447, -67183.06299246108, -187500.02235174447, -169593.21285405313, -187500.02235174447, -187500.02235174447, -185254.58845550878, -150441.09826577883, -0.1, 0.78, 0.592, 192.0, 0.0, 0.0, 0.0, 0.0, 0.0, 0.0, 0.0, 0.0, 0.0, 1.7395352390490296E9, 0.0, 2025-02-14 09:13:59.049
137.0, -187500.02235174447, -67599.87832306366, -187500.02235174447, -169351.03170287987, -187500.02235174447, -187500.02235174447, -185003.69012399795, -150947.3205742026, -0.108, 0.782, 0.598, 192.0, 252.0, 160.0, 24.0, 112.0, 18.0, 176.0, 0.0, 0.0, 0.0, 1.7395352390490398E9, 0.0, 2025-02-14 09:13:59.049
138.0, -187500.02235174447, -67636.62459094818, -187500.02235174447, -169467.01490485846, -187500.02235174447, -187500.02235174447, -185117.21463408647, -151177.72235604792, -0.108, 0.782, 0.598, 192.0, 0.0, 0.0, 0.0, 0.0, 0.0, 0.0, 0.0, 0.0, 0.0, 1.7395352390490503E9, 0.0, 2025-02-14 09:13:59.049
139.0, -187500.02235174447, -67813.76216575649, -187500.02235174447, -169382.25708988393, -187500.02235174447, -187500.02235174447, -185037.03892672528, -151505.3542262738, -0.108, 0.782, 0.598, 192.0, 0.0, 0.0, 0.0, 0.0, 0.0, 0.0, 0.0, 0.0, 0.0, 1.73953523904906E9, 0.0, 2025-02-14 09:13:59.049
140.0, -187500.02235174447, -68376.64614637449, -187500.02235174447, -168935.02103507772, -187500.02235174447, -187500.02235174447, -184590.78634867506, -152114.26044872528, -0.108, 0.782, 0.598, 192.0, 0.0, 0.0, 0.0, 0.0, 0.0, 0.0, 0.0, 0.0, 0.0, 1.7395352390490701E9, 0.0, 2025-02-14 09:13:59.049
141.0, -187500.02235174447, -68818.16015460016, -187500.02235174447, -168660.40750269982, -187500.02235174447, -187500.02235174447, -184304.23698475803, -152631.278649721, -0.108, 0.782, 0.598, 192.0, 0.0, 0.0, 0.0, 0.0, 0.0, 0.0, 0.0, 0.0, 0.0, 1.73953523904908E9, 0.0, 2025-02-14 09:13:59.049
142.0, -187500.02235174447, -68804.48088699352, -187500.02235174447, -168814.9474638638, -187500.02235174447, -187500.02235174447, -184450.4844487291, -152813.9147536653, -0.108, 0.782, 0.598, 192.0, 0.0, 0.0, 0.0, 0.0, 0.0, 0.0, 0.0, 0.0, 0.0, 1.73953523904909E9, 0.0, 2025-02-14 09:13:59.049
143.0, -187500.02235174447, -68785.50425595096, -187500.02235174447, -168906.50020915273, -187500.02235174447, -187500.02235174447, -184547.78159234306, -152988.2136569278, -0.108, 0.782, 0.598, 192.0, 0.0, 0.0, 0.0, 0.0, 0.0, 0.0, 0.0, 0.0, 0.0, 1.7395352390490997E9, 0.0, 2025-02-14 09:13:59.049
144.0, -187500.02235174447, -69140.36055092342, -187500.02235174447, -168614.80994401098, -187500.02235174447, -187500.02235174447, -184259.19821968058, -153428.5653744418, -0.108, 0.782, 0.598, 192.0, 0.0, 0.0, 0.0, 0.0, 0.0, 0.0, 0.0, 0.0, 0.0, 1.7395352390491097E9, 0.0, 2025-02-14 09:13:59.049
145.0, -187500.02235174447, -69468.81943569415, -187500.02235174447, -168402.55777866338, -187500.02235174447, -187500.02235174447, -184052.06460381325, -153851.28156558058, -0.108, 0.782, 0.598, 192.0, 0.0, 0.0, 0.0, 0.0, 0.0, 0.0, 0.0, 0.0, 0.0, 1.7395352390491192E9, 0.0, 2025-02-14 09:13:59.049
146.0, -187500.02235174447, -69351.13750113697, -187500.02235174447, -168629.8079645405, -187500.02235174447, -187500.02235174447, -184277.77251932296, -153944.66715391484, -0.108, 0.782, 0.598, 192.0, 0.0, 0.0, 0.0, 0.0, 0.0, 0.0, 0.0, 0.0, 0.0, 1.7395352390491288E9, 0.0, 2025-02-14 09:13:59.049
147.0, -187500.02235174447, -69140.33819917896, -187500.02235174447, -168883.4108571304, -187500.02235174447, -187500.02235174447, -184535.68929859274, -153967.91296814836, -0.098, 0.78, 0.594, 192.0, 252.0, 240.0, 24.0, 96.0, 18.0, 144.0, 0.0, 0.0, 0.0, 1.7395352390491383E9, 0.0, 2025-02-14 09:13:59.049
148.0, -187500.02235174447, -69323.15311707892, -187500.02235174447, -168720.10901213993, -187500.02235174447, -187500.02235174447, -184389.73240729957, -154276.65761430952, -0.098, 0.78, 0.594, 192.0, 0.0, 0.0, 0.0, 0.0, 0.0, 0.0, 0.0, 0.0, 0.0, 1.7395352390491543E9, 0.0, 2025-02-14 09:13:59.049
149.0, -187500.02235174447, -69607.48965829489, -187500.02235174447, -168518.20570447514, -187500.02235174447, -187500.02235174447, -184178.10609079673, -154656.27964213846, -0.098, 0.78, 0.594, 192.0, 0.0, 0.0, 0.0, 0.0, 0.0, 0.0, 0.0, 0.0, 0.0, 1.739535239049164E9, 0.0, 2025-02-14 09:13:59.049
150.0, -187500.02235174447, -69463.07503736914, -187500.02235174447, -168756.49765211318, -187500.02235174447, -187500.02235174447, -184402.24938419455, -154722.10552955934, -0.098, 0.78, 0.594, 192.0, 0.0, 0.0, 0.0, 0.0, 0.0, 0.0, 0.0, 0.0, 0.0, 1.7395352390491736E9, 0.0, 2025-02-14 09:13:59.049
151.0, -187500.02235174447, -69114.09725118843, -187500.02235174447, -169138.71248229893, -187500.02235174447, -187500.02235174447, -184774.04830146412, -154632.6985517381, -0.098, 0.78, 0.594, 192.0, 0.0, 0.0, 0.0, 0.0, 0.0, 0.0, 0.0, 0.0, 0.0, 1.7395352390491834E9, 0.0, 2025-02-14 09:13:59.049
152.0, -187500.02235174447, -69105.87180922888, -187500.02235174447, -169141.14882244455, -187500.02235174447, -187500.02235174447, -184789.13572897145, -154790.8371437594, -0.098, 0.78, 0.594, 192.0, 0.0, 0.0, 0.0, 0.0, 0.0, 0.0, 0.0, 0.0, 0.0, 1.7395352390491931E9, 0.0, 2025-02-14 09:13:59.049
153.0, -187500.02235174447, -69295.77223012116, -187500.02235174447, -168986.40769558045, -187500.02235174447, -187500.02235174447, -184641.8824364999, -155092.8539148395, -0.098, 0.78, 0.594, 192.0, 0.0, 0.0, 0.0, 0.0, 0.0, 0.0, 0.0, 0.0, 0.0, 1.739535239049203E9, 0.0, 2025-02-14 09:13:59.049
154.0, -187500.02235174447, -69118.03115821257, -187500.02235174447, -169235.7861084683, -187500.02235174447, -187500.02235174447, -184868.01503515424, -155126.35917977802, -0.098, 0.78, 0.594, 192.0, 0.0, 0.0, 0.0, 0.0, 0.0, 0.0, 0.0, 0.0, 0.0, 1.7395352390492127E9, 0.0, 2025-02-14 09:13:59.049
155.0, -187500.02235174447, -68657.27229801087, -187500.02235174447, -169712.41470723329, -187500.02235174447, -187500.02235174447, -185340.93324433963, -154951.54618639307, -0.098, 0.78, 0.594, 192.0, 0.0, 0.0, 0.0, 0.0, 0.0, 0.0, 0.0, 0.0, 0.0, 1.7395352390492225E9, 0.0, 2025-02-14 09:13:59.049
156.0, -187500.02235174447, -68495.82564781018, -187500.02235174447, -169840.22198202874, -187500.02235174447, -187500.02235174447, -185480.40812974074, -154993.8803903914, -0.098, 0.78, 0.594, 192.0, 0.0, 0.0, 0.0, 0.0, 0.0, 0.0, 0.0, 0.0, 0.0, 1.739535239049232E9, 0.0, 2025-02-14 09:13:59.049
157.0, -187500.02235174447, -68619.31903592576, -187500.02235174447, -169720.93072187077, -187500.02235174447, -187500.02235174447, -185355.50658172448, -155246.43275099192, -0.1, 0.78, 0.612, 192.0, 252.0, 224.0, 24.0, 96.0, 19.0, 32.0, 0.0, 0.0, 0.0, 1.739535239049242E9, 0.0, 2025-02-14 09:13:59.049
158.0, -187500.02235174447, -68444.4613390519, -187500.02235174447, -169943.2635239677, -187500.02235174447, -187500.02235174447, -185573.88312505285, -155277.03228915125, -0.1, 0.78, 0.612, 192.0, 0.0, 0.0, 0.0, 0.0, 0.0, 0.0, 0.0, 0.0, 0.0, 1.7395352390492525E9, 0.0, 2025-02-14 09:13:59.049
159.0, -187500.02235174447, -67894.96605336262, -187500.02235174447, -170490.32246951133, -187500.02235174447, -187500.02235174447, -186122.99843108637, -155031.3866175874, -0.1, 0.78, 0.612, 192.0, 0.0, 0.0, 0.0, 0.0, 0.0, 0.0, 0.0, 0.0, 0.0, 1.7395352390492623E9, 0.0, 2025-02-14 09:13:59.049
160.0, -187500.02235174447, -67547.10585440467, -187500.02235174447, -170773.72023746016, -187500.02235174447, -187500.02235174447, -186415.58276600632, -154931.54137510556, -0.1, 0.78, 0.612, 192.0, 0.0, 0.0, 0.0, 0.0, 0.0, 0.0, 0.0, 0.0, 0.0, 1.739535239049272E9, 0.0, 2025-02-14 09:13:59.049
161.0, -187500.02235174447, -67559.198148155, -187500.02235174447, -170724.90402756978, -187500.02235174447, -187500.02235174447, -186379.26118126645, -155094.88792358493, -0.1, 0.78, 0.612, 192.0, 0.0, 0.0, 0.0, 0.0, 0.0, 0.0, 0.0, 0.0, 0.0, 1.7395352390492818E9, 0.0, 2025-02-14 09:13:59.049
162.0, -187500.02235174447, -67380.63006170155, -187500.02235174447, -170931.43414633683, -187500.02235174447, -187500.02235174447, -186581.16448893124, -155120.19009830835, -0.1, 0.78, 0.612, 192.0, 0.0, 0.0, 0.0, 0.0, 0.0, 0.0, 0.0, 0.0, 0.0, 1.7395352390492916E9, 0.0, 2025-02-14 09:13:59.049
163.0, -187500.02235174447, -66811.97933101408, -187500.02235174447, -171511.05958355183, -187500.02235174447, -187500.02235174447, -187150.88810335257, -154860.1499033153, -0.1, 0.78, 0.612, 192.0, 0.0, 0.0, 0.0, 0.0, 0.0, 0.0, 0.0, 0.0, 0.0, 1.7395352390493062E9, 0.0, 2025-02-14 09:13:59.049
164.0, -187500.02235174447, -66365.99497389734, -187500.02235174447, -171897.320079484, -187500.02235174447, -187500.02235174447, -187500.02235174447, -154692.7129856006, -0.1, 0.78, 0.612, 192.0, 0.0, 0.0, 0.0, 0.0, 0.0, 0.0, 0.0, 0.0, 0.0, 1.7395352390493164E9, 0.0, 2025-02-14 09:13:59.049
165.0, -187500.02235174447, -66315.07770002815, -187500.02235174447, -171889.56402415803, -187500.02235174447, -187500.02235174447, -187500.02235174447, -154812.9430190257, -0.1, 0.78, 0.612, 192.0, 0.0, 0.0, 0.0, 0.0, 0.0, 0.0, 0.0, 0.0, 0.0, 1.739535239049326E9, 0.0, 2025-02-14 09:13:59.049
166.0, -187500.02235174447, -66174.88755880446, -187500.02235174447, -172035.87854336246, -187500.02235174447, -187500.02235174447, -187500.02235174447, -154870.9010923983, -0.1, 0.78, 0.612, 192.0, 0.0, 0.0, 0.0, 0.0, 0.0, 0.0, 0.0, 0.0, 0.0, 1.7395352390493357E9, 0.0, 2025-02-14 09:13:59.049
167.0, -187500.02235174447, -65610.01427292994, -187500.02235174447, -172589.4865500315, -187500.02235174447, -187500.02235174447, -187500.02235174447, -154621.27681032143, -0.11, 0.778, 0.602, 192.0, 252.0, 144.0, 24.0, 80.0, 18.0, 208.0, 0.0, 0.0, 0.0, 1.7395352390493453E9, 0.0, 2025-02-14 09:13:59.049
168.0, -187500.02235174447, -65068.52091175567, -187500.02235174447, -173049.97718929974, -187500.02235174447, -187500.02235174447, -187500.02235174447, -154387.5446185523, -0.11, 0.778, 0.602, 192.0, 0.0, 0.0, 0.0, 0.0, 0.0, 0.0, 0.0, 0.0, 0.0, 1.7395352390493555E9, 0.0, 2025-02-14 09:13:59.049
169.0, -187500.02235174447, -64944.91576491783, -187500.02235174447, -173097.54170150062, -187500.02235174447, -187500.02235174447, -187500.02235174447, -154458.9137385981, -0.11, 0.778, 0.602, 192.0, 0.0, 0.0, 0.0, 0.0, 0.0, 0.0, 0.0, 0.0, 0.0, 1.7395352390493655E9, 0.0, 2025-02-14 09:13:59.049
170.0, -187500.02235174447, -64848.467987593176, -187500.02235174447, -173185.98755431027, -187500.02235174447, -187500.02235174447, -187500.02235174447, -154550.55589086484, -0.11, 0.778, 0.602, 192.0, 0.0, 0.0, 0.0, 0.0, 0.0, 0.0, 0.0, 0.0, 0.0, 1.7395352390493753E9, 0.0, 2025-02-14 09:13:59.049
171.0, -187500.02235174447, -64330.86864124163, -187500.02235174447, -173707.72197338607, -187500.02235174447, -187500.02235174447, -187500.02235174447, -154337.70022841697, -0.11, 0.778, 0.602, 192.0, 0.0, 0.0, 0.0, 0.0, 0.0, 0.0, 0.0, 0.0, 0.0, 1.7395352390493848E9, 0.0, 2025-02-14 09:13:59.049
172.0, -187500.02235174447, -63736.58045966393, -187500.02235174447, -174240.2299332893, -187500.02235174447, -187500.02235174447, -187500.02235174447, -154071.28978625414, -0.11, 0.778, 0.602, 192.0, 0.0, 0.0, 0.0, 0.0, 0.0, 0.0, 0.0, 0.0, 0.0, 1.7395352390493948E9, 0.0, 2025-02-14 09:13:59.049
173.0, -187500.02235174447, -63567.24364367052, -187500.02235174447, -174326.8429430536, -187500.02235174447, -187500.02235174447, -187500.02235174447, -154114.98744666428, -0.11, 0.778, 0.602, 192.0, 0.0, 0.0, 0.0, 0.0, 0.0, 0.0, 0.0, 0.0, 0.0, 1.7395352390494044E9, 0.0, 2025-02-14 09:13:59.049
174.0, -187500.02235174447, -63546.00948643798, -187500.02235174447, -174333.41435592348, -187500.02235174447, -187500.02235174447, -187500.02235174447, -154269.7732770173, -0.11, 0.778, 0.602, 192.0, 0.0, 0.0, 0.0, 0.0, 0.0, 0.0, 0.0, 0.0, 0.0, 1.739535239049414E9, 0.0, 2025-02-14 09:13:59.049
175.0, -187500.02235174447, -63149.936574689935, -187500.02235174447, -174743.9488463341, -187500.02235174447, -187500.02235174447, -187500.02235174447, -154154.08064771662, -0.11, 0.778, 0.602, 192.0, 0.0, 0.0, 0.0, 0.0, 0.0, 0.0, 0.0, 0.0, 0.0, 1.7395352390494237E9, 0.0, 2025-02-14 09:13:59.049
176.0, -187500.02235174447, -62582.78341088098, -187500.02235174447, -175271.4723672238, -187500.02235174447, -187500.02235174447, -187500.02235174447, -153917.822708824, -0.11, 0.778, 0.602, 192.0, 0.0, 0.0, 0.0, 0.0, 0.0, 0.0, 0.0, 0.0, 0.0, 1.7395352390494335E9, 0.0, 2025-02-14 09:13:59.049
177.0, -187500.02235174447, -62398.44857435806, -187500.02235174447, -175383.2534412448, -187500.02235174447, -187500.02235174447, -187500.02235174447, -153960.98392736723, -0.11800000000000001, 0.784, 0.598, 192.0, 252.0, 80.0, 24.0, 128.0, 18.0, 176.0, 0.0, 0.0, 0.0, 1.7395352390494485E9, 0.0, 2025-02-14 09:13:59.049
178.0, -187500.02235174447, -62461.7934181444, -187500.02235174447, -175304.59765250655, -187500.02235174447, -187500.02235174447, -187500.02235174447, -154185.82012484316, -0.11800000000000001, 0.784, 0.598, 192.0, 0.0, 0.0, 0.0, 0.0, 0.0, 0.0, 0.0, 0.0, 0.0, 1.7395352390494637E9, 0.0, 2025-02-14 09:13:59.049
179.0, -187500.02235174447, -62204.0331010858, -187500.02235174447, -175595.88558624813, -187500.02235174447, -187500.02235174447, -187500.02235174447, -154181.2827207187, -0.11800000000000001, 0.784, 0.598, 192.0, 0.0, 0.0, 0.0, 0.0, 0.0, 0.0, 0.0, 0.0, 0.0, 1.7395352390494735E9, 0.0, 2025-02-14 09:13:59.049
180.0, -187500.02235174447, -61696.89437113934, -187500.02235174447, -176101.72791501618, -187500.02235174447, -187500.02235174447, -187500.02235174447, -153997.9090092074, -0.11800000000000001, 0.784, 0.598, 192.0, 0.0, 0.0, 0.0, 0.0, 0.0, 0.0, 0.0, 0.0, 0.0, 1.7395352390494835E9, 0.0, 2025-02-14 09:13:59.049
181.0, -187500.02235174447, -61520.40499692023, -187500.02235174447, -176219.18633212883, -187500.02235174447, -187500.02235174447, -187500.02235174447, -154056.5152831692, -0.11800000000000001, 0.784, 0.598, 192.0, 0.0, 0.0, 0.0, 0.0, 0.0, 0.0, 0.0, 0.0, 0.0, 1.7395352390494933E9, 0.0, 2025-02-14 09:13:59.049
182.0, -187500.02235174447, -61689.85357163592, -187500.02235174447, -176040.7523561421, -187500.02235174447, -187500.02235174447, -187500.02235174447, -154367.38334505362, -0.11800000000000001, 0.784, 0.598, 192.0, 0.0, 0.0, 0.0, 0.0, 0.0, 0.0, 0.0, 0.0, 0.0, 1.739535239049503E9, 0.0, 2025-02-14 09:13:59.049
183.0, -187500.02235174447, -61618.663265545765, -187500.02235174447, -176162.54701167907, -187500.02235174447, -187500.02235174447, -187500.02235174447, -154508.57931477777, -0.11800000000000001, 0.784, 0.598, 192.0, 0.0, 0.0, 0.0, 0.0, 0.0, 0.0, 0.0, 0.0, 0.0, 1.7395352390495129E9, 0.0, 2025-02-14 09:13:59.049
184.0, -187500.02235174447, -61221.8974497196, -187500.02235174447, -176583.94444989497, -187500.02235174447, -187500.02235174447, -187500.02235174447, -154414.0984909652, -0.11800000000000001, 0.784, 0.598, 192.0, 0.0, 0.0, 0.0, 0.0, 0.0, 0.0, 0.0, 0.0, 0.0, 1.7395352390495226E9, 0.0, 2025-02-14 09:13:59.049
185.0, -187500.02235174447, -61069.34679381213, -187500.02235174447, -176701.02288735186, -187500.02235174447, -187500.02235174447, -187500.02235174447, -154493.73775645945, -0.11800000000000001, 0.784, 0.598, 192.0, 0.0, 0.0, 0.0, 0.0, 0.0, 0.0, 0.0, 0.0, 0.0, 1.7395352390495324E9, 0.0, 2025-02-14 09:13:59.049
186.0, -187500.02235174447, -61314.43367176458, -187500.02235174447, -176456.83007917763, -187500.02235174447, -187500.02235174447, -187500.02235174447, -154864.48614173965, -0.11800000000000001, 0.784, 0.598, 192.0, 0.0, 0.0, 0.0, 0.0, 0.0, 0.0, 0.0, 0.0, 0.0, 1.739535239049542E9, 0.0, 2025-02-14 09:13:59.049
187.0, -187500.02235174447, -61414.3459694798, -187500.02235174447, -176436.60175044558, -187500.02235174447, -187500.02235174447, -187500.02235174447, -155132.39415078095, -0.122, 0.79, 0.594, 192.0, 252.0, 48.0, 24.0, 176.0, 18.0, 144.0, 0.0, 0.0, 0.0, 1.7395352390495515E9, 0.0, 2025-02-14 09:13:59.049
188.0, -187500.02235174447, -61135.507957399845, -187500.02235174447, -176782.226774958, -187500.02235174447, -187500.02235174447, -187500.02235174447, -155131.12010134698, -0.122, 0.79, 0.594, 192.0, 0.0, 0.0, 0.0, 0.0, 0.0, 0.0, 0.0, 0.0, 0.0, 1.73953523904957E9, 0.0, 2025-02-14 09:13:59.049
189.0, -187500.02235174447, -60996.72597607684, -187500.02235174447, -176923.0651167709, -187500.02235174447, -187500.02235174447, -187500.02235174447, -155228.10432053858, -0.122, 0.79, 0.594, 192.0, 0.0, 0.0, 0.0, 0.0, 0.0, 0.0, 0.0, 0.0, 0.0, 1.73953523904958E9, 0.0, 2025-02-14 09:13:59.049
190.0, -187500.02235174447, -61287.768040629395, -187500.02235174447, -176647.0434244923, -187500.02235174447, -187500.02235174447, -187500.02235174447, -155631.79917714588, -0.122, 0.79, 0.594, 192.0, 0.0, 0.0, 0.0, 0.0, 0.0, 0.0, 0.0, 0.0, 0.0, 1.7395352390495915E9, 0.0, 2025-02-14 09:13:59.049
191.0, -187500.02235174447, -61526.372912689796, -187500.02235174447, -176491.51998657227, -187500.02235174447, -187500.02235174447, -187500.02235174447, -155999.44066994675, -0.122, 0.79, 0.594, 192.0, 0.0, 0.0, 0.0, 0.0, 0.0, 0.0, 0.0, 0.0, 0.0, 1.7395352390496037E9, 0.0, 2025-02-14 09:13:59.049
192.0, -187500.02235174447, -61356.58906180729, -187500.02235174447, -176748.8779722307, -187500.02235174447, -187500.02235174447, -187500.02235174447, -156074.65429003886, -0.122, 0.79, 0.594, 192.0, 0.0, 0.0, 0.0, 0.0, 0.0, 0.0, 0.0, 0.0, 0.0, 1.739535239049616E9, 0.0, 2025-02-14 09:13:59.049
193.0, -187500.02235174447, -61210.2968943473, -187500.02235174447, -176917.6559946127, -187500.02235174447, -187500.02235174447, -187500.02235174447, -156165.71529694978, -0.122, 0.79, 0.594, 192.0, 0.0, 0.0, 0.0, 0.0, 0.0, 0.0, 0.0, 0.0, 0.0, 1.7395352390496347E9, 0.0, 2025-02-14 09:13:59.049
194.0, -187500.02235174447, -61502.70241531163, -187500.02235174447, -176648.67510183755, -187500.02235174447, -187500.02235174447, -187500.02235174447, -156567.30908957828, -0.122, 0.79, 0.594, 192.0, 0.0, 0.0, 0.0, 0.0, 0.0, 0.0, 0.0, 0.0, 0.0, 1.739535239049647E9, 0.0, 2025-02-14 09:13:59.049
195.0, -187500.02235174447, -61848.55095726859, -187500.02235174447, -176396.25685170374, -187500.02235174447, -187500.02235174447, -187500.02235174447, -157007.97373151468, -0.122, 0.79, 0.594, 192.0, 0.0, 0.0, 0.0, 0.0, 0.0, 0.0, 0.0, 0.0, 0.0, 1.7395352390496593E9, 0.0, 2025-02-14 09:13:59.049
196.0, -187500.02235174447, -61782.81447682554, -187500.02235174447, -176579.7199701929, -187500.02235174447, -187500.02235174447, -187500.02235174447, -157157.08221877602, -0.122, 0.79, 0.594, 192.0, 0.0, 0.0, 0.0, 0.0, 0.0, 0.0, 0.0, 0.0, 0.0, 1.7395352390496714E9, 0.0, 2025-02-14 09:13:59.049
197.0, -187500.02235174447, -61620.898439991295, -187500.02235174447, -176795.19078674208, -187500.02235174447, -187500.02235174447, -187500.02235174447, -157234.2180888913, -0.116, 0.798, 0.592, 192.0, 252.0, 96.0, 24.0, 240.0, 18.0, 128.0, 0.0, 0.0, 0.0, 1.739535239049684E9, 0.0, 2025-02-14 09:13:59.049
198.0, -187500.02235174447, -61867.84051273353, -187500.02235174447, -176577.30598179175, -187500.02235174447, -187500.02235174447, -187500.02235174447, -157600.56318051377, -0.116, 0.798, 0.592, 192.0, 0.0, 0.0, 0.0, 0.0, 0.0, 0.0, 0.0, 0.0, 0.0, 1.7395352390496964E9, 0.0, 2025-02-14 09:13:59.049
199.0, -187500.02235174447, -62269.5460640843, -187500.02235174447, -176265.0521117511, -187500.02235174447, -187500.02235174447, -187500.02235174447, -158076.47652345616, -0.116, 0.798, 0.592, 192.0, 0.0, 0.0, 0.0, 0.0, 0.0, 0.0, 0.0, 0.0, 0.0, 1.7395352390497098E9, 0.0, 2025-02-14 09:13:59.049
200.0, -187500.02235174447, -62283.001814246396, -187500.02235174447, -176370.28412464669, -187500.02235174447, -187500.02235174447, -187500.02235174447, -158278.60334856552, -0.116, 0.798, 0.592, 192.0, 0.0, 0.0, 0.0, 0.0, 0.0, 0.0, 0.0, 0.0, 0.0, 1.739535239049724E9, 0.0, 2025-02-14 09:13:59.049
201.0, -187500.02235174447, -62102.53382951425, -187500.02235174447, -176607.3467263397, -187500.02235174447, -187500.02235174447, -187500.02235174447, -158343.08813131906, -0.116, 0.798, 0.592, 192.0, 0.0, 0.0, 0.0, 0.0, 0.0, 0.0, 0.0, 0.0, 0.0, 1.7395352390497365E9, 0.0, 2025-02-14 09:13:59.049
202.0, -187500.02235174447, -62288.99208176042, -187500.02235174447, -176446.5929802171, -187500.02235174447, -187500.02235174447, -187500.02235174447, -158662.33809737422, -0.116, 0.798, 0.592, 192.0, 0.0, 0.0, 0.0, 0.0, 0.0, 0.0, 0.0, 0.0, 0.0, 1.7395352390497487E9, 0.0, 2025-02-14 09:13:59.049
203.0, -187500.02235174447, -62721.92302011526, -187500.02235174447, -176093.68128701227, -187500.02235174447, -187500.02235174447, -187500.02235174447, -159153.49533003513, -0.116, 0.798, 0.592, 192.0, 0.0, 0.0, 0.0, 0.0, 0.0, 0.0, 0.0, 0.0, 0.0, 1.7395352390497608E9, 0.0, 2025-02-14 09:13:59.049
204.0, -187500.02235174447, -62822.550573653054, -187500.02235174447, -176125.6219298389, -187500.02235174447, -187500.02235174447, -187500.02235174447, -159412.68615873888, -0.116, 0.798, 0.592, 192.0, 0.0, 0.0, 0.0, 0.0, 0.0, 0.0, 0.0, 0.0, 0.0, 1.7395352390497727E9, 0.0, 2025-02-14 09:13:59.049
205.0, -187500.02235174447, -62627.46454804714, -187500.02235174447, -176402.0906570066, -187500.02235174447, -187500.02235174447, -187500.02235174447, -159462.01645875175, -0.116, 0.798, 0.592, 192.0, 0.0, 0.0, 0.0, 0.0, 0.0, 0.0, 0.0, 0.0, 0.0, 1.739535239049785E9, 0.0, 2025-02-14 09:13:59.049
206.0, -187500.02235174447, -62720.358398003395, -187500.02235174447, -176336.130659119, -187500.02235174447, -187500.02235174447, -187500.02235174447, -159706.5445430928, -0.116, 0.798, 0.592, 192.0, 0.0, 0.0, 0.0, 0.0, 0.0, 0.0, 0.0, 0.0, 0.0, 1.7395352390497947E9, 0.0, 2025-02-14 09:13:59.049
207.0, -187500.02235174447, -63121.996894120806, -187500.02235174447, -176003.42494290174, -187500.02235174447, -187500.02235174447, -187500.02235174447, -160169.0021358731, -0.114, 0.8, 0.59, 192.0, 252.0, 112.0, 25.0, 0.0, 18.0, 112.0, 0.0, 0.0, 0.0, 1.7395352390498095E9, 0.0, 2025-02-14 09:13:59.049
208.0, -187500.02235174447, -63258.25312832036, -187500.02235174447, -175989.1868816837, -187500.02235174447, -187500.02235174447, -187500.02235174447, -160447.88485144198, -0.114, 0.8, 0.59, 192.0, 0.0, 0.0, 0.0, 0.0, 0.0, 0.0, 0.0, 0.0, 0.0, 1.7395352390498197E9, 0.0, 2025-02-14 09:13:59.049
209.0, -187500.02235174447, -63031.628791288, -187500.02235174447, -176293.55058593163, -187500.02235174447, -187500.02235174447, -187500.02235174447, -160468.51551157422, -0.114, 0.8, 0.59, 192.0, 0.0, 0.0, 0.0, 0.0, 0.0, 0.0, 0.0, 0.0, 0.0, 1.7395352390498292E9, 0.0, 2025-02-14 09:13:59.049
210.0, -187500.02235174447, -62997.85530541603, -187500.02235174447, -176337.6282259975, -187500.02235174447, -187500.02235174447, -187500.02235174447, -160622.20610644892, -0.114, 0.8, 0.59, 192.0, 0.0, 0.0, 0.0, 0.0, 0.0, 0.0, 0.0, 0.0, 0.0, 1.739535239049839E9, 0.0, 2025-02-14 09:13:59.049
211.0, -187500.02235174447, -63334.986667035424, -187500.02235174447, -176040.5958939309, -187500.02235174447, -187500.02235174447, -187500.02235174447, -161034.75225386053, -0.114, 0.8, 0.59, 192.0, 0.0, 0.0, 0.0, 0.0, 0.0, 0.0, 0.0, 0.0, 0.0, 1.7395352390498486E9, 0.0, 2025-02-14 09:13:59.049
212.0, -187500.02235174447, -63505.86575339625, -187500.02235174447, -175978.72626527862, -187500.02235174447, -187500.02235174447, -187500.02235174447, -161336.2325830737, -0.114, 0.8, 0.59, 192.0, 0.0, 0.0, 0.0, 0.0, 0.0, 0.0, 0.0, 0.0, 0.0, 1.739535239049858E9, 0.0, 2025-02-14 09:13:59.049
213.0, -187500.02235174447, -63272.67000349403, -187500.02235174447, -176293.14825453144, -187500.02235174447, -187500.02235174447, -187500.02235174447, -161351.4317693033, -0.114, 0.8, 0.59, 192.0, 0.0, 0.0, 0.0, 0.0, 0.0, 0.0, 0.0, 0.0, 0.0, 1.739535239049868E9, 0.0, 2025-02-14 09:13:59.049
214.0, -187500.02235174447, -63139.63242049604, -187500.02235174447, -176439.4404219914, -187500.02235174447, -187500.02235174447, -187500.02235174447, -161432.83682260953, -0.114, 0.8, 0.59, 192.0, 0.0, 0.0, 0.0, 0.0, 0.0, 0.0, 0.0, 0.0, 0.0, 1.7395352390498776E9, 0.0, 2025-02-14 09:13:59.049
215.0, -187500.02235174447, -63411.58609528376, -187500.02235174447, -176187.4468550023, -187500.02235174447, -187500.02235174447, -187500.02235174447, -161796.94673978648, -0.114, 0.8, 0.59, 192.0, 0.0, 0.0, 0.0, 0.0, 0.0, 0.0, 0.0, 0.0, 0.0, 1.7395352390498872E9, 0.0, 2025-02-14 09:13:59.049
216.0, -187500.02235174447, -63628.24155428905, -187500.02235174447, -176053.82812664844, -187500.02235174447, -187500.02235174447, -187500.02235174447, -162123.2151536006, -0.114, 0.8, 0.59, 192.0, 0.0, 0.0, 0.0, 0.0, 0.0, 0.0, 0.0, 0.0, 0.0, 1.7395352390498967E9, 0.0, 2025-02-14 09:13:59.049
217.0, -187500.02235174447, -63423.16429891161, -187500.02235174447, -176337.20354285283, -187500.02235174447, -187500.02235174447, -187500.02235174447, -162157.7709505285, -0.122, 0.788, 0.586, 192.0, 252.0, 48.0, 24.0, 160.0, 18.0, 80.0, 0.0, 0.0, 0.0, 1.7395352390499065E9, 0.0, 2025-02-14 09:13:59.049
218.0, -187500.02235174447, -63220.053997046234, -187500.02235174447, -176561.14567055056, -187500.02235174447, -187500.02235174447, -187500.02235174447, -162189.75629684405, -0.122, 0.788, 0.586, 192.0, 0.0, 0.0, 0.0, 0.0, 0.0, 0.0, 0.0, 0.0, 0.0, 1.7395352390499167E9, 0.0, 2025-02-14 09:13:59.049
219.0, -187500.02235174447, -63434.831909517285, -187500.02235174447, -176357.63303728498, -187500.02235174447, -187500.02235174447, -187500.02235174447, -162512.33667282303, -0.122, 0.788, 0.586, 192.0, 0.0, 0.0, 0.0, 0.0, 0.0, 0.0, 0.0, 0.0, 0.0, 1.7395352390499263E9, 0.0, 2025-02-14 09:13:59.049
220.0, -187500.02235174447, -63706.360901160355, -187500.02235174447, -176166.21269776975, -187500.02235174447, -187500.02235174447, -187500.02235174447, -162877.85474990067, -0.122, 0.788, 0.586, 192.0, 0.0, 0.0, 0.0, 0.0, 0.0, 0.0, 0.0, 0.0, 0.0, 1.7395352390499363E9, 0.0, 2025-02-14 09:13:59.049
221.0, -187500.02235174447, -63570.41759138317, -187500.02235174447, -176396.92740403741, -187500.02235174447, -187500.02235174447, -187500.02235174447, -162957.82929156176, -0.122, 0.788, 0.586, 192.0, 0.0, 0.0, 0.0, 0.0, 0.0, 0.0, 0.0, 0.0, 0.0, 1.739535239049946E9, 0.0, 2025-02-14 09:13:59.049
222.0, -187500.02235174447, -63326.761225075876, -187500.02235174447, -176669.2610584809, -187500.02235174447, -187500.02235174447, -187500.02235174447, -162960.5115008964, -0.122, 0.788, 0.586, 192.0, 0.0, 0.0, 0.0, 0.0, 0.0, 0.0, 0.0, 0.0, 0.0, 1.739535239049961E9, 0.0, 2025-02-14 09:13:59.049
223.0, -187500.02235174447, -63478.06018329385, -187500.02235174447, -176519.9067020305, -187500.02235174447, -187500.02235174447, -187500.02235174447, -163235.57206816343, -0.122, 0.788, 0.586, 192.0, 0.0, 0.0, 0.0, 0.0, 0.0, 0.0, 0.0, 0.0, 0.0, 1.7395352390499709E9, 0.0, 2025-02-14 09:13:59.049
224.0, -187500.02235174447, -63776.92535840576, -187500.02235174447, -176286.28626898365, -187500.02235174447, -187500.02235174447, -187500.02235174447, -163615.4623169258, -0.122, 0.788, 0.586, 192.0, 0.0, 0.0, 0.0, 0.0, 0.0, 0.0, 0.0, 0.0, 0.0, 1.7395352390499806E9, 0.0, 2025-02-14 09:13:59.049
225.0, -187500.02235174447, -63697.688424311695, -187500.02235174447, -176460.4510617794, -187500.02235174447, -187500.02235174447, -187500.02235174447, -163734.2841904502, -0.122, 0.788, 0.586, 192.0, 0.0, 0.0, 0.0, 0.0, 0.0, 0.0, 0.0, 0.0, 0.0, 1.7395352390499904E9, 0.0, 2025-02-14 09:13:59.049
226.0, -187500.02235174447, -63408.52390629338, -187500.02235174447, -176783.23260345848, -187500.02235174447, -187500.02235174447, -187500.02235174447, -163703.81876275764, -0.122, 0.788, 0.586, 192.0, 0.0, 0.0, 0.0, 0.0, 0.0, 0.0, 0.0, 0.0, 0.0, 1.7395352390500045E9, 0.0, 2025-02-14 09:13:59.050
227.0, -187500.02235174447, -63466.57138664382, -187500.02235174447, -176727.73322197597, -187500.02235174447, -187500.02235174447, -187500.02235174447, -163910.03595710231, -0.124, 0.784, 0.588, 192.0, 252.0, 32.0, 24.0, 128.0, 18.0, 96.0, 0.0, 0.0, 0.0, 1.7395352390500145E9, 0.0, 2025-02-14 09:13:59.050
228.0, -187500.02235174447, -63771.06920135846, -187500.02235174447, -176475.650248009, -187500.02235174447, -187500.02235174447, -187500.02235174447, -164289.1215430643, -0.124, 0.784, 0.588, 192.0, 0.0, 0.0, 0.0, 0.0, 0.0, 0.0, 0.0, 0.0, 0.0, 1.7395352390500247E9, 0.0, 2025-02-14 09:13:59.050
229.0, -187500.02235174447, -63746.817558624454, -187500.02235174447, -176593.30983082173, -187500.02235174447, -187500.02235174447, -187500.02235174447, -164444.89085017334, -0.124, 0.784, 0.588, 192.0, 0.0, 0.0, 0.0, 0.0, 0.0, 0.0, 0.0, 0.0, 0.0, 1.7395352390500343E9, 0.0, 2025-02-14 09:13:59.050
230.0, -187500.02235174447, -63428.394607114154, -187500.02235174447, -176956.83860264285, -187500.02235174447, -187500.02235174447, -187500.02235174447, -164391.26901522506, -0.124, 0.784, 0.588, 192.0, 0.0, 0.0, 0.0, 0.0, 0.0, 0.0, 0.0, 0.0, 0.0, 1.739535239050044E9, 0.0, 2025-02-14 09:13:59.050
231.0, -187500.02235174447, -63382.21590306949, -187500.02235174447, -176999.4186758302, -187500.02235174447, -187500.02235174447, -187500.02235174447, -164521.22205748822, -0.124, 0.784, 0.588, 192.0, 0.0, 0.0, 0.0, 0.0, 0.0, 0.0, 0.0, 0.0, 0.0, 1.7395352390500567E9, 0.0, 2025-02-14 09:13:59.050
232.0, -187500.02235174447, -63649.76628419951, -187500.02235174447, -176763.47366136, -187500.02235174447, -187500.02235174447, -187500.02235174447, -164869.84221575764, -0.124, 0.784, 0.588, 192.0, 0.0, 0.0, 0.0, 0.0, 0.0, 0.0, 0.0, 0.0, 0.0, 1.7395352390500667E9, 0.0, 2025-02-14 09:13:59.050
233.0, -187500.02235174447, -63673.280319366495, -187500.02235174447, -176819.91181610964, -187500.02235174447, -187500.02235174447, -187500.02235174447, -165055.0040668254, -0.124, 0.784, 0.588, 192.0, 0.0, 0.0, 0.0, 0.0, 0.0, 0.0, 0.0, 0.0, 0.0, 1.7395352390500765E9, 0.0, 2025-02-14 09:13:59.050
234.0, -187500.02235174447, -63334.53963214632, -187500.02235174447, -177211.80495164456, -187500.02235174447, -187500.02235174447, -187500.02235174447, -164987.188874148, -0.124, 0.784, 0.588, 192.0, 0.0, 0.0, 0.0, 0.0, 0.0, 0.0, 0.0, 0.0, 0.0, 1.739535239050086E9, 0.0, 2025-02-14 09:13:59.050
235.0, -187500.02235174447, -63178.92678724847, -187500.02235174447, -177359.23705807174, -187500.02235174447, -187500.02235174447, -187500.02235174447, -165040.31897071828, -0.124, 0.784, 0.588, 192.0, 0.0, 0.0, 0.0, 0.0, 0.0, 0.0, 0.0, 0.0, 0.0, 1.7395352390500956E9, 0.0, 2025-02-14 09:13:59.050
236.0, -187500.02235174447, -63380.40541176861, -187500.02235174447, -177163.48048013216, -187500.02235174447, -187500.02235174447, -187500.02235174447, -165344.9732476441, -0.124, 0.784, 0.588, 192.0, 0.0, 0.0, 0.0, 0.0, 0.0, 0.0, 0.0, 0.0, 0.0, 1.739535239050105E9, 0.0, 2025-02-14 09:13:59.050
237.0, -187500.02235174447, -63416.369368597196, -187500.02235174447, -177196.85163460395, -187500.02235174447, -187500.02235174447, -187500.02235174447, -165539.79105231658, -0.128, 0.786, 0.588, 192.0, 252.0, 0.0, 24.0, 144.0, 18.0, 96.0, 0.0, 0.0, 0.0, 1.739535239050158E9, 0.0, 2025-02-14 09:13:59.050
238.0, -187500.02235174447, -63042.44703560437, -187500.02235174447, -177616.63974721907, -187500.02235174447, -187500.02235174447, -187500.02235174447, -165451.41225474028, -0.128, 0.786, 0.588, 192.0, 0.0, 0.0, 0.0, 0.0, 0.0, 0.0, 0.0, 0.0, 0.0, 1.7395352390501685E9, 0.0, 2025-02-14 09:13:59.050
239.0, -187500.02235174447, -62761.463256056704, -187500.02235174447, -177876.25525906746, -187500.02235174447, -187500.02235174447, -187500.02235174447, -165420.90212355877, -0.128, 0.786, 0.588, 192.0, 0.0, 0.0, 0.0, 0.0, 0.0, 0.0, 0.0, 0.0, 0.0, 1.7395352390501783E9, 0.0, 2025-02-14 09:13:59.050
240.0, -187500.02235174447, -62898.12182165645, -187500.02235174447, -177717.87079785715, -187500.02235174447, -187500.02235174447, -187500.02235174447, -165678.4165714284, -0.128, 0.786, 0.588, 192.0, 0.0, 0.0, 0.0, 0.0, 0.0, 0.0, 0.0, 0.0, 0.0, 1.7395352395279744E9, 0.0, 2025-02-14 09:13:59.527
241.0, -187500.02235174447, -62998.101174605035, -187500.02235174447, -177672.40734963506, -187500.02235174447, -187500.02235174447, -187500.02235174447, -165918.96604525638, -0.128, 0.786, 0.588, 192.0, 0.0, 0.0, 0.0, 0.0, 0.0, 0.0, 0.0, 0.0, 0.0, 1.739535239528024E9, 0.0, 2025-02-14 09:13:59.528
242.0, -187500.02235174447, -62695.27974072454, -187500.02235174447, -178018.47940903658, -187500.02235174447, -187500.02235174447, -187500.02235174447, -165877.7047249919, -0.128, 0.786, 0.588, 192.0, 0.0, 0.0, 0.0, 0.0, 0.0, 0.0, 0.0, 0.0, 0.0, 1.7395352395280583E9, 0.0, 2025-02-14 09:13:59.528
243.0, -187500.02235174447, -62385.64102478517, -187500.02235174447, -178317.70221205978, -187500.02235174447, -187500.02235174447, -187500.02235174447, -165828.35207323456, -0.128, 0.786, 0.588, 192.0, 0.0, 0.0, 0.0, 0.0, 0.0, 0.0, 0.0, 0.0, 0.0, 1.7395352395280836E9, 0.0, 2025-02-14 09:13:59.528
244.0, -187500.02235174447, -62490.69422372511, -187500.02235174447, -178195.818149545, -187500.02235174447, -187500.02235174447, -187500.02235174447, -166065.3476196942, -0.128, 0.786, 0.588, 192.0, 0.0, 0.0, 0.0, 0.0, 0.0, 0.0, 0.0, 0.0, 0.0, 1.7395352395281088E9, 0.0, 2025-02-14 09:13:59.528
245.0, -187500.02235174447, -62659.472246107136, -187500.02235174447, -178070.42486315072, -187500.02235174447, -187500.02235174447, -187500.02235174447, -166351.2711347665, -0.128, 0.786, 0.588, 192.0, 0.0, 0.0, 0.0, 0.0, 0.0, 0.0, 0.0, 0.0, 0.0, 1.7395352395281215E9, 0.0, 2025-02-14 09:13:59.528
246.0, -187500.02235174447, -62427.32702819432, -187500.02235174447, -178364.77498588266, -187500.02235174447, -187500.02235174447, -187500.02235174447, -166361.93291687168, -0.128, 0.786, 0.588, 192.0, 0.0, 0.0, 0.0, 0.0, 0.0, 0.0, 0.0, 0.0, 0.0, 1.739535239528134E9, 0.0, 2025-02-14 09:13:59.528
247.0, -187500.02235174447, -62087.66991945147, -187500.02235174447, -178705.59438533717, -187500.02235174447, -187500.02235174447, -187500.02235174447, -166292.7542677825, -0.116, 0.782, 0.59, 192.0, 252.0, 96.0, 24.0, 112.0, 18.0, 112.0, 0.0, 0.0, 0.0, 1.7395352395281465E9, 0.0, 2025-02-14 09:13:59.528
248.0, -187500.02235174447, -62139.01187646531, -187500.02235174447, -178632.48182922386, -187500.02235174447, -187500.02235174447, -187500.02235174447, -166493.71880218017, -0.116, 0.782, 0.59, 192.0, 0.0, 0.0, 0.0, 0.0, 0.0, 0.0, 0.0, 0.0, 0.0, 1.7395352395281599E9, 0.0, 2025-02-14 09:13:59.528
249.0, -187500.02235174447, -62366.10560013123, -187500.02235174447, -178438.7592600297, -187500.02235174447, -187500.02235174447, -187500.02235174447, -166820.9706927503, -0.116, 0.782, 0.59, 192.0, 0.0, 0.0, 0.0, 0.0, 0.0, 0.0, 0.0, 0.0, 0.0, 1.7395352395281723E9, 0.0, 2025-02-14 09:13:59.528
250.0, -187500.02235174447, -62241.87460444863, -187500.02235174447, -178629.44199197795, -187500.02235174447, -187500.02235174447, -187500.02235174447, -166908.00838565928, -0.116, 0.782, 0.59, 192.0, 0.0, 0.0, 0.0, 0.0, 0.0, 0.0, 0.0, 0.0, 0.0, 1.7395352395281956E9, 0.0, 2025-02-14 09:13:59.528
251.0, -187500.02235174447, -61939.29903975714, -187500.02235174447, -178949.1389929222, -187500.02235174447, -187500.02235174447, -187500.02235174447, -166878.81700740065, -0.116, 0.782, 0.59, 192.0, 0.0, 0.0, 0.0, 0.0, 0.0, 0.0, 0.0, 0.0, 0.0, 1.7395352395283003E9, 0.0, 2025-02-14 09:13:59.528
252.0, -187500.02235174447, -62017.0384069727, -187500.02235174447, -178859.64260812316, -187500.02235174447, -187500.02235174447, -187500.02235174447, -167116.86308584968, -0.116, 0.782, 0.59, 192.0, 0.0, 0.0, 0.0, 0.0, 0.0, 0.0, 0.0, 0.0, 0.0, 1.7395352395283127E9, 0.0, 2025-02-14 09:13:59.528
253.0, -187500.02235174447, -62364.76449546391, -187500.02235174447, -178549.22158112784, -187500.02235174447, -187500.02235174447, -187500.02235174447, -167548.050588137, -0.116, 0.782, 0.59, 192.0, 0.0, 0.0, 0.0, 0.0, 0.0, 0.0, 0.0, 0.0, 0.0, 1.7395352395283244E9, 0.0, 2025-02-14 09:13:59.528
254.0, -187500.02235174447, -62429.249278217474, -187500.02235174447, -178564.21960165736, -187500.02235174447, -187500.02235174447, -187500.02235174447, -167784.06265784058, -0.116, 0.782, 0.59, 192.0, 0.0, 0.0, 0.0, 0.0, 0.0, 0.0, 0.0, 0.0, 0.0, 1.739535239528336E9, 0.0, 2025-02-14 09:13:59.528
255.0, -187500.02235174447, -62229.089406620194, -187500.02235174447, -178814.78265700134, -187500.02235174447, -187500.02235174447, -187500.02235174447, -167829.72727176276, -0.116, 0.782, 0.59, 192.0, 0.0, 0.0, 0.0, 0.0, 0.0, 0.0, 0.0, 0.0, 0.0, 1.7395352395283477E9, 0.0, 2025-02-14 09:13:59.528
0.0, -187500.02235174447, -62324.62076242218, -187500.02235174447, -178731.56711239423, -187500.02235174447, -187500.02235174447, -187500.02235174447, -168075.8199782157, -0.116, 0.782, 0.59, 192.0, 0.0, 0.0, 0.0, 0.0, 0.0, 0.0, 0.0, 0.0, 0.0, 1.7395352395283592E9, 0.0, 2025-02-14 09:13:59.528
1.0, -187500.02235174447, -62767.18530263726, -187500.02235174447, -178350.91690432036, -187500.02235174447, -187500.02235174447, -187500.02235174447, -168562.8868416413, -0.114, 0.794, 0.59, 192.0, 252.0, 112.0, 24.0, 208.0, 18.0, 112.0, 0.0, 0.0, 0.0, 1.7395352395283706E9, 0.0, 2025-02-14 09:13:59.528
2.0, -187500.02235174447, -62987.28293028867, -187500.02235174447, -178255.05027235154, -187500.02235174447, -187500.02235174447, -187500.02235174447, -168901.44871490583, -0.114, 0.794, 0.59, 192.0, 0.0, 0.0, 0.0, 0.0, 0.0, 0.0, 0.0, 0.0, 0.0, 1.7395352395283833E9, 0.0, 2025-02-14 09:13:59.528
3.0, -187500.02235174447, -62858.60393745947, -187500.02235174447, -178472.95742904634, -187500.02235174447, -187500.02235174447, -187500.02235174447, -168992.35325960556, -0.114, 0.794, 0.59, 192.0, 0.0, 0.0, 0.0, 0.0, 0.0, 0.0, 0.0, 0.0, 0.0, 1.7395352395283947E9, 0.0, 2025-02-14 09:13:59.528
4.0, -187500.02235174447, -62907.218981649756, -187500.02235174447, -178461.55803937413, -187500.02235174447, -187500.02235174447, -187500.02235174447, -169198.95043360596, -0.114, 0.794, 0.59, 192.0, 0.0, 0.0, 0.0, 0.0, 0.0, 0.0, 0.0, 0.0, 0.0, 1.7395352395284064E9, 0.0, 2025-02-14 09:13:59.528
5.0, -187500.02235174447, -63313.97602724744, -187500.02235174447, -178123.13027657632, -187500.02235174447, -187500.02235174447, -187500.02235174447, -169654.41193037177, -0.114, 0.794, 0.59, 192.0, 0.0, 0.0, 0.0, 0.0, 0.0, 0.0, 0.0, 0.0, 0.0, 1.7395352395284178E9, 0.0, 2025-02-14 09:13:59.528
6.0, -187500.02235174447, -63553.83259699734, -187500.02235174447, -177991.09852207883, -187500.02235174447, -187500.02235174447, -187500.02235174447, -170000.01460313972, -0.114, 0.794, 0.59, 192.0, 0.0, 0.0, 0.0, 0.0, 0.0, 0.0, 0.0, 0.0, 0.0, 1.739535239528436E9, 0.0, 2025-02-14 09:13:59.528
7.0, -187500.02235174447, -63357.49487370192, -187500.02235174447, -178261.5769817325, -187500.02235174447, -187500.02235174447, -187500.02235174447, -170043.15346993846, -0.114, 0.794, 0.59, 192.0, 0.0, 0.0, 0.0, 0.0, 0.0, 0.0, 0.0, 0.0, 0.0, 1.7395352395284476E9, 0.0, 2025-02-14 09:13:59.528
8.0, -187500.02235174447, -63205.257142216826, -187500.02235174447, -178405.43280904685, -187500.02235174447, -187500.02235174447, -187500.02235174447, -170109.2028748039, -0.114, 0.794, 0.59, 192.0, 0.0, 0.0, 0.0, 0.0, 0.0, 0.0, 0.0, 0.0, 0.0, 1.7395352395284593E9, 0.0, 2025-02-14 09:13:59.528
9.0, -187500.02235174447, -63418.38102559817, -187500.02235174447, -178184.7093325507, -187500.02235174447, -187500.02235174447, -187500.02235174447, -170430.84447751575, -0.114, 0.794, 0.59, 192.0, 0.0, 0.0, 0.0, 0.0, 0.0, 0.0, 0.0, 0.0, 0.0, 1.7395352395284705E9, 0.0, 2025-02-14 09:13:59.528
10.0, -187500.02235174447, -63573.21155944009, -187500.02235174447, -178074.78345331948, -187500.02235174447, -187500.02235174447, -187500.02235174447, -170717.39384143281, -0.114, 0.794, 0.59, 192.0, 0.0, 0.0, 0.0, 0.0, 0.0, 0.0, 0.0, 0.0, 0.0, 1.7395352395284905E9, 0.0, 2025-02-14 09:13:59.528
11.0, -187500.02235174447, -63298.97800671792, -187500.02235174447, -178394.27928856364, -187500.02235174447, -187500.02235174447, -187500.02235174447, -170705.7932860605, -0.116, 0.8, 0.588, 192.0, 252.0, 96.0, 25.0, 0.0, 18.0, 96.0, 0.0, 0.0, 0.0, 1.7395352395285025E9, 0.0, 2025-02-14 09:13:59.528
12.0, -187500.02235174447, -62994.83781991456, -187500.02235174447, -178676.93944894546, -187500.02235174447, -187500.02235174447, -187500.02235174447, -170667.34828559737, -0.116, 0.8, 0.588, 192.0, 0.0, 0.0, 0.0, 0.0, 0.0, 0.0, 0.0, 0.0, 0.0, 1.7395352395285149E9, 0.0, 2025-02-14 09:13:59.528
13.0, -187500.02235174447, -63084.71418436935, -187500.02235174447, -178554.56364805266, -187500.02235174447, -187500.02235174447, -187500.02235174447, -170901.92984365582, -0.116, 0.8, 0.588, 192.0, 0.0, 0.0, 0.0, 0.0, 0.0, 0.0, 0.0, 0.0, 0.0, 1.7395352395285277E9, 0.0, 2025-02-14 09:13:59.528
14.0, -187500.02235174447, -63228.77117738381, -187500.02235174447, -178434.2665593942, -187500.02235174447, -187500.02235174447, -187500.02235174447, -171183.5618237927, -0.116, 0.8, 0.588, 192.0, 0.0, 0.0, 0.0, 0.0, 0.0, 0.0, 0.0, 0.0, 0.0, 1.73953523952854E9, 0.0, 2025-02-14 09:13:59.528
15.0, -187500.02235174447, -62965.02059281118, -187500.02235174447, -178718.1337139766, -187500.02235174447, -187500.02235174447, -187500.02235174447, -171183.2041958814, -0.116, 0.8, 0.588, 192.0, 0.0, 0.0, 0.0, 0.0, 0.0, 0.0, 0.0, 0.0, 0.0, 1.739535239528552E9, 0.0, 2025-02-14 09:13:59.528
16.0, -187500.02235174447, -62562.57743389338, -187500.02235174447, -179077.8626892403, -187500.02235174447, -187500.02235174447, -187500.02235174447, -171080.00619173126, -0.116, 0.8, 0.588, 192.0, 0.0, 0.0, 0.0, 0.0, 0.0, 0.0, 0.0, 0.0, 0.0, 1.739535239528564E9, 0.0, 2025-02-14 09:13:59.528
17.0, -187500.02235174447, -62534.90597425771, -187500.02235174447, -179044.89386616874, -187500.02235174447, -187500.02235174447, -187500.02235174447, -171234.88142906208, -0.116, 0.8, 0.588, 192.0, 0.0, 0.0, 0.0, 0.0, 0.0, 0.0, 0.0, 0.0, 0.0, 1.7395352395285764E9, 0.0, 2025-02-14 09:13:59.528
18.0, -187500.02235174447, -62676.861903293364, -187500.02235174447, -178902.84853015526, -187500.02235174447, -187500.02235174447, -187500.02235174447, -171513.89825509768, -0.116, 0.8, 0.588, 192.0, 0.0, 0.0, 0.0, 0.0, 0.0, 0.0, 0.0, 0.0, 0.0, 1.7395352395285883E9, 0.0, 2025-02-14 09:13:59.528
19.0, -187500.02235174447, -62462.106342566774, -187500.02235174447, -179131.8198003554, -187500.02235174447, -187500.02235174447, -187500.02235174447, -171548.94579040358, -0.116, 0.8, 0.588, 192.0, 0.0, 0.0, 0.0, 0.0, 0.0, 0.0, 0.0, 0.0, 0.0, 1.739535239528608E9, 0.0, 2025-02-14 09:13:59.528
20.0, -187500.02235174447, -62037.31143919366, -187500.02235174447, -179536.2299127853, -187500.02235174447, -187500.02235174447, -187500.02235174447, -171433.2531611029, -0.116, 0.8, 0.588, 192.0, 0.0, 0.0, 0.0, 0.0, 0.0, 0.0, 0.0, 0.0, 0.0, 1.7395352395286205E9, 0.0, 2025-02-14 09:13:59.528
21.0, -187500.02235174447, -61950.4749119848, -187500.02235174447, -179561.0403491307, -187500.02235174447, -187500.02235174447, -187500.02235174447, -171551.11390961576, -0.114, 0.794, 0.588, 192.0, 252.0, 112.0, 24.0, 208.0, 18.0, 96.0, 0.0, 0.0, 0.0, 1.7395352395286324E9, 0.0, 2025-02-14 09:13:59.528
22.0, -187500.02235174447, -62143.63868756756, -187500.02235174447, -179355.02432048612, -187500.02235174447, -187500.02235174447, -187500.02235174447, -171868.75455007012, -0.114, 0.794, 0.588, 192.0, 0.0, 0.0, 0.0, 0.0, 0.0, 0.0, 0.0, 0.0, 0.0, 1.739535239528645E9, 0.0, 2025-02-14 09:13:59.528
23.0, -187500.02235174447, -62067.73216339733, -187500.02235174447, -179464.9054962284, -187500.02235174447, -187500.02235174447, -187500.02235174447, -172002.08270574603, -0.114, 0.794, 0.588, 192.0, 0.0, 0.0, 0.0, 0.0, 0.0, 0.0, 0.0, 0.0, 0.0, 1.739535239528657E9, 0.0, 2025-02-14 09:13:59.528
24.0, -187500.02235174447, -61725.057569153025, -187500.02235174447, -179810.932852141, -187500.02235174447, -187500.02235174447, -187500.02235174447, -171944.25874284015, -0.114, 0.794, 0.588, 192.0, 0.0, 0.0, 0.0, 0.0, 0.0, 0.0, 0.0, 0.0, 0.0, 1.739535239528669E9, 0.0, 2025-02-14 09:13:59.528
25.0, -187500.02235174447, -61670.943995826725, -187500.02235174447, -179833.53046578533, -187500.02235174447, -187500.02235174447, -187500.02235174447, -172082.8172067186, -0.114, 0.794, 0.588, 192.0, 0.0, 0.0, 0.0, 0.0, 0.0, 0.0, 0.0, 0.0, 0.0, 1.7395352395286884E9, 0.0, 2025-02-14 09:13:59.528
26.0, -187500.02235174447, -61969.78681919418, -187500.02235174447, -179550.71384319232, -187500.02235174447, -187500.02235174447, -187500.02235174447, -172473.4139410751, -0.114, 0.794, 0.588, 192.0, 0.0, 0.0, 0.0, 0.0, 0.0, 0.0, 0.0, 0.0, 0.0, 1.7395352395287008E9, 0.0, 2025-02-14 09:13:59.528
27.0, -187500.02235174447, -62086.86525665108, -187500.02235174447, -179507.88790081596, -187500.02235174447, -187500.02235174447, -187500.02235174447, -172740.4278803382, -0.114, 0.794, 0.588, 192.0, 0.0, 0.0, 0.0, 0.0, 0.0, 0.0, 0.0, 0.0, 0.0, 1.7395352395287127E9, 0.0, 2025-02-14 09:13:59.528
28.0, -187500.02235174447, -61885.96777748678, -187500.02235174447, -179752.55009562377, -187500.02235174447, -187500.02235174447, -187500.02235174447, -172778.89523254576, -0.114, 0.794, 0.588, 192.0, 0.0, 0.0, 0.0, 0.0, 0.0, 0.0, 0.0, 0.0, 0.0, 1.739535239528725E9, 0.0, 2025-02-14 09:13:59.528
29.0, -187500.02235174447, -61895.73548981375, -187500.02235174447, -179754.09236599118, -187500.02235174447, -187500.02235174447, -187500.02235174447, -172956.2786765431, -0.114, 0.794, 0.588, 192.0, 0.0, 0.0, 0.0, 0.0, 0.0, 0.0, 0.0, 0.0, 0.0, 1.739535239528737E9, 0.0, 2025-02-14 09:13:59.528
30.0, -187500.02235174447, -62316.484727440446, -187500.02235174447, -179372.32457069453, -187500.02235174447, -187500.02235174447, -187500.02235174447, -173423.20661821446, -0.114, 0.794, 0.588, 192.0, 0.0, 0.0, 0.0, 0.0, 0.0, 0.0, 0.0, 0.0, 0.0, 1.739535239528749E9, 0.0, 2025-02-14 09:13:59.528
31.0, -187500.02235174447, -62644.00483894406, -187500.02235174447, -179167.15790833926, -187500.02235174447, -187500.02235174447, -187500.02235174447, -173829.6730911342, -0.114, 0.792, 0.592, 192.0, 252.0, 112.0, 24.0, 192.0, 18.0, 128.0, 0.0, 0.0, 0.0, 1.739535239528761E9, 0.0, 2025-02-14 09:13:59.528
32.0, -187500.02235174447, -62603.68229194669, -187500.02235174447, -179310.58905250896, -187500.02235174447, -187500.02235174447, -187500.02235174447, -173972.7019039037, -0.114, 0.792, 0.592, 192.0, 0.0, 0.0, 0.0, 0.0, 0.0, 0.0, 0.0, 0.0, 0.0, 1.7395352395287735E9, 0.0, 2025-02-14 09:13:59.528
33.0, -187500.02235174447, -62637.67929526321, -187500.02235174447, -179318.83684621297, -187500.02235174447, -187500.02235174447, -187500.02235174447, -174161.28357187315, -0.114, 0.792, 0.592, 192.0, 0.0, 0.0, 0.0, 0.0, 0.0, 0.0, 0.0, 0.0, 0.0, 1.739535239528786E9, 0.0, 2025-02-14 09:13:59.528
34.0, -187500.02235174447, -63067.48098939431, -187500.02235174447, -178955.50924009195, -187500.02235174447, -187500.02235174447, -187500.02235174447, -174627.22803678847, -0.114, 0.792, 0.592, 192.0, 0.0, 0.0, 0.0, 0.0, 0.0, 0.0, 0.0, 0.0, 0.0, 1.739535239528798E9, 0.0, 2025-02-14 09:13:59.528
35.0, -187500.02235174447, -63468.42658143361, -187500.02235174447, -178680.26985886932, -187500.02235174447, -187500.02235174447, -187500.02235174447, -175079.20266141926, -0.114, 0.792, 0.592, 192.0, 0.0, 0.0, 0.0, 0.0, 0.0, 0.0, 0.0, 0.0, 0.0, 1.73953523952881E9, 0.0, 2025-02-14 09:13:59.528
36.0, -187500.02235174447, -63461.229319719, -187500.02235174447, -178802.82447371774, -187500.02235174447, -187500.02235174447, -187500.02235174447, -175241.74454709823, -0.114, 0.792, 0.592, 192.0, 0.0, 0.0, 0.0, 0.0, 0.0, 0.0, 0.0, 0.0, 0.0, 1.739535239528822E9, 0.0, 2025-02-14 09:13:59.528
37.0, -187500.02235174447, -63419.14098490966, -187500.02235174447, -178904.61431796724, -187500.02235174447, -187500.02235174447, -187500.02235174447, -175371.36231319455, -0.114, 0.792, 0.592, 192.0, 0.0, 0.0, 0.0, 0.0, 0.0, 0.0, 0.0, 0.0, 0.0, 1.739535239528834E9, 0.0, 2025-02-14 09:13:59.528
38.0, -187500.02235174447, -63767.805846667994, -187500.02235174447, -178609.48188417935, -187500.02235174447, -187500.02235174447, -187500.02235174447, -175776.1971087691, -0.114, 0.792, 0.592, 192.0, 0.0, 0.0, 0.0, 0.0, 0.0, 0.0, 0.0, 0.0, 0.0, 1.739535239528846E9, 0.0, 2025-02-14 09:13:59.528
39.0, -187500.02235174447, -64188.15275289449, -187500.02235174447, -178301.4748455852, -187500.02235174447, -187500.02235174447, -187500.02235174447, -176235.65956779238, -0.114, 0.792, 0.592, 192.0, 0.0, 0.0, 0.0, 0.0, 0.0, 0.0, 0.0, 0.0, 0.0, 1.739535239528858E9, 0.0, 2025-02-14 09:13:59.528
40.0, -187500.02235174447, -64200.22269490036, -187500.02235174447, -178407.08683813654, -187500.02235174447, -187500.02235174447, -187500.02235174447, -176409.2432152323, -0.114, 0.792, 0.592, 192.0, 0.0, 0.0, 0.0, 0.0, 0.0, 0.0, 0.0, 0.0, 0.0, 1.7395352395288768E9, 0.0, 2025-02-14 09:13:59.528
41.0, -187500.02235174447, -64068.03447819168, -187500.02235174447, -178587.5101193798, -187500.02235174447, -187500.02235174447, -187500.02235174447, -176475.27026835326, -0.1, 0.77, 0.58, 192.0, 252.0, 224.0, 24.0, 16.0, 18.0, 32.0, 0.0, 0.0, 0.0, 1.7395352395288887E9, 0.0, 2025-02-14 09:13:59.528
42.0, -187500.02235174447, -64299.79971644875, -187500.02235174447, -178379.48243373423, -187500.02235174447, -187500.02235174447, -187500.02235174447, -176794.00614428596, -0.1, 0.77, 0.58, 192.0, 0.0, 0.0, 0.0, 0.0, 0.0, 0.0, 0.0, 0.0, 0.0, 1.739535239528902E9, 0.0, 2025-02-14 09:13:59.528
43.0, -187500.02235174447, -64702.44404106666, -187500.02235174447, -178062.62410433582, -187500.02235174447, -187500.02235174447, -187500.02235174447, -177237.15182985686, -0.1, 0.77, 0.58, 192.0, 0.0, 0.0, 0.0, 0.0, 0.0, 0.0, 0.0, 0.0, 0.0, 1.739535239528914E9, 0.0, 2025-02-14 09:13:59.528
44.0, -187500.02235174447, -64745.67231484322, -187500.02235174447, -178130.97573888014, -187500.02235174447, -187500.02235174447, -187500.02235174447, -177429.80151531714, -0.1, 0.77, 0.58, 192.0, 0.0, 0.0, 0.0, 0.0, 0.0, 0.0, 0.0, 0.0, 0.0, 1.739535239528926E9, 0.0, 2025-02-14 09:13:59.528
45.0, -187500.02235174447, -64549.20048108107, -187500.02235174447, -178382.43286400233, -187500.02235174447, -187500.02235174447, -187500.02235174447, -177449.64986439346, -0.1, 0.77, 0.58, 192.0, 0.0, 0.0, 0.0, 0.0, 0.0, 0.0, 0.0, 0.0, 0.0, 1.739535239528938E9, 0.0, 2025-02-14 09:13:59.528
46.0, -187500.02235174447, -64668.156465072214, -187500.02235174447, -178275.52447027262, -187500.02235174447, -187500.02235174447, -187500.02235174447, -177685.4384166525, -0.1, 0.77, 0.58, 192.0, 0.0, 0.0, 0.0, 0.0, 0.0, 0.0, 0.0, 0.0, 0.0, 1.73953523952895E9, 0.0, 2025-02-14 09:13:59.528
47.0, -187500.02235174447, -65044.693952166315, -187500.02235174447, -177958.37556819626, -187500.02235174447, -187500.02235174447, -187500.02235174447, -178103.527796689, -0.1, 0.77, 0.58, 192.0, 0.0, 0.0, 0.0, 0.0, 0.0, 0.0, 0.0, 0.0, 0.0, 1.7395352395289624E9, 0.0, 2025-02-14 09:13:59.528
48.0, -187500.02235174447, -65125.62961883898, -187500.02235174447, -177975.25113526, -187500.02235174447, -187500.02235174447, -187500.02235174447, -178317.07636321502, -0.1, 0.77, 0.58, 192.0, 0.0, 0.0, 0.0, 0.0, 0.0, 0.0, 0.0, 0.0, 0.0, 1.7395352395289743E9, 0.0, 2025-02-14 09:13:59.528
49.0, -187500.02235174447, -64901.57573241898, -187500.02235174447, -178254.7373479292, -187500.02235174447, -187500.02235174447, -187500.02235174447, -178309.65558405587, -0.1, 0.77, 0.58, 192.0, 0.0, 0.0, 0.0, 0.0, 0.0, 0.0, 0.0, 0.0, 0.0, 1.7395352395289867E9, 0.0, 2025-02-14 09:13:59.528
50.0, -187500.02235174447, -64921.89346812886, -187500.02235174447, -178248.30004552603, -187500.02235174447, -187500.02235174447, -187500.02235174447, -178471.21399297882, -0.1, 0.77, 0.58, 192.0, 0.0, 0.0, 0.0, 0.0, 0.0, 0.0, 0.0, 0.0, 0.0, 1.739535239528999E9, 0.0, 2025-02-14 09:13:59.528
51.0, -187500.02235174447, -65277.286204968244, -187500.02235174447, -177943.28814068894, -187500.02235174447, -187500.02235174447, -187500.02235174447, -178869.3656169612, -0.10200000000000001, 0.762, 0.5720000000000001, 192.0, 252.0, 208.0, 23.0, 208.0, 17.0, 224.0, 0.0, 0.0, 0.0, 1.739535239529011E9, 0.0, 2025-02-14 09:13:59.529
52.0, -187500.02235174447, -65421.41025321606, -187500.02235174447, -177902.987945436, -187500.02235174447, -187500.02235174447, -187500.02235174447, -179125.40484969676, -0.10200000000000001, 0.762, 0.5720000000000001, 192.0, 0.0, 0.0, 0.0, 0.0, 0.0, 0.0, 0.0, 0.0, 0.0, 1.7395352395290236E9, 0.0, 2025-02-14 09:13:59.529
53.0, -187500.02235174447, -65199.32332030813, -187500.02235174447, -178198.88033853535, -187500.02235174447, -187500.02235174447, -187500.02235174447, -179117.2241112261, -0.10200000000000001, 0.762, 0.5720000000000001, 192.0, 0.0, 0.0, 0.0, 0.0, 0.0, 0.0, 0.0, 0.0, 0.0, 1.739535239529036E9, 0.0, 2025-02-14 09:13:59.529
54.0, -187500.02235174447, -65131.70929333083, -187500.02235174447, -178279.72659823022, -187500.02235174447, -187500.02235174447, -187500.02235174447, -179209.0003739596, -0.10200000000000001, 0.762, 0.5720000000000001, 192.0, 0.0, 0.0, 0.0, 0.0, 0.0, 0.0, 0.0, 0.0, 0.0, 1.7395352395290477E9, 0.0, 2025-02-14 09:13:59.529
55.0, -187500.02235174447, -65435.827128389734, -187500.02235174447, -178004.50956875202, -187500.02235174447, -187500.02235174447, -187500.02235174447, -179567.00826490024, -0.10200000000000001, 0.762, 0.5720000000000001, 192.0, 0.0, 0.0, 0.0, 0.0, 0.0, 0.0, 0.0, 0.0, 0.0, 1.7395352395290675E9, 0.0, 2025-02-14 09:13:59.529
56.0, -187500.02235174447, -65621.97245621354, -187500.02235174447, -177912.26391938495, -187500.02235174447, -187500.02235174447, -187500.02235174447, -179846.1592014026, -0.10200000000000001, 0.762, 0.5720000000000001, 192.0, 0.0, 0.0, 0.0, 0.0, 0.0, 0.0, 0.0, 0.0, 0.0, 1.7395352395290797E9, 0.0, 2025-02-14 09:13:59.529
57.0, -187500.02235174447, -65404.02059602983, -187500.02235174447, -178209.69858285174, -187500.02235174447, -187500.02235174447, -187500.02235174447, -179840.37009958865, -0.10200000000000001, 0.762, 0.5720000000000001, 192.0, 0.0, 0.0, 0.0, 0.0, 0.0, 0.0, 0.0, 0.0, 0.0, 1.7395352395290916E9, 0.0, 2025-02-14 09:13:59.529
58.0, -187500.02235174447, -65243.378608629544, -187500.02235174447, -178385.38329427043, -187500.02235174447, -187500.02235174447, -187500.02235174447, -179868.66740806907, -0.10200000000000001, 0.762, 0.5720000000000001, 192.0, 0.0, 0.0, 0.0, 0.0, 0.0, 0.0, 0.0, 0.0, 0.0, 1.7395352395291038E9, 0.0, 2025-02-14 09:13:59.529
59.0, -187500.02235174447, -65482.318756856774, -187500.02235174447, -178160.1000619054, -187500.02235174447, -187500.02235174447, -187500.02235174447, -180180.2730775205, -0.10200000000000001, 0.762, 0.5720000000000001, 192.0, 0.0, 0.0, 0.0, 0.0, 0.0, 0.0, 0.0, 0.0, 0.0, 1.739535239529116E9, 0.0, 2025-02-14 09:13:59.529
60.0, -187500.02235174447, -65709.25601831151, -187500.02235174447, -178010.94687115515, -187500.02235174447, -187500.02235174447, -187500.02235174447, -180487.78837773664, -0.10200000000000001, 0.762, 0.5720000000000001, 192.0, 0.0, 0.0, 0.0, 0.0, 0.0, 0.0, 0.0, 0.0, 0.0, 1.739535239529128E9, 0.0, 2025-02-14 09:13:59.529
61.0, -187500.02235174447, -65528.54216439035, -187500.02235174447, -178277.93845867377, -187500.02235174447, -187500.02235174447, -187500.02235174447, -180507.07793320157, -0.108, 0.784, 0.586, 192.0, 252.0, 160.0, 24.0, 128.0, 18.0, 80.0, 0.0, 0.0, 0.0, 1.73953523952914E9, 0.0, 2025-02-14 09:13:59.529
62.0, -187500.02235174447, -65298.743879645335, -187500.02235174447, -178526.646319228, -187500.02235174447, -187500.02235174447, -187500.02235174447, -180488.83890972604, -0.108, 0.784, 0.586, 192.0, 0.0, 0.0, 0.0, 0.0, 0.0, 0.0, 0.0, 0.0, 0.0, 1.7395352395291524E9, 0.0, 2025-02-14 09:13:59.529
63.0, -187500.02235174447, -65468.43832355003, -187500.02235174447, -178367.97128533977, -187500.02235174447, -187500.02235174447, -187500.02235174447, -180748.47677331886, -0.108, 0.784, 0.586, 192.0, 0.0, 0.0, 0.0, 0.0, 0.0, 0.0, 0.0, 0.0, 0.0, 1.7395352395291648E9, 0.0, 2025-02-14 09:13:59.529
64.0, -187500.02235174447, -65727.07035864239, -187500.02235174447, -178188.307963408, -187500.02235174447, -187500.02235174447, -187500.02235174447, -181075.92982958912, -0.108, 0.784, 0.586, 192.0, 0.0, 0.0, 0.0, 0.0, 0.0, 0.0, 0.0, 0.0, 0.0, 1.7395352395291767E9, 0.0, 2025-02-14 09:13:59.529
65.0, -187500.02235174447, -65597.11731637923, -187500.02235174447, -178422.2636726217, -187500.02235174447, -187500.02235174447, -187500.02235174447, -181129.66342325968, -0.108, 0.784, 0.586, 192.0, 0.0, 0.0, 0.0, 0.0, 0.0, 0.0, 0.0, 0.0, 0.0, 1.739535239529189E9, 0.0, 2025-02-14 09:13:59.529
66.0, -187500.02235174447, -65316.02177810929, -187500.02235174447, -178724.86158905763, -187500.02235174447, -187500.02235174447, -187500.02235174447, -181073.91817258814, -0.108, 0.784, 0.586, 192.0, 0.0, 0.0, 0.0, 0.0, 0.0, 0.0, 0.0, 0.0, 0.0, 1.739535239529201E9, 0.0, 2025-02-14 09:13:59.529
67.0, -187500.02235174447, -65396.86803780414, -187500.02235174447, -178639.63438744957, -187500.02235174447, -187500.02235174447, -187500.02235174447, -181273.00516045158, -0.108, 0.784, 0.586, 192.0, 0.0, 0.0, 0.0, 0.0, 0.0, 0.0, 0.0, 0.0, 0.0, 1.7395352395292132E9, 0.0, 2025-02-14 09:13:59.529
68.0, -187500.02235174447, -65668.24056723602, -187500.02235174447, -178399.19667234382, -187500.02235174447, -187500.02235174447, -187500.02235174447, -181608.0578098366, -0.108, 0.784, 0.586, 192.0, 0.0, 0.0, 0.0, 0.0, 0.0, 0.0, 0.0, 0.0, 0.0, 1.73953523952923E9, 0.0, 2025-02-14 09:13:59.529
69.0, -187500.02235174447, -65589.3836127977, -187500.02235174447, -178552.03790092922, -187500.02235174447, -187500.02235174447, -187500.02235174447, -181699.56585163664, -0.108, 0.784, 0.586, 192.0, 0.0, 0.0, 0.0, 0.0, 0.0, 0.0, 0.0, 0.0, 0.0, 1.7395352395292497E9, 0.0, 2025-02-14 09:13:59.529
70.0, -187500.02235174447, -65277.73323985735, -187500.02235174447, -178885.95061134704, -187500.02235174447, -187500.02235174447, -187500.02235174447, -181622.2735193102, -0.108, 0.784, 0.586, 192.0, 0.0, 0.0, 0.0, 0.0, 0.0, 0.0, 0.0, 0.0, 0.0, 1.739535239529262E9, 0.0, 2025-02-14 09:13:59.529
71.0, -187500.02235174447, -65283.6117486491, -187500.02235174447, -178860.8719540682, -187500.02235174447, -187500.02235174447, -187500.02235174447, -181763.73770996783, -0.114, 0.796, 0.6, 192.0, 252.0, 112.0, 24.0, 224.0, 18.0, 192.0, 0.0, 0.0, 0.0, 1.7395352395292745E9, 0.0, 2025-02-14 09:13:59.529
72.0, -187500.02235174447, -65564.1261415632, -187500.02235174447, -178608.2078347454, -187500.02235174447, -187500.02235174447, -187500.02235174447, -182101.27140298742, -0.114, 0.796, 0.6, 192.0, 0.0, 0.0, 0.0, 0.0, 0.0, 0.0, 0.0, 0.0, 0.0, 1.739535239529287E9, 0.0, 2025-02-14 09:13:59.529
73.0, -187500.02235174447, -65568.44002824307, -187500.02235174447, -178691.60219330815, -187500.02235174447, -187500.02235174447, -187500.02235174447, -182249.06113732592, -0.114, 0.796, 0.6, 192.0, 0.0, 0.0, 0.0, 0.0, 0.0, 0.0, 0.0, 0.0, 0.0, 1.7395352395292993E9, 0.0, 2025-02-14 09:13:59.529
74.0, -187500.02235174447, -65263.33871642813, -187500.02235174447, -179058.751947731, -187500.02235174447, -187500.02235174447, -187500.02235174447, -182178.8543079918, -0.114, 0.796, 0.6, 192.0, 0.0, 0.0, 0.0, 0.0, 0.0, 0.0, 0.0, 0.0, 0.0, 1.7395352395293117E9, 0.0, 2025-02-14 09:13:59.529
75.0, -187500.02235174447, -65204.55362851067, -187500.02235174447, -179106.6740878432, -187500.02235174447, -187500.02235174447, -187500.02235174447, -182278.05134988445, -0.114, 0.796, 0.6, 192.0, 0.0, 0.0, 0.0, 0.0, 0.0, 0.0, 0.0, 0.0, 0.0, 1.7395352395293236E9, 0.0, 2025-02-14 09:13:59.529
76.0, -187500.02235174447, -65489.51601857138, -187500.02235174447, -178836.2626834229, -187500.02235174447, -187500.02235174447, -187500.02235174447, -182623.27404299667, -0.114, 0.796, 0.6, 192.0, 0.0, 0.0, 0.0, 0.0, 0.0, 0.0, 0.0, 0.0, 0.0, 1.7395352395293355E9, 0.0, 2025-02-14 09:13:59.529
77.0, -187500.02235174447, -65582.70044120555, -187500.02235174447, -178822.71752628297, -187500.02235174447, -187500.02235174447, -187500.02235174447, -182836.88966475605, -0.114, 0.796, 0.6, 192.0, 0.0, 0.0, 0.0, 0.0, 0.0, 0.0, 0.0, 0.0, 0.0, 1.7395352395293477E9, 0.0, 2025-02-14 09:13:59.529
78.0, -187500.02235174447, -65316.37940602058, -187500.02235174447, -179146.6390069293, -187500.02235174447, -187500.02235174447, -187500.02235174447, -182793.43787353492, -0.114, 0.796, 0.6, 192.0, 0.0, 0.0, 0.0, 0.0, 0.0, 0.0, 0.0, 0.0, 0.0, 1.7395352395293596E9, 0.0, 2025-02-14 09:13:59.529
79.0, -187500.02235174447, -65202.87724767652, -187500.02235174447, -179253.2568279811, -187500.02235174447, -187500.02235174447, -187500.02235174447, -182854.18991496443, -0.114, 0.796, 0.6, 192.0, 0.0, 0.0, 0.0, 0.0, 0.0, 0.0, 0.0, 0.0, 0.0, 1.739535239529372E9, 0.0, 2025-02-14 09:13:59.529
80.0, -187500.02235174447, -65478.63071902165, -187500.02235174447, -178983.80654857238, -187500.02235174447, -187500.02235174447, -187500.02235174447, -183189.80135796088, -0.114, 0.796, 0.6, 192.0, 0.0, 0.0, 0.0, 0.0, 0.0, 0.0, 0.0, 0.0, 0.0, 1.739535239529384E9, 0.0, 2025-02-14 09:13:59.529
81.0, -187500.02235174447, -65653.0413810064, -187500.02235174447, -178884.69891365754, -187500.02235174447, -187500.02235174447, -187500.02235174447, -183459.4528030697, -0.12, 0.792, 0.602, 192.0, 252.0, 64.0, 24.0, 192.0, 18.0, 208.0, 0.0, 0.0, 0.0, 1.739535239529396E9, 0.0, 2025-02-14 09:13:59.529
82.0, -187500.02235174447, -65432.38495974362, -187500.02235174447, -179181.57478351294, -187500.02235174447, -187500.02235174447, -187500.02235174447, -183448.7910209645, -0.12, 0.792, 0.602, 192.0, 0.0, 0.0, 0.0, 0.0, 0.0, 0.0, 0.0, 0.0, 0.0, 1.7395352395294087E9, 0.0, 2025-02-14 09:13:59.529
83.0, -187500.02235174447, -65257.97429775886, -187500.02235174447, -179356.6783495758, -187500.02235174447, -187500.02235174447, -187500.02235174447, -183468.68407352973, -0.12, 0.792, 0.602, 192.0, 0.0, 0.0, 0.0, 0.0, 0.0, 0.0, 0.0, 0.0, 0.0, 1.739535239529421E9, 0.0, 2025-02-14 09:13:59.529
84.0, -187500.02235174447, -65487.72787901496, -187500.02235174447, -179126.00834679705, -187500.02235174447, -187500.02235174447, -187500.02235174447, -183773.83008883358, -0.12, 0.792, 0.602, 192.0, 0.0, 0.0, 0.0, 0.0, 0.0, 0.0, 0.0, 0.0, 0.0, 1.7395352395294397E9, 0.0, 2025-02-14 09:13:59.529
85.0, -187500.02235174447, -65720.92362891718, -187500.02235174447, -178946.0321004429, -187500.02235174447, -187500.02235174447, -187500.02235174447, -184081.5912582387, -0.12, 0.792, 0.602, 192.0, 0.0, 0.0, 0.0, 0.0, 0.0, 0.0, 0.0, 0.0, 0.0, 1.7395352395294516E9, 0.0, 2025-02-14 09:13:59.529
86.0, -187500.02235174447, -65546.17769076559, -187500.02235174447, -179198.22683313215, -187500.02235174447, -187500.02235174447, -187500.02235174447, -184103.2500986159, -0.12, 0.792, 0.602, 192.0, 0.0, 0.0, 0.0, 0.0, 0.0, 0.0, 0.0, 0.0, 0.0, 1.7395352395294635E9, 0.0, 2025-02-14 09:13:59.529
87.0, -187500.02235174447, -65321.16267933401, -187500.02235174447, -179440.38563256094, -187500.02235174447, -187500.02235174447, -187500.02235174447, -184085.41340654058, -0.12, 0.792, 0.602, 192.0, 0.0, 0.0, 0.0, 0.0, 0.0, 0.0, 0.0, 0.0, 0.0, 1.7395352395294757E9, 0.0, 2025-02-14 09:13:59.529
88.0, -187500.02235174447, -65497.02620470837, -187500.02235174447, -179252.18394424726, -187500.02235174447, -187500.02235174447, -187500.02235174447, -184350.8180202029, -0.12, 0.792, 0.602, 192.0, 0.0, 0.0, 0.0, 0.0, 0.0, 0.0, 0.0, 0.0, 0.0, 1.7395352395294878E9, 0.0, 2025-02-14 09:13:59.529
89.0, -187500.02235174447, -65785.34135643738, -187500.02235174447, -179028.93472062764, -187500.02235174447, -187500.02235174447, -187500.02235174447, -184698.097073805, -0.12, 0.792, 0.602, 192.0, 0.0, 0.0, 0.0, 0.0, 0.0, 0.0, 0.0, 0.0, 0.0, 1.7395352395295002E9, 0.0, 2025-02-14 09:13:59.529
90.0, -187500.02235174447, -65695.1073640713, -187500.02235174447, -179215.8623595074, -187500.02235174447, -187500.02235174447, -187500.02235174447, -184779.47977536678, -0.12, 0.792, 0.602, 192.0, 0.0, 0.0, 0.0, 0.0, 0.0, 0.0, 0.0, 0.0, 0.0, 1.7395352395295124E9, 0.0, 2025-02-14 09:13:59.529
91.0, -187500.02235174447, -65456.86011992218, -187500.02235174447, -179487.27959242818, -187500.02235174447, -187500.02235174447, -187500.02235174447, -184753.19412388734, -0.12, 0.794, 0.604, 192.0, 252.0, 64.0, 24.0, 208.0, 18.0, 224.0, 0.0, 0.0, 0.0, 1.7395352395295246E9, 0.0, 2025-02-14 09:13:59.529
92.0, -187500.02235174447, -65596.60322625676, -187500.02235174447, -179350.66573031733, -187500.02235174447, -187500.02235174447, -187500.02235174447, -184990.10026336912, -0.12, 0.794, 0.604, 192.0, 0.0, 0.0, 0.0, 0.0, 0.0, 0.0, 0.0, 0.0, 0.0, 1.7395352395295377E9, 0.0, 2025-02-14 09:13:59.529
93.0, -187500.02235174447, -65943.56935543648, -187500.02235174447, -179055.82386920738, -187500.02235174447, -187500.02235174447, -187500.02235174447, -185374.68437846715, -0.12, 0.794, 0.604, 192.0, 0.0, 0.0, 0.0, 0.0, 0.0, 0.0, 0.0, 0.0, 0.0, 1.7395352395295498E9, 0.0, 2025-02-14 09:13:59.529
94.0, -187500.02235174447, -65957.5168439766, -187500.02235174447, -179148.3824429968, -187500.02235174447, -187500.02235174447, -187500.02235174447, -185523.32347909492, -0.12, 0.794, 0.604, 192.0, 0.0, 0.0, 0.0, 0.0, 0.0, 0.0, 0.0, 0.0, 0.0, 1.739535239529562E9, 0.0, 2025-02-14 09:13:59.529
95.0, -187500.02235174447, -65732.25596335602, -187500.02235174447, -179427.89100741042, -187500.02235174447, -187500.02235174447, -187500.02235174447, -185502.31283930695, -0.12, 0.794, 0.604, 192.0, 0.0, 0.0, 0.0, 0.0, 0.0, 0.0, 0.0, 0.0, 0.0, 1.739535239529574E9, 0.0, 2025-02-14 09:13:59.529
96.0, -187500.02235174447, -65821.0370923325, -187500.02235174447, -179343.06613720252, -187500.02235174447, -187500.02235174447, -187500.02235174447, -185702.60682137095, -0.12, 0.794, 0.604, 192.0, 0.0, 0.0, 0.0, 0.0, 0.0, 0.0, 0.0, 0.0, 0.0, 1.739535239529586E9, 0.0, 2025-02-14 09:13:59.529
97.0, -187500.02235174447, -66202.64842541795, -187500.02235174447, -179025.71606942607, -187500.02235174447, -187500.02235174447, -187500.02235174447, -186109.29681173526, -0.12, 0.794, 0.604, 192.0, 0.0, 0.0, 0.0, 0.0, 0.0, 0.0, 0.0, 0.0, 0.0, 1.739535239529598E9, 0.0, 2025-02-14 09:13:59.529
98.0, -187500.02235174447, -66308.05925226919, -187500.02235174447, -179021.67040367966, -187500.02235174447, -187500.02235174447, -187500.02235174447, -186324.34294513977, -0.12, 0.794, 0.604, 192.0, 0.0, 0.0, 0.0, 0.0, 0.0, 0.0, 0.0, 0.0, 0.0, 1.7395352395296104E9, 0.0, 2025-02-14 09:13:59.529
99.0, -187500.02235174447, -66096.83526716653, -187500.02235174447, -179302.49772101615, -187500.02235174447, -187500.02235174447, -187500.02235174447, -186312.78709325637, -0.12, 0.794, 0.604, 192.0, 0.0, 0.0, 0.0, 0.0, 0.0, 0.0, 0.0, 0.0, 0.0, 1.7395352395296295E9, 0.0, 2025-02-14 09:13:59.529
100.0, -187500.02235174447, -66118.87408719947, -187500.02235174447, -179295.1663488348, -187500.02235174447, -187500.02235174447, -187500.02235174447, -186463.59431309634, -0.12, 0.794, 0.604, 192.0, 0.0, 0.0, 0.0, 0.0, 0.0, 0.0, 0.0, 0.0, 0.0, 1.7395352395296416E9, 0.0, 2025-02-14 09:13:59.529
101.0, -187500.02235174447, -66493.71284171497, -187500.02235174447, -178960.6948448056, -187500.02235174447, -187500.02235174447, -187500.02235174447, -186862.75176557922, -0.11800000000000001, 0.792, 0.598, 192.0, 252.0, 80.0, 24.0, 192.0, 18.0, 176.0, 0.0, 0.0, 0.0, 1.7395352395296538E9, 0.0, 2025-02-14 09:13:59.529
102.0, -187500.02235174447, -66681.86982653974, -187500.02235174447, -178871.60079140673, -187500.02235174447, -187500.02235174447, -187500.02235174447, -187134.3701642001, -0.11800000000000001, 0.792, 0.598, 192.0, 0.0, 0.0, 0.0, 0.0, 0.0, 0.0, 0.0, 0.0, 0.0, 1.7395352395296664E9, 0.0, 2025-02-14 09:13:59.529
103.0, -187500.02235174447, -66494.696318471, -187500.02235174447, -179144.44853597268, -187500.02235174447, -187500.02235174447, -187500.02235174447, -187142.70736488194, -0.11800000000000001, 0.792, 0.598, 192.0, 0.0, 0.0, 0.0, 0.0, 0.0, 0.0, 0.0, 0.0, 0.0, 1.7395352395296786E9, 0.0, 2025-02-14 09:13:59.529
104.0, -187500.02235174447, -66454.32906798471, -187500.02235174447, -179197.0868941649, -187500.02235174447, -187500.02235174447, -187500.02235174447, -187247.2017702105, -0.11800000000000001, 0.792, 0.598, 192.0, 0.0, 0.0, 0.0, 0.0, 0.0, 0.0, 0.0, 0.0, 0.0, 1.7395352400088985E9, 0.0, 2025-02-14 09:14:00.008
105.0, -187500.02235174447, -66810.23589494657, -187500.02235174447, -178863.9117913141, -187500.02235174447, -187500.02235174447, -187500.02235174447, -187500.02235174447, -0.11800000000000001, 0.792, 0.598, 192.0, 0.0, 0.0, 0.0, 0.0, 0.0, 0.0, 0.0, 0.0, 0.0, 1.7395352400089483E9, 0.0, 2025-02-14 09:14:00.008
106.0, -187500.02235174447, -67080.64729936687, -187500.02235174447, -178692.60802180864, -187500.02235174447, -187500.02235174447, -187500.02235174447, -187500.02235174447, -0.11800000000000001, 0.792, 0.598, 192.0, 0.0, 0.0, 0.0, 0.0, 0.0, 0.0, 0.0, 0.0, 0.0, 1.7395352400089633E9, 0.0, 2025-02-14 09:14:00.008
107.0, -187500.02235174447, -66946.53683263503, -187500.02235174447, -178925.6249577552, -187500.02235174447, -187500.02235174447, -187500.02235174447, -187500.02235174447, -0.11800000000000001, 0.792, 0.598, 192.0, 0.0, 0.0, 0.0, 0.0, 0.0, 0.0, 0.0, 0.0, 0.0, 1.739535240008989E9, 0.0, 2025-02-14 09:14:00.008
108.0, -187500.02235174447, -66848.77030238752, -187500.02235174447, -179058.0590436529, -187500.02235174447, -187500.02235174447, -187500.02235174447, -187500.02235174447, -0.11800000000000001, 0.792, 0.598, 192.0, 0.0, 0.0, 0.0, 0.0, 0.0, 0.0, 0.0, 0.0, 0.0, 1.739535240009002E9, 0.0, 2025-02-14 09:14:00.009
109.0, -187500.02235174447, -67161.11357940598, -187500.02235174447, -178762.50192672038, -187500.02235174447, -187500.02235174447, -187500.02235174447, -187500.02235174447, -0.11800000000000001, 0.792, 0.598, 192.0, 0.0, 0.0, 0.0, 0.0, 0.0, 0.0, 0.0, 0.0, 0.0, 1.7395352400090146E9, 0.0, 2025-02-14 09:14:00.009
110.0, -187500.02235174447, -67481.2799669838, -187500.02235174447, -178530.75904020775, -187500.02235174447, -187500.02235174447, -187500.02235174447, -187500.02235174447, -0.11800000000000001, 0.792, 0.598, 192.0, 0.0, 0.0, 0.0, 0.0, 0.0, 0.0, 0.0, 0.0, 0.0, 1.739535240009028E9, 0.0, 2025-02-14 09:14:00.009
111.0, -187500.02235174447, -67389.77192518377, -187500.02235174447, -178735.81394384074, -187500.02235174447, -187500.02235174447, -187500.02235174447, -187500.02235174447, -0.11800000000000001, 0.792, 0.59, 192.0, 252.0, 80.0, 24.0, 192.0, 18.0, 112.0, 0.0, 0.0, 0.0, 1.7395352400090396E9, 0.0, 2025-02-14 09:14:00.009
112.0, -187500.02235174447, -67224.92780982588, -187500.02235174447, -178933.8951032037, -187500.02235174447, -187500.02235174447, -187500.02235174447, -187500.02235174447, -0.11800000000000001, 0.792, 0.59, 192.0, 0.0, 0.0, 0.0, 0.0, 0.0, 0.0, 0.0, 0.0, 0.0, 1.7395352400090525E9, 0.0, 2025-02-14 09:14:00.009
113.0, -187500.02235174447, -67465.14200748707, -187500.02235174447, -178709.10360921666, -187500.02235174447, -187500.02235174447, -187500.02235174447, -187500.02235174447, -0.11800000000000001, 0.792, 0.59, 192.0, 0.0, 0.0, 0.0, 0.0, 0.0, 0.0, 0.0, 0.0, 0.0, 1.739535240009064E9, 0.0, 2025-02-14 09:14:00.009
114.0, -187500.02235174447, -67828.760186286, -187500.02235174447, -178429.9079692254, -187500.02235174447, -187500.02235174447, -187500.02235174447, -187500.02235174447, -0.11800000000000001, 0.792, 0.59, 192.0, 0.0, 0.0, 0.0, 0.0, 0.0, 0.0, 0.0, 0.0, 0.0, 1.7395352400091102E9, 0.0, 2025-02-14 09:14:00.009
115.0, -187500.02235174447, -67806.74371799752, -187500.02235174447, -178572.646209317, -187500.02235174447, -187500.02235174447, -187500.02235174447, -187500.02235174447, -0.11800000000000001, 0.792, 0.59, 192.0, 0.0, 0.0, 0.0, 0.0, 0.0, 0.0, 0.0, 0.0, 0.0, 1.739535240009122E9, 0.0, 2025-02-14 09:14:00.009
116.0, -187500.02235174447, -67620.48663145145, -187500.02235174447, -178805.7525522414, -187500.02235174447, -187500.02235174447, -187500.02235174447, -187500.02235174447, -0.11800000000000001, 0.792, 0.59, 192.0, 0.0, 0.0, 0.0, 0.0, 0.0, 0.0, 0.0, 0.0, 0.0, 1.7395352400091338E9, 0.0, 2025-02-14 09:14:00.009
117.0, -187500.02235174447, -67796.39486031471, -187500.02235174447, -178641.668396195, -187500.02235174447, -187500.02235174447, -187500.02235174447, -187500.02235174447, -0.11800000000000001, 0.792, 0.59, 192.0, 0.0, 0.0, 0.0, 0.0, 0.0, 0.0, 0.0, 0.0, 0.0, 1.7395352400091465E9, 0.0, 2025-02-14 09:14:00.009
118.0, -187500.02235174447, -68189.42793481683, -187500.02235174447, -178321.97139525073, -187500.02235174447, -187500.02235174447, -187500.02235174447, -187500.02235174447, -0.11800000000000001, 0.792, 0.59, 192.0, 0.0, 0.0, 0.0, 0.0, 0.0, 0.0, 0.0, 0.0, 0.0, 1.7395352400091584E9, 0.0, 2025-02-14 09:14:00.009
119.0, -187500.02235174447, -68237.0595022511, -187500.02235174447, -178388.5572419831, -187500.02235174447, -187500.02235174447, -187500.02235174447, -187500.02235174447, -0.11800000000000001, 0.792, 0.59, 192.0, 0.0, 0.0, 0.0, 0.0, 0.0, 0.0, 0.0, 0.0, 0.0, 1.73953524000917E9, 0.0, 2025-02-14 09:14:00.009
120.0, -187500.02235174447, -68018.9064763673, -187500.02235174447, -178665.920038929, -187500.02235174447, -187500.02235174447, -187500.02235174447, -187500.02235174447, -0.11800000000000001, 0.792, 0.59, 192.0, 0.0, 0.0, 0.0, 0.0, 0.0, 0.0, 0.0, 0.0, 0.0, 1.7395352400091815E9, 0.0, 2025-02-14 09:14:00.009
121.0, -187500.02235174447, -68104.69247158676, -187500.02235174447, -178599.5130061523, -187500.02235174447, -187500.02235174447, -187500.02235174447, -187500.02235174447, -0.108, 0.788, 0.584, 192.0, 252.0, 160.0, 24.0, 160.0, 18.0, 64.0, 0.0, 0.0, 0.0, 1.7395352400091932E9, 0.0, 2025-02-14 09:14:00.009
122.0, -187500.02235174447, -68479.911205758, -187500.02235174447, -178286.6779907558, -187500.02235174447, -187500.02235174447, -187500.02235174447, -187500.02235174447, -0.108, 0.788, 0.584, 192.0, 0.0, 0.0, 0.0, 0.0, 0.0, 0.0, 0.0, 0.0, 0.0, 1.7395352400092173E9, 0.0, 2025-02-14 09:14:00.009
123.0, -187500.02235174447, -68599.76125952737, -187500.02235174447, -178280.97829591972, -187500.02235174447, -187500.02235174447, -187500.02235174447, -187500.02235174447, -0.108, 0.788, 0.584, 192.0, 0.0, 0.0, 0.0, 0.0, 0.0, 0.0, 0.0, 0.0, 0.0, 1.7395352400092292E9, 0.0, 2025-02-14 09:14:00.009
124.0, -187500.02235174447, -68388.20199825788, -187500.02235174447, -178572.9367819949, -187500.02235174447, -187500.02235174447, -187500.02235174447, -187500.02235174447, -0.108, 0.788, 0.584, 192.0, 0.0, 0.0, 0.0, 0.0, 0.0, 0.0, 0.0, 0.0, 0.0, 1.7395352400092409E9, 0.0, 2025-02-14 09:14:00.009
125.0, -187500.02235174447, -68399.17670478544, -187500.02235174447, -178582.63743908852, -187500.02235174447, -187500.02235174447, -187500.02235174447, -187500.02235174447, -0.108, 0.788, 0.584, 192.0, 0.0, 0.0, 0.0, 0.0, 0.0, 0.0, 0.0, 0.0, 0.0, 1.7395352400092525E9, 0.0, 2025-02-14 09:14:00.009
126.0, -187500.02235174447, -68768.29341272038, -187500.02235174447, -178255.69847294074, -187500.02235174447, -187500.02235174447, -187500.02235174447, -187500.02235174447, -0.108, 0.788, 0.584, 192.0, 0.0, 0.0, 0.0, 0.0, 0.0, 0.0, 0.0, 0.0, 0.0, 1.739535240009264E9, 0.0, 2025-02-14 09:14:00.009
127.0, -187500.02235174447, -68957.38917081227, -187500.02235174447, -178183.5693935835, -187500.02235174447, -187500.02235174447, -187500.02235174447, -187500.02235174447, -0.108, 0.788, 0.584, 192.0, 0.0, 0.0, 0.0, 0.0, 0.0, 0.0, 0.0, 0.0, 0.0, 1.7395352400092757E9, 0.0, 2025-02-14 09:14:00.009
128.0, -187500.02235174447, -68772.04850578887, -187500.02235174447, -178453.55611485912, -187500.02235174447, -187500.02235174447, -187500.02235174447, -187500.02235174447, -0.108, 0.788, 0.584, 192.0, 0.0, 0.0, 0.0, 0.0, 0.0, 0.0, 0.0, 0.0, 0.0, 1.739535240009287E9, 0.0, 2025-02-14 09:14:00.009
129.0, -187500.02235174447, -68706.84846721274, -187500.02235174447, -178548.66278751646, -187500.02235174447, -187500.02235174447, -187500.02235174447, -187500.02235174447, -0.108, 0.788, 0.584, 192.0, 0.0, 0.0, 0.0, 0.0, 0.0, 0.0, 0.0, 0.0, 0.0, 1.7395352400093064E9, 0.0, 2025-02-14 09:14:00.009
130.0, -187500.02235174447, -69041.43172996423, -187500.02235174447, -178259.833545665, -187500.02235174447, -187500.02235174447, -187500.02235174447, -187500.02235174447, -0.108, 0.788, 0.584, 192.0, 0.0, 0.0, 0.0, 0.0, 0.0, 0.0, 0.0, 0.0, 0.0, 1.7395352400093184E9, 0.0, 2025-02-14 09:14:00.009
131.0, -187500.02235174447, -69308.15509654941, -187500.02235174447, -178113.11669506034, -187500.02235174447, -187500.02235174447, -187500.02235174447, -187500.02235174447, -0.106, 0.796, 0.588, 192.0, 252.0, 176.0, 24.0, 224.0, 18.0, 96.0, 0.0, 0.0, 0.0, 1.7395352400093298E9, 0.0, 2025-02-14 09:14:00.009
132.0, -187500.02235174447, -69171.13890303837, -187500.02235174447, -178373.26864877567, -187500.02235174447, -187500.02235174447, -187500.02235174447, -187500.02235174447, -0.106, 0.796, 0.588, 192.0, 0.0, 0.0, 0.0, 0.0, 0.0, 0.0, 0.0, 0.0, 0.0, 1.739535240009343E9, 0.0, 2025-02-14 09:14:00.009
133.0, -187500.02235174447, -69055.71449467116, -187500.02235174447, -178532.25660708625, -187500.02235174447, -187500.02235174447, -187500.02235174447, -187500.02235174447, -0.106, 0.796, 0.588, 192.0, 0.0, 0.0, 0.0, 0.0, 0.0, 0.0, 0.0, 0.0, 0.0, 1.7395352400093546E9, 0.0, 2025-02-14 09:14:00.009
134.0, -187500.02235174447, -69350.95868718132, -187500.02235174447, -178285.15807213285, -187500.02235174447, -187500.02235174447, -187500.02235174447, -187500.02235174447, -0.106, 0.796, 0.588, 192.0, 0.0, 0.0, 0.0, 0.0, 0.0, 0.0, 0.0, 0.0, 0.0, 1.739535240009366E9, 0.0, 2025-02-14 09:14:00.009
135.0, -187500.02235174447, -69686.88305460013, -187500.02235174447, -178073.79997656346, -187500.02235174447, -187500.02235174447, -187500.02235174447, -187500.02235174447, -0.106, 0.796, 0.588, 192.0, 0.0, 0.0, 0.0, 0.0, 0.0, 0.0, 0.0, 0.0, 0.0, 1.7395352400093775E9, 0.0, 2025-02-14 09:14:00.009
136.0, -187500.02235174447, -69616.47505956591, -187500.02235174447, -178281.76060697564, -187500.02235174447, -187500.02235174447, -187500.02235174447, -187500.02235174447, -0.106, 0.796, 0.588, 192.0, 0.0, 0.0, 0.0, 0.0, 0.0, 0.0, 0.0, 0.0, 0.0, 1.7395352400093892E9, 0.0, 2025-02-14 09:14:00.009
137.0, -187500.02235174447, -69469.6017467501, -187500.02235174447, -178507.35676376306, -187500.02235174447, -187500.02235174447, -187500.02235174447, -187500.02235174447, -0.106, 0.796, 0.588, 192.0, 0.0, 0.0, 0.0, 0.0, 0.0, 0.0, 0.0, 0.0, 0.0, 1.7395352400094004E9, 0.0, 2025-02-14 09:14:00.009
138.0, -187500.02235174447, -69719.04721487132, -187500.02235174447, -178312.24838641268, -187500.02235174447, -187500.02235174447, -187500.02235174447, -187500.02235174447, -0.106, 0.796, 0.588, 192.0, 0.0, 0.0, 0.0, 0.0, 0.0, 0.0, 0.0, 0.0, 0.0, 1.739535240009412E9, 0.0, 2025-02-14 09:14:00.009
