%OpenBCI Raw EXG Data
%Number of channels = 8
%Sample Rate = 250 Hz
%Board = OpenBCI_GUI$BoardCytonSerial
Sample Index, EXG Channel 0, EXG Channel 1, EXG Channel 2, EXG Channel 3, EXG Channel 4, EXG Channel 5, EXG Channel 6, EXG Channel 7, Accel Channel 0, Accel Channel 1, Accel Channel 2, Not Used, Digital Channel 0 (D11), Digital Channel 1 (D12), Digital Channel 2 (D13), Digital Channel 3 (D17), Not Used, Digital Channel 4 (D18), Analog Channel 0, Analog Channel 1, Analog Channel 2, Timestamp, Marker Channel, Timestamp (Formatted)
0.0, -69388.62137658852, -106693.41465156253, -170678.90413748077, -145621.2798501587, -154753.7779514525, -147128.7709032024, -128882.70662816842, -155873.66740389675, 0.166, 0.318, 0.364, 192.0, 5.0, 48.0, 9.0, 240.0, 11.0, 96.0, 0.0, 0.0, 0.0, 1.7395371787996793E9, 0.0, 2025-02-14 09:46:18.799
1.0, -69496.33443311864, -106721.46609085395, -170690.37058238633, -145624.65496357143, -154820.52026039604, -147153.62604303673, -128921.30809084274, -155910.9501136482, 0.166, 0.318, 0.364, 192.0, 0.0, 0.0, 0.0, 0.0, 0.0, 0.0, 0.0, 0.0, 0.0, 1.7395371787997415E9, 0.0, 2025-02-14 09:46:18.799
2.0, -69517.18861069543, -106885.79611608936, -170812.54521757906, -145747.5001510978, -154814.90997253777, -147304.74618729905, -128995.35942022318, -156061.80203697708, 0.166, 0.318, 0.364, 192.0, 0.0, 0.0, 0.0, 0.0, 0.0, 0.0, 0.0, 0.0, 0.0, 1.739537178799756E9, 0.0, 2025-02-14 09:46:18.799
3.0, -69594.54799825526, -107028.84728060332, -170977.2552224702, -145915.51821416835, -154908.69789227223, -147459.3979071853, -129133.24733176797, -156208.54123932615, 0.166, 0.318, 0.364, 192.0, 0.0, 0.0, 0.0, 0.0, 0.0, 0.0, 0.0, 0.0, 0.0, 1.7395371787997696E9, 0.0, 2025-02-14 09:46:18.799
4.0, -69769.04806721784, -107044.85112963333, -171036.5320487657, -145974.59387476373, -155086.43896418082, -147489.93039011126, -129242.9049900657, -156240.5265856417, 0.166, 0.318, 0.364, 192.0, 0.0, 0.0, 0.0, 0.0, 0.0, 0.0, 0.0, 0.0, 0.0, 1.7395371787997863E9, 0.0, 2025-02-14 09:46:18.799
5.0, -69897.14591469121, -107072.05320263543, -171048.84785996054, -145981.00882542238, -155178.46109610333, -147511.6562857218, -129290.55890924441, -156267.9298243439, 0.166, 0.318, 0.364, 192.0, 0.0, 0.0, 0.0, 0.0, 0.0, 0.0, 0.0, 0.0, 0.0, 1.739537178799798E9, 0.0, 2025-02-14 09:46:18.799
6.0, -69920.19056322462, -107227.19666089973, -171159.8913264145, -146090.86764942022, -155183.82551477262, -147645.65499373138, -129360.29635194497, -156402.30851200921, 0.166, 0.318, 0.364, 192.0, 0.0, 0.0, 0.0, 0.0, 0.0, 0.0, 0.0, 0.0, 0.0, 1.73953717879981E9, 0.0, 2025-02-14 09:46:18.799
7.0, -69980.1155901093, -107373.73469754872, -171317.71699401343, -146259.22098865762, -155261.07314361015, -147796.641027527, -129480.4593301367, -156548.1089410912, 0.26, 0.47800000000000004, 0.534, 192.0, 8.0, 32.0, 14.0, 240.0, 16.0, 176.0, 0.0, 0.0, 0.0, 1.7395371787998216E9, 0.0, 2025-02-14 09:46:18.799
8.0, -70150.01119971409, -107395.37118618145, -171385.37572447964, -146332.0876755819, -155427.21366014646, -147840.38339142603, -129580.43868308529, -156591.78424975686, 0.26, 0.47800000000000004, 0.534, 192.0, 0.0, 0.0, 0.0, 0.0, 0.0, 0.0, 0.0, 0.0, 0.0, 1.739537178799834E9, 0.0, 2025-02-14 09:46:18.799
9.0, -70298.2926724306, -107409.54219216612, -171400.41844849807, -146339.26258555206, -155528.15413810662, -147860.76818236927, -129633.25585523319, -156619.94744777054, 0.26, 0.47800000000000004, 0.534, 192.0, 0.0, 0.0, 0.0, 0.0, 0.0, 0.0, 0.0, 0.0, 0.0, 1.739537178799846E9, 0.0, 2025-02-14 09:46:18.799
10.0, -70330.7027018908, -107548.59239442258, -171498.81082759035, -146434.3245547205, -155532.40096955313, -147990.81063161025, -129703.79796073414, -156747.77707431043, 0.26, 0.47800000000000004, 0.534, 192.0, 0.0, 0.0, 0.0, 0.0, 0.0, 0.0, 0.0, 0.0, 0.0, 1.7395371787998576E9, 0.0, 2025-02-14 09:46:18.799
11.0, -70367.85130117551, -107714.66585572551, -171666.0689313494, -146603.54961199162, -155591.4319266596, -148154.15718008962, -129830.75586924028, -156904.79807910896, 0.26, 0.47800000000000004, 0.534, 192.0, 0.0, 0.0, 0.0, 0.0, 0.0, 0.0, 0.0, 0.0, 0.0, 1.7395371787998695E9, 0.0, 2025-02-14 09:46:18.799
12.0, -70520.78193673873, -107759.27993765831, -171753.79952833647, -146692.35309271255, -155760.99226009756, -148215.736236064, -129950.20359160943, -156966.06421066096, 0.26, 0.47800000000000004, 0.534, 192.0, 0.0, 0.0, 0.0, 0.0, 0.0, 0.0, 0.0, 0.0, 0.0, 1.739537178799881E9, 0.0, 2025-02-14 09:46:18.799
13.0, -70681.28981367228, -107766.74542030638, -171764.036627297, -146700.95851432782, -155893.40399425078, -148231.7847885829, -130006.41822891454, -156986.04667020403, 0.26, 0.47800000000000004, 0.534, 192.0, 0.0, 0.0, 0.0, 0.0, 0.0, 0.0, 0.0, 0.0, 0.0, 1.7395371787998924E9, 0.0, 2025-02-14 09:46:18.799
14.0, -70728.45199447298, -107888.04833746533, -171842.6030090574, -146780.82129726664, -155914.16876484978, -148344.03524923747, -130064.15278484259, -157097.55952329154, 0.26, 0.47800000000000004, 0.534, 192.0, 0.0, 0.0, 0.0, 0.0, 0.0, 0.0, 0.0, 0.0, 0.0, 1.739537178799904E9, 0.0, 2025-02-14 09:46:18.799
15.0, -70751.29547730631, -108060.87202559377, -172003.98260402473, -146950.09105802668, -155953.37372462437, -148513.19325127522, -130184.76279792342, -157258.98382174777, 0.26, 0.47800000000000004, 0.534, 192.0, 0.0, 0.0, 0.0, 0.0, 0.0, 0.0, 0.0, 0.0, 0.0, 1.7395371788000689E9, 0.0, 2025-02-14 09:46:18.800
16.0, -70884.55657774885, -108127.63668628177, -172107.98527097527, -147058.9664052685, -156103.15276421938, -148593.81599352552, -130305.99865984902, -157329.4812237598, 0.26, 0.47800000000000004, 0.534, 192.0, 0.0, 0.0, 0.0, 0.0, 0.0, 0.0, 0.0, 0.0, 0.0, 1.739537178800082E9, 0.0, 2025-02-14 09:46:18.800
17.0, -71053.6251728088, -108128.06136942642, -172126.69368108438, -147071.55043739683, -156252.66358288092, -148599.73920580617, -130365.7225210336, -157337.885479675, 0.308, 0.55, 0.622, 192.0, 9.0, 160.0, 17.0, 48.0, 19.0, 112.0, 0.0, 0.0, 0.0, 1.7395371788000946E9, 0.0, 2025-02-14 09:46:18.800
18.0, -71116.79120263949, -108226.05141711849, -172186.90928064697, -147128.1227026132, -156287.86758039804, -148684.07233763605, -130417.10918153635, -157433.75211164381, 0.308, 0.55, 0.622, 192.0, 0.0, 0.0, 0.0, 0.0, 0.0, 0.0, 0.0, 0.0, 0.0, 1.7395371788001077E9, 0.0, 2025-02-14 09:46:18.800
19.0, -71131.85627840237, -108404.77596578312, -172342.3880150781, -147290.97751271457, -156313.12505163255, -148855.19729318586, -130519.2566536971, -157600.83140144724, 0.308, 0.55, 0.622, 192.0, 0.0, 0.0, 0.0, 0.0, 0.0, 0.0, 0.0, 0.0, 0.0, 1.7395371788001213E9, 0.0, 2025-02-14 09:46:18.800
20.0, -71246.81130013602, -108496.68633898335, -172470.23999336243, -147424.55153757948, -156453.33754460068, -148956.98713743535, -130646.37102441443, -157695.8263153823, 0.308, 0.55, 0.622, 192.0, 0.0, 0.0, 0.0, 0.0, 0.0, 0.0, 0.0, 0.0, 0.0, 1.739537178800133E9, 0.0, 2025-02-14 09:46:18.800
21.0, -71422.18308713235, -108498.98856866224, -172499.967813488, -147448.87023554687, -156611.65495057762, -148965.1008206726, -130726.74789747571, -157710.69022544508, 0.308, 0.55, 0.622, 192.0, 0.0, 0.0, 0.0, 0.0, 0.0, 0.0, 0.0, 0.0, 0.0, 1.739537178800145E9, 0.0, 2025-02-14 09:46:18.800
22.0, -71504.63867242797, -108574.7833341102, -172547.4876222, -147493.59607620194, -156656.20197727706, -149037.3863622411, -130783.00723826973, -157788.0496130049, 0.308, 0.55, 0.622, 192.0, 0.0, 0.0, 0.0, 0.0, 0.0, 0.0, 0.0, 0.0, 0.0, 1.7395371788001587E9, 0.0, 2025-02-14 09:46:18.800
23.0, -71512.10415507606, -108749.95395540642, -172696.08201933885, -147646.25849083168, -156669.6800791836, -149208.95835268003, -130887.16636743146, -157958.4816644766, 0.308, 0.55, 0.622, 192.0, 0.0, 0.0, 0.0, 0.0, 0.0, 0.0, 0.0, 0.0, 0.0, 1.7395371788001707E9, 0.0, 2025-02-14 09:46:18.800
24.0, -71600.19237997441, -108858.27050903685, -172839.37905304183, -147798.76444325026, -156783.11518229428, -149333.32345882934, -131020.20395042944, -158079.09167755744, 0.308, 0.55, 0.622, 192.0, 0.0, 0.0, 0.0, 0.0, 0.0, 0.0, 0.0, 0.0, 0.0, 1.739537178800182E9, 0.0, 2025-02-14 09:46:18.800
25.0, -71771.7420186689, -108870.80983767628, -172882.4508646072, -147839.69048734792, -156945.8358819289, -149355.60814805128, -131102.21250083597, -158100.571703979, 0.308, 0.55, 0.622, 192.0, 0.0, 0.0, 0.0, 0.0, 0.0, 0.0, 0.0, 0.0, 0.0, 1.7395371788001947E9, 0.0, 2025-02-14 09:46:18.800
26.0, -71873.24129024045, -108944.2129664675, -172920.11355401442, -147865.57380742716, -157013.78518507304, -149406.1677940092, -131151.83337352675, -158153.21006217125, 0.308, 0.55, 0.622, 192.0, 0.0, 0.0, 0.0, 0.0, 0.0, 0.0, 0.0, 0.0, 0.0, 1.7395371788002064E9, 0.0, 2025-02-14 09:46:18.800
27.0, -71881.220863011, -109110.8005178929, -173059.36492197096, -148004.9816375949, -157031.80069110403, -149566.54156047603, -131243.8331537048, -158311.616875126, 0.328, 0.592, 0.666, 192.0, 10.0, 64.0, 18.0, 128.0, 20.0, 208.0, 0.0, 0.0, 0.0, 1.7395371788002312E9, 0.0, 2025-02-14 09:46:18.800
28.0, -71947.85141323226, -109245.22390904713, -173218.0846593481, -148170.20573260853, -157142.4865296467, -149710.82207093504, -131382.3692658388, -158444.7438651018, 0.328, 0.592, 0.666, 192.0, 0.0, 0.0, 0.0, 0.0, 0.0, 0.0, 0.0, 0.0, 0.0, 1.7395371788002436E9, 0.0, 2025-02-14 09:46:18.800
29.0, -72114.05898500193, -109261.18305458821, -173278.36731414407, -148230.0413525154, -157321.68046494492, -149739.7452282602, -131479.26407805254, -158476.77391490625, 0.328, 0.592, 0.666, 192.0, 0.0, 0.0, 0.0, 0.0, 0.0, 0.0, 0.0, 0.0, 0.0, 1.7395371788002553E9, 0.0, 2025-02-14 09:46:18.800
30.0, -72233.97609400465, -109300.14214517381, -173309.3021284702, -148249.15209402467, -157419.46934693688, -149771.01531875317, -131531.88008450033, -158516.09063340316, 0.328, 0.592, 0.666, 192.0, 0.0, 0.0, 0.0, 0.0, 0.0, 0.0, 0.0, 0.0, 0.0, 1.739537178800295E9, 0.0, 2025-02-14 09:46:18.800
31.0, -72248.86235581189, -109467.22143497724, -173431.29794970728, -148364.30828145842, -157437.79777739022, -149915.96638154585, -131611.5193499946, -158659.18650140602, 0.328, 0.592, 0.666, 192.0, 0.0, 0.0, 0.0, 0.0, 0.0, 0.0, 0.0, 0.0, 0.0, 1.7395371788003073E9, 0.0, 2025-02-14 09:46:18.800
32.0, -72295.51044649011, -109622.94603859735, -173590.44237022905, -148532.48280674015, -157520.49923187486, -150074.59671194514, -131743.5511044921, -158809.7925555459, 0.328, 0.592, 0.666, 192.0, 0.0, 0.0, 0.0, 0.0, 0.0, 0.0, 0.0, 0.0, 0.0, 1.739537178800319E9, 0.0, 2025-02-14 09:46:18.800
33.0, -72452.12911988844, -109655.95956515784, -173668.11468221125, -148610.13276697788, -157684.44927745455, -150124.44110208048, -131856.78504190268, -158856.66416366867, 0.328, 0.592, 0.666, 192.0, 0.0, 0.0, 0.0, 0.0, 0.0, 0.0, 0.0, 0.0, 0.0, 1.7395371788003309E9, 0.0, 2025-02-14 09:46:18.800
34.0, -72590.01703143324, -109677.93132995741, -173689.12532199925, -148621.10747350546, -157798.46552592106, -150144.5353203458, -131912.37383036304, -158891.53288501894, 0.328, 0.592, 0.666, 192.0, 0.0, 0.0, 0.0, 0.0, 0.0, 0.0, 0.0, 0.0, 0.0, 1.7395371788003423E9, 0.0, 2025-02-14 09:46:18.800
35.0, -72615.25215092328, -109821.85421250513, -173789.8199307704, -148718.1587479304, -157815.00581681798, -150269.5709788288, -131985.97812485436, -159034.42758732173, 0.328, 0.592, 0.666, 192.0, 0.0, 0.0, 0.0, 0.0, 0.0, 0.0, 0.0, 0.0, 0.0, 1.7395371788003538E9, 0.0, 2025-02-14 09:46:18.800
36.0, -72645.98579954932, -109994.36497621119, -173887.92173718475, -148896.1903925169, -157877.65775652623, -150437.07495177686, -132117.3840305071, -159201.39511840287, 0.328, 0.592, 0.666, 192.0, 0.0, 0.0, 0.0, 0.0, 0.0, 0.0, 0.0, 0.0, 0.0, 1.7395371788003657E9, 0.0, 2025-02-14 09:46:18.800
37.0, -72794.46843796593, -110039.78372094438, -173840.06665230592, -148991.40882389652, -158041.38428466133, -150498.69871124014, -132237.30113950983, -159258.839101653, 0.334, 0.606, 0.6920000000000001, 192.0, 10.0, 112.0, 18.0, 240.0, 21.0, 160.0, 0.0, 0.0, 0.0, 1.7395371788003771E9, 0.0, 2025-02-14 09:46:18.800
38.0, -72953.970486399, -110035.71570345352, -173830.25423649006, -148994.76158556482, -158172.3878589139, -150505.65010376574, -132292.979334948, -159267.6456889684, 0.334, 0.606, 0.6920000000000001, 192.0, 0.0, 0.0, 0.0, 0.0, 0.0, 0.0, 0.0, 0.0, 0.0, 1.7395371788003895E9, 0.0, 2025-02-14 09:46:18.800
39.0, -72999.52334159892, -110141.73002740504, -173899.00820243458, -149060.94510089696, -158200.6404639054, -150604.1989450692, -132346.40000419618, -159365.30046049363, 0.334, 0.606, 0.6920000000000001, 192.0, 0.0, 0.0, 0.0, 0.0, 0.0, 0.0, 0.0, 0.0, 0.0, 1.7395371788004017E9, 0.0, 2025-02-14 09:46:18.800
40.0, -73019.28228369741, -110308.40698580827, -174050.55302984157, -149223.08465517577, -158234.7939294331, -150766.67377551482, -132455.09653748234, -159521.98618912534, 0.334, 0.606, 0.6920000000000001, 192.0, 0.0, 0.0, 0.0, 0.0, 0.0, 0.0, 0.0, 0.0, 0.0, 1.739537178800413E9, 0.0, 2025-02-14 09:46:18.800
41.0, -73148.54242188245, -110374.85872207388, -174152.43228106885, -149331.42356055064, -158372.25715783326, -150840.92627059534, -132573.87370751784, -159597.51273363983, 0.334, 0.606, 0.6920000000000001, 192.0, 0.0, 0.0, 0.0, 0.0, 0.0, 0.0, 0.0, 0.0, 0.0, 1.7395371788004246E9, 0.0, 2025-02-14 09:46:18.800
42.0, -73318.28156927605, -110370.32131794946, -174165.82097599757, -149338.08438039833, -158507.7087292324, -150843.362610741, -132638.69376643823, -159605.08997501017, 0.334, 0.606, 0.6920000000000001, 192.0, 0.0, 0.0, 0.0, 0.0, 0.0, 0.0, 0.0, 0.0, 0.0, 1.739537178800436E9, 0.0, 2025-02-14 09:46:18.800
43.0, -73383.1686834298, -110460.66706903781, -174224.60606391504, -149387.6605496002, -158534.933153979, -150922.46543436832, -132689.8792612409, -159689.02077543983, 0.334, 0.606, 0.6920000000000001, 192.0, 0.0, 0.0, 0.0, 0.0, 0.0, 0.0, 0.0, 0.0, 0.0, 1.739537178800449E9, 0.0, 2025-02-14 09:46:18.800
44.0, -73398.74784931516, -110634.34012345555, -174308.60391957808, -149546.78261837753, -158553.26158443233, -151085.94609331444, -132794.44072180282, -159850.44507389606, 0.334, 0.606, 0.6920000000000001, 192.0, 0.0, 0.0, 0.0, 0.0, 0.0, 0.0, 0.0, 0.0, 0.0, 1.73953717880046E9, 0.0, 2025-02-14 09:46:18.800
45.0, -73516.31802515007, -110716.21456339533, -174286.00630593376, -149675.70748039574, -158682.454667384, -151180.6280828271, -132907.09351385754, -159933.25828710297, 0.334, 0.606, 0.6920000000000001, 192.0, 0.0, 0.0, 0.0, 0.0, 0.0, 0.0, 0.0, 0.0, 0.0, 1.7395371788004785E9, 0.0, 2025-02-14 09:46:18.800
46.0, -73699.42351572795, -110699.36134807604, -174276.1938901179, -149684.5811229445, -158830.53497440042, -151178.12468744811, -132963.7328343073, -159927.73740622253, 0.334, 0.606, 0.6920000000000001, 192.0, 0.0, 0.0, 0.0, 0.0, 0.0, 0.0, 0.0, 0.0, 0.0, 1.73953717880049E9, 0.0, 2025-02-14 09:46:18.800
47.0, -73788.9646040159, -110759.19696798289, -174302.74776253078, -149704.831803421, -158865.8954341287, -151225.75625488238, -132998.17687251294, -159982.2086074601, 0.342, 0.612, 0.7000000000000001, 192.0, 10.0, 176.0, 19.0, 32.0, 21.0, 224.0, 0.0, 0.0, 0.0, 1.7395371788005018E9, 0.0, 2025-02-14 09:46:18.800
48.0, -73800.69926985494, -110917.7825948933, -174429.92918848147, -149836.64004047395, -158860.82158813736, -151374.86474214372, -133078.5090420853, -160128.21020224216, 0.342, 0.612, 0.7000000000000001, 192.0, 0.0, 0.0, 0.0, 0.0, 0.0, 0.0, 0.0, 0.0, 0.0, 1.7395371788005142E9, 0.0, 2025-02-14 09:46:18.800
49.0, -73895.11303843415, -111010.8999622941, -174552.72967251894, -149967.55420774868, -158962.05263877544, -151472.89949332472, -133191.7876829848, -160226.17789818978, 0.342, 0.612, 0.7000000000000001, 192.0, 0.0, 0.0, 0.0, 0.0, 0.0, 0.0, 0.0, 0.0, 0.0, 1.739537178800526E9, 0.0, 2025-02-14 09:46:18.800
50.0, -74077.16799702264, -110994.02439523034, -174572.01922798387, -149983.02161491176, -159105.81905911196, -151471.24546423502, -133261.12279428515, -160229.0165697356, 0.342, 0.612, 0.7000000000000001, 192.0, 0.0, 0.0, 0.0, 0.0, 0.0, 0.0, 0.0, 0.0, 0.0, 1.739537178800537E9, 0.0, 2025-02-14 09:46:18.800
51.0, -74199.3649839598, -110985.95541548198, -174546.91821896055, -149963.97792863584, -159158.14449288184, -151476.8557520933, -133273.63977118014, -160228.07779646848, 0.342, 0.612, 0.7000000000000001, 192.0, 0.0, 0.0, 0.0, 0.0, 0.0, 0.0, 0.0, 0.0, 0.0, 1.7395371788005488E9, 0.0, 2025-02-14 09:46:18.800
52.0, -74267.49310105958, -111050.2613842799, -174578.9035652761, -150009.5084320913, -159136.306838549, -151534.63501151025, -133282.6028207067, -160282.21372153924, 0.342, 0.612, 0.7000000000000001, 192.0, 0.0, 0.0, 0.0, 0.0, 0.0, 0.0, 0.0, 0.0, 0.0, 1.7395371788005605E9, 0.0, 2025-02-14 09:46:18.800
53.0, -74387.38785831784, -111131.73349281949, -174673.3843890887, -150103.76573845933, -159172.6731267778, -151610.96621882514, -133349.94862675056, -160364.8034173016, 0.342, 0.612, 0.7000000000000001, 192.0, 0.0, 0.0, 0.0, 0.0, 0.0, 0.0, 0.0, 0.0, 0.0, 1.739537178800572E9, 0.0, 2025-02-14 09:46:18.800
54.0, -74589.24646249371, -111108.71119603053, -174684.7837787609, -150113.84637520867, -159282.57665426453, -151601.71259662064, -133400.97765934202, -160357.42734163135, 0.342, 0.612, 0.7000000000000001, 192.0, 0.0, 0.0, 0.0, 0.0, 0.0, 0.0, 0.0, 0.0, 0.0, 1.7395371788005836E9, 0.0, 2025-02-14 09:46:18.800
55.0, -74741.75241491228, -111103.1232599167, -174661.78383371638, -150089.3712150301, -159321.75926229468, -151594.06830001692, -133406.31972626684, -160361.093027722, 0.342, 0.612, 0.7000000000000001, 192.0, 0.0, 0.0, 0.0, 0.0, 0.0, 0.0, 0.0, 0.0, 0.0, 1.7395371788005948E9, 0.0, 2025-02-14 09:46:18.800
56.0, -74782.92432819895, -111219.82171771786, -174739.0538142984, -150163.08726824372, -159284.76712522117, -151696.05930996648, -133446.46345930858, -160465.85565398404, 0.342, 0.612, 0.7000000000000001, 192.0, 0.0, 0.0, 0.0, 0.0, 0.0, 0.0, 0.0, 0.0, 0.0, 1.7395371788006065E9, 0.0, 2025-02-14 09:46:18.800
57.0, -74850.29248598724, -111339.04592264247, -174866.6152199048, -150295.09667099675, -159322.29570416163, -151813.80829975705, -133538.75381216453, -160577.56967277167, 0.35000000000000003, 0.618, 0.714, 192.0, 10.0, 240.0, 19.0, 80.0, 22.0, 80.0, 0.0, 0.0, 0.0, 1.7395371788006194E9, 0.0, 2025-02-14 09:46:18.800
58.0, -75023.85378168272, -111343.76214072254, -174910.49169427057, -150337.9226133731, -159452.69578131387, -151827.55462259706, -133613.87802527883, -160590.89131246702, 0.35000000000000003, 0.618, 0.714, 192.0, 0.0, 0.0, 0.0, 0.0, 0.0, 0.0, 0.0, 0.0, 0.0, 1.7395371788006313E9, 0.0, 2025-02-14 09:46:18.800
59.0, -75177.52202481295, -111339.91764067623, -174900.34400228786, -150320.06356955334, -159533.43028228646, -151820.84909926046, -133637.52617091255, -160591.0477746782, 0.35000000000000003, 0.618, 0.714, 192.0, 0.0, 0.0, 0.0, 0.0, 0.0, 0.0, 0.0, 0.0, 0.0, 1.7395371788006427E9, 0.0, 2025-02-14 09:46:18.800
60.0, -75213.26246419697, -111459.70063921221, -174970.03674149953, -150390.18099190964, -159517.58289546764, -151925.03058016667, -133681.89438365633, -160697.68794747448, 0.35000000000000003, 0.618, 0.714, 192.0, 0.0, 0.0, 0.0, 0.0, 0.0, 0.0, 0.0, 0.0, 0.0, 1.73953717880067E9, 0.0, 2025-02-14 09:46:18.800
61.0, -75251.55100244892, -111600.8966089364, -175106.829417566, -150536.74138030308, -159548.2047853714, -152064.6842795234, -133784.04185581708, -160829.27266708287, 0.35000000000000003, 0.618, 0.714, 192.0, 0.0, 0.0, 0.0, 0.0, 0.0, 0.0, 0.0, 0.0, 0.0, 1.7395371788006816E9, 0.0, 2025-02-14 09:46:18.800
62.0, -75403.27464381154, -111624.00831270318, -175176.56686026655, -150609.38454978282, -159678.1354758901, -152101.27408519675, -133878.7014935853, -160862.04032445437, 0.35000000000000003, 0.618, 0.714, 192.0, 0.0, 0.0, 0.0, 0.0, 0.0, 0.0, 0.0, 0.0, 0.0, 1.739537178800693E9, 0.0, 2025-02-14 09:46:18.800
63.0, -75562.55317480006, -111608.07151890654, -175170.107206119, -150594.49828797558, -159776.4160962601, -152093.38391940403, -133913.6596219134, -160860.63216455368, 0.35000000000000003, 0.618, 0.714, 192.0, 0.0, 0.0, 0.0, 0.0, 0.0, 0.0, 0.0, 0.0, 0.0, 1.7395371788007045E9, 0.0, 2025-02-14 09:46:18.800
64.0, -75604.12741948693, -111700.63009269597, -175226.38889865743, -150644.3650298554, -159776.34904102673, -152181.89682744705, -133955.92677067837, -160955.60472674426, 0.35000000000000003, 0.618, 0.714, 192.0, 0.0, 0.0, 0.0, 0.0, 0.0, 0.0, 0.0, 0.0, 0.0, 1.739537178800717E9, 0.0, 2025-02-14 09:46:18.800
65.0, -75621.0476900396, -111850.05150437969, -175369.8423945716, -150789.36079613696, -159798.79019245986, -152333.08402694276, -134054.45326023738, -161101.47221105962, 0.35000000000000003, 0.618, 0.714, 192.0, 0.0, 0.0, 0.0, 0.0, 0.0, 0.0, 0.0, 0.0, 0.0, 1.7395371788007283E9, 0.0, 2025-02-14 09:46:18.800
66.0, -75747.4244531899, -111899.94059800394, -175463.60796256163, -150883.8192682051, -159928.94440042312, -152394.1713445391, -134153.56089515222, -161159.43028443222, 0.35000000000000003, 0.618, 0.714, 192.0, 0.0, 0.0, 0.0, 0.0, 0.0, 0.0, 0.0, 0.0, 0.0, 1.7395371788007395E9, 0.0, 2025-02-14 09:46:18.800
67.0, -75912.15680982552, -111887.28951064224, -175467.87714575257, -150878.09722162454, -160054.3376868174, -152384.7612601234, -134197.3256107957, -161152.76946458453, 0.34400000000000003, 0.62, 0.718, 192.0, 10.0, 192.0, 19.0, 96.0, 22.0, 112.0, 0.0, 0.0, 0.0, 1.7395371788007512E9, 0.0, 2025-02-14 09:46:18.800
68.0, -75971.433636121, -111966.57114822521, -175513.5864631637, -150917.30218139914, -160073.49313181557, -152456.26449063595, -134232.70842226845, -161231.11232890037, 0.34400000000000003, 0.62, 0.718, 192.0, 0.0, 0.0, 0.0, 0.0, 0.0, 0.0, 0.0, 0.0, 0.0, 1.7395371788007631E9, 0.0, 2025-02-14 09:46:18.800
69.0, -75976.19455768997, -112128.24131587044, -175650.1109182967, -151060.7109738244, -160080.9809662081, -152610.13389946628, -134318.38265876565, -161381.29369989558, 0.34400000000000003, 0.62, 0.718, 192.0, 0.0, 0.0, 0.0, 0.0, 0.0, 0.0, 0.0, 0.0, 0.0, 1.7395371788007746E9, 0.0, 2025-02-14 09:46:18.800
70.0, -76079.0572856733, -112202.76203188444, -175751.65489335716, -151176.51536184733, -160196.1148018974, -152696.36692957484, -134427.14624728516, -161460.64239271195, 0.34400000000000003, 0.62, 0.718, 192.0, 0.0, 0.0, 0.0, 0.0, 0.0, 0.0, 0.0, 0.0, 0.0, 1.739537178800786E9, 0.0, 2025-02-14 09:46:18.800
71.0, -76245.46602314306, -112189.68626137808, -175765.31180921936, -151184.11495496213, -160332.8404227305, -152684.27463582452, -134484.67963751312, -161453.08750308605, 0.34400000000000003, 0.62, 0.718, 192.0, 0.0, 0.0, 0.0, 0.0, 0.0, 0.0, 0.0, 0.0, 0.0, 1.7395371788007977E9, 0.0, 2025-02-14 09:46:18.800
72.0, -76319.69616647913, -112252.11468364176, -175794.21261480005, -151201.191687726, -160365.83159754655, -152731.92855500325, -134515.43563788364, -161502.99894845474, 0.34400000000000003, 0.62, 0.718, 192.0, 0.0, 0.0, 0.0, 0.0, 0.0, 0.0, 0.0, 0.0, 0.0, 1.7395371788008091E9, 0.0, 2025-02-14 09:46:18.800
73.0, -76318.17624785617, -112406.60994131684, -175920.74584016154, -151332.55288988983, -160365.76454231318, -152881.70759459827, -134592.83972893236, -161650.43105488195, 0.34400000000000003, 0.62, 0.718, 192.0, 0.0, 0.0, 0.0, 0.0, 0.0, 0.0, 0.0, 0.0, 0.0, 1.7395371788008206E9, 0.0, 2025-02-14 09:46:18.800
74.0, -76397.01085055004, -112501.24722734062, -176043.1439927988, -151460.58368212983, -160468.0237731962, -152982.62572081396, -134710.74518093411, -161749.76220724132, 0.34400000000000003, 0.62, 0.718, 192.0, 0.0, 0.0, 0.0, 0.0, 0.0, 0.0, 0.0, 0.0, 0.0, 1.739537178800832E9, 0.0, 2025-02-14 09:46:18.800
75.0, -76563.39723627536, -112492.88767491432, -176068.17794658875, -151478.77800211645, -160620.46267038138, -152979.89880799042, -134783.92479228077, -161744.4201403165, 0.34400000000000003, 0.62, 0.718, 192.0, 0.0, 0.0, 0.0, 0.0, 0.0, 0.0, 0.0, 0.0, 0.0, 1.739537178800871E9, 0.0, 2025-02-14 09:46:18.800
76.0, -76658.23568799921, -112532.58437306696, -176087.57926077596, -151486.62346442026, -160679.11364783213, -153010.99008452776, -134813.85377810642, -161779.691193067, 0.34400000000000003, 0.62, 0.718, 192.0, 0.0, 0.0, 0.0, 0.0, 0.0, 0.0, 0.0, 0.0, 0.0, 1.7395371788008828E9, 0.0, 2025-02-14 09:46:18.800
77.0, -76657.095749032, -112682.72104057325, -176202.31076506505, -151604.1936402552, -160676.2302727974, -153149.66030712848, -134881.91483997286, -161918.40611915663, 0.34600000000000003, 0.622, 0.716, 192.0, 10.0, 208.0, 19.0, 112.0, 22.0, 96.0, 0.0, 0.0, 0.0, 1.7395371788008945E9, 0.0, 2025-02-14 09:46:18.800
78.0, -76715.92554043836, -112801.09587920856, -176331.70501371683, -151746.66365941332, -160759.84814880468, -153271.09733475416, -134996.86986170648, -162040.4019403937, 0.34600000000000003, 0.622, 0.716, 192.0, 0.0, 0.0, 0.0, 0.0, 0.0, 0.0, 0.0, 0.0, 0.0, 1.7395371788009067E9, 0.0, 2025-02-14 09:46:18.800
79.0, -76876.18754818292, -112800.73825129727, -176366.41727285594, -151787.18737211078, -160910.40949945565, -153283.4802011824, -135078.878412113, -162053.43300741113, 0.34600000000000003, 0.622, 0.716, 192.0, 0.0, 0.0, 0.0, 0.0, 0.0, 0.0, 0.0, 0.0, 0.0, 1.739537178800918E9, 0.0, 2025-02-14 09:46:18.800
80.0, -76989.89087222706, -112813.38933865898, -176370.41823511344, -151783.58874125348, -160989.0429364494, -153297.4723932114, -135112.2942700737, -162074.91303383268, 0.34600000000000003, 0.622, 0.716, 192.0, 0.0, 0.0, 0.0, 0.0, 0.0, 0.0, 0.0, 0.0, 0.0, 1.7395371788009295E9, 0.0, 2025-02-14 09:46:18.800
81.0, -76994.98706996287, -112954.42884617197, -176471.2022508624, -151877.9578063438, -160986.96422421507, -153424.9667435845, -135168.84418354562, -162203.01088130605, 0.34600000000000003, 0.622, 0.716, 192.0, 0.0, 0.0, 0.0, 0.0, 0.0, 0.0, 0.0, 0.0, 0.0, 1.739537178800941E9, 0.0, 2025-02-14 09:46:18.800
82.0, -77032.04626226977, -113094.44017344, -176614.70045026546, -152031.58134598512, -161044.38585572076, -153557.17731203765, -135282.10047270067, -162337.59073467145, 0.34600000000000003, 0.622, 0.716, 192.0, 0.0, 0.0, 0.0, 0.0, 0.0, 0.0, 0.0, 0.0, 0.0, 1.7395371788009565E9, 0.0, 2025-02-14 09:46:18.800
83.0, -77182.40644722062, -113112.07569981525, -176684.14732028812, -152102.36932067506, -161198.36702327337, -153539.89941357367, -135385.96902918446, -162371.2301100767, 0.34600000000000003, 0.622, 0.716, 192.0, 0.0, 0.0, 0.0, 0.0, 0.0, 0.0, 0.0, 0.0, 0.0, 1.7395371788009686E9, 0.0, 2025-02-14 09:46:18.800
84.0, -77313.99116682902, -113121.70930167548, -176699.27945128435, -152110.41594867897, -161302.70496639074, -153501.11913694371, -135433.84646580773, -162384.50704628314, 0.34600000000000003, 0.622, 0.716, 192.0, 0.0, 0.0, 0.0, 0.0, 0.0, 0.0, 0.0, 0.0, 0.0, 1.7395371788009808E9, 0.0, 2025-02-14 09:46:18.800
85.0, -77330.1961815591, -113259.0831230978, -176778.35992316724, -152187.9094467055, -161304.2248850137, -153605.41237657217, -135486.3730652777, -162493.2035795693, 0.34600000000000003, 0.622, 0.716, 192.0, 0.0, 0.0, 0.0, 0.0, 0.0, 0.0, 0.0, 0.0, 0.0, 1.7395371788009927E9, 0.0, 2025-02-14 09:46:18.800
86.0, -77350.37980680226, -113416.5735145299, -176923.08746851535, -152341.48828285793, -161344.25685933314, -153754.72202953364, -135594.1084735523, -162635.0924533716, 0.34600000000000003, 0.622, 0.716, 192.0, 0.0, 0.0, 0.0, 0.0, 0.0, 0.0, 0.0, 0.0, 0.0, 1.7395371788010063E9, 0.0, 2025-02-14 09:46:18.801
87.0, -77482.70213397767, -113449.38587539029, -176995.99885892856, -152421.2393070745, -161486.36925058, -153803.6052946574, -135691.1820997217, -162682.56755859466, 0.342, 0.63, 0.714, 192.0, 10.0, 176.0, 19.0, 176.0, 22.0, 80.0, 0.0, 0.0, 0.0, 1.7395371788010185E9, 0.0, 2025-02-14 09:46:18.801
88.0, -77626.87088571441, -113444.75906428804, -176994.5683472834, -152410.7786906694, -161598.37384204555, -153793.47995441913, -135732.80104789746, -162686.63557608554, 0.342, 0.63, 0.714, 192.0, 0.0, 0.0, 0.0, 0.0, 0.0, 0.0, 0.0, 0.0, 0.0, 1.739537178801031E9, 0.0, 2025-02-14 09:46:18.801
89.0, -77658.69976981876, -113548.91819344976, -177058.00259804758, -152467.26154890796, -161605.6381589935, -153880.9199787283, -135776.87868796333, -162778.5683010302, 0.342, 0.63, 0.714, 192.0, 0.0, 0.0, 0.0, 0.0, 0.0, 0.0, 0.0, 0.0, 0.0, 1.7395371788010433E9, 0.0, 2025-02-14 09:46:18.801
90.0, -77663.37128440992, -113706.38623313741, -177205.5688149415, -152624.23785021759, -161628.7945662492, -154033.78355905815, -135875.82986066697, -162924.68165453454, 0.342, 0.63, 0.714, 192.0, 0.0, 0.0, 0.0, 0.0, 0.0, 0.0, 0.0, 0.0, 0.0, 1.739537178801062E9, 0.0, 2025-02-14 09:46:18.801
91.0, -77779.64505906643, -113759.87395761895, -177301.83777831052, -152726.07239795596, -161759.5299195683, -154100.3694057905, -135986.98508584322, -162989.38995473267, 0.342, 0.63, 0.714, 192.0, 0.0, 0.0, 0.0, 0.0, 0.0, 0.0, 0.0, 0.0, 0.0, 1.7395371788010747E9, 0.0, 2025-02-14 09:46:18.801
92.0, -77934.96733128636, -113746.12763477894, -177305.03407776763, -152729.2016421797, -161890.68995603203, -154095.76494643273, -136041.6574527809, -162988.1606087876, 0.342, 0.63, 0.714, 192.0, 0.0, 0.0, 0.0, 0.0, 0.0, 0.0, 0.0, 0.0, 0.0, 1.739537178801087E9, 0.0, 2025-02-14 09:46:18.801
93.0, -77983.47061675438, -113828.78438577466, -177348.12824107747, -152770.37355546636, -161913.08640397625, -154162.61901409854, -136075.49799388624, -163065.11766494723, 0.342, 0.63, 0.714, 192.0, 0.0, 0.0, 0.0, 0.0, 0.0, 0.0, 0.0, 0.0, 0.0, 1.739537178801099E9, 0.0, 2025-02-14 09:46:18.801
94.0, -77977.99443936282, -113989.24755921932, -177491.71584745837, -152916.03987408162, -161924.28462794836, -154315.8178705952, -136164.8379164741, -163216.03664350946, 0.342, 0.63, 0.714, 192.0, 0.0, 0.0, 0.0, 0.0, 0.0, 0.0, 0.0, 0.0, 0.0, 1.7395371788011112E9, 0.0, 2025-02-14 09:46:18.801
95.0, -78071.00004804136, -114061.6672112545, -177606.2238343029, -153038.39332322995, -162045.67695208514, -154405.202496672, -136280.0164556523, -163292.05492640196, 0.342, 0.63, 0.714, 192.0, 0.0, 0.0, 0.0, 0.0, 0.0, 0.0, 0.0, 0.0, 0.0, 1.7395371788011236E9, 0.0, 2025-02-14 09:46:18.801
96.0, -78227.79753539534, -114043.60700173462, -177615.6786222075, -153046.23878553376, -162194.3831079463, -154401.2462379034, -136336.2757964463, -163288.1433711223, 0.342, 0.63, 0.714, 192.0, 0.0, 0.0, 0.0, 0.0, 0.0, 0.0, 0.0, 0.0, 0.0, 1.739537178801136E9, 0.0, 2025-02-14 09:46:18.801
97.0, -78295.85859726174, -114100.80511579575, -177641.76310798683, -153065.93067239888, -162230.10119558588, -154453.7951891178, -136374.3408172537, -163343.12866248234, 0.342, 0.634, 0.718, 192.0, 10.0, 176.0, 19.0, 208.0, 22.0, 112.0, 0.0, 0.0, 0.0, 1.7395371788011482E9, 0.0, 2025-02-14 09:46:18.801
98.0, -78287.58845181328, -114255.18861474856, -177774.0630834178, -153201.18107809796, -162231.10702408638, -154602.2331240455, -136463.0101875079, -163493.31003347755, 0.342, 0.634, 0.718, 192.0, 0.0, 0.0, 0.0, 0.0, 0.0, 0.0, 0.0, 0.0, 0.0, 1.7395371788011608E9, 0.0, 2025-02-14 09:46:18.801
99.0, -78360.45513873758, -114358.07369447633, -177903.27851811392, -153338.53254777583, -162334.10386253643, -154706.34754971834, -136578.14402319718, -163596.0162992497, 0.342, 0.634, 0.718, 192.0, 0.0, 0.0, 0.0, 0.0, 0.0, 0.0, 0.0, 0.0, 0.0, 1.739537178801173E9, 0.0, 2025-02-14 09:46:18.801
100.0, -78518.99606215907, -114352.35164789578, -177929.22889342654, -153363.00770795438, -162490.4543150013, -154712.27076199898, -136649.2002188206, -163601.78304931917, 0.342, 0.634, 0.718, 192.0, 0.0, 0.0, 0.0, 0.0, 0.0, 0.0, 0.0, 0.0, 0.0, 1.739537178801185E9, 0.0, 2025-02-14 09:46:18.801
101.0, -78610.03471732554, -114393.61296816028, -177945.88094304575, -153372.73071679243, -162545.99839997274, -154745.8654339153, -136677.38576857874, -163640.29510501566, 0.342, 0.634, 0.718, 192.0, 0.0, 0.0, 0.0, 0.0, 0.0, 0.0, 0.0, 0.0, 0.0, 1.7395371788011968E9, 0.0, 2025-02-14 09:46:18.801
102.0, -78605.98905157913, -114552.01978111504, -178065.37336890382, -153491.39612810567, -162530.53099280965, -154889.05070889601, -136747.4361357017, -163778.92062412747, 0.342, 0.634, 0.718, 192.0, 0.0, 0.0, 0.0, 0.0, 0.0, 0.0, 0.0, 0.0, 0.0, 1.739537178801209E9, 0.0, 2025-02-14 09:46:18.801
103.0, -78659.61088652741, -114672.3168697735, -178204.46827464917, -153639.7223043111, -162609.99144434827, -155014.51105052367, -136860.75948009008, -163898.12247730762, 0.342, 0.634, 0.718, 192.0, 0.0, 0.0, 0.0, 0.0, 0.0, 0.0, 0.0, 0.0, 0.0, 1.7395371788012211E9, 0.0, 2025-02-14 09:46:18.801
104.0, -78813.81557152458, -114671.02046859509, -178244.567304202, -153680.69305189766, -162766.45365553544, -155026.0445506626, -136937.6718327608, -163914.77452692683, 0.342, 0.634, 0.718, 192.0, 0.0, 0.0, 0.0, 0.0, 0.0, 0.0, 0.0, 0.0, 0.0, 1.7395371788012395E9, 0.0, 2025-02-14 09:46:18.801
105.0, -78922.24388387727, -114688.29836705905, -178251.00460660513, -153678.39082221876, -162845.2435547404, -155042.27191713714, -136970.43949013227, -163939.4955562944, 0.342, 0.634, 0.718, 192.0, 0.0, 0.0, 0.0, 0.0, 0.0, 0.0, 0.0, 0.0, 0.0, 1.739537178801252E9, 0.0, 2025-02-14 09:46:18.801
106.0, -78921.34981409906, -114825.24750533671, -178350.98395955373, -153773.00575649808, -162842.06960702772, -155166.61467154202, -137031.37034551744, -164072.73430499248, 0.342, 0.634, 0.718, 192.0, 0.0, 0.0, 0.0, 0.0, 0.0, 0.0, 0.0, 0.0, 0.0, 1.7395371788012643E9, 0.0, 2025-02-14 09:46:18.801
107.0, -78951.8375935361, -114961.41433255844, -178502.34997300507, -153923.25418272664, -162898.93244492204, -155308.7047110444, -137143.374936983, -164209.0128909365, 0.34, 0.628, 0.712, 192.0, 10.0, 160.0, 19.0, 160.0, 22.0, 64.0, 0.0, 0.0, 0.0, 1.739537178801278E9, 0.0, 2025-02-14 09:46:18.801
108.0, -79095.20168247244, -114979.74276301179, -178563.5937528126, -153986.599026513, -163049.47144382852, -155343.99811553935, -137240.35915617456, -164239.6124290958, 0.34, 0.628, 0.712, 192.0, 0.0, 0.0, 0.0, 0.0, 0.0, 0.0, 0.0, 0.0, 0.0, 1.7395371788012908E9, 0.0, 2025-02-14 09:46:18.801
109.0, -79220.88554154463, -114980.16744615644, -178562.9455522234, -153979.2900060761, -163144.8686891638, -155351.7094673764, -137281.1063863166, -164255.41511242572, 0.34, 0.628, 0.712, 192.0, 0.0, 0.0, 0.0, 0.0, 0.0, 0.0, 0.0, 0.0, 0.0, 1.739537178801303E9, 0.0, 2025-02-14 09:46:18.801
110.0, -79231.77084109436, -115106.23128488437, -178646.89870439755, -154059.108085526, -163138.63255246074, -155459.33311692873, -137331.88954971905, -164369.83369229242, 0.34, 0.628, 0.712, 192.0, 0.0, 0.0, 0.0, 0.0, 0.0, 0.0, 0.0, 0.0, 0.0, 1.7395371788013148E9, 0.0, 2025-02-14 09:46:18.801
111.0, -79245.58421916774, -115259.96658324798, -178799.87404344967, -154215.659703691, -163180.94440471465, -155603.50186866545, -137439.55790276025, -164513.60011262895, 0.34, 0.628, 0.712, 192.0, 0.0, 0.0, 0.0, 0.0, 0.0, 0.0, 0.0, 0.0, 0.0, 1.7395371788013346E9, 0.0, 2025-02-14 09:46:18.801
112.0, -79374.35261897476, -115297.71867963299, -178880.16150953312, -154296.55066687474, -163325.98487448512, -155646.8419011643, -137540.58778769826, -164557.2307178057, 0.34, 0.628, 0.712, 192.0, 0.0, 0.0, 0.0, 0.0, 0.0, 0.0, 0.0, 0.0, 0.0, 1.7395371788013473E9, 0.0, 2025-02-14 09:46:18.801
113.0, -79515.03449857647, -115292.13074351917, -178881.25674501143, -154291.3203586722, -163443.80091950906, -155641.92451738412, -137583.234916119, -164556.1801858163, 0.34, 0.628, 0.712, 192.0, 0.0, 0.0, 0.0, 0.0, 0.0, 0.0, 0.0, 0.0, 0.0, 1.7395371788013594E9, 0.0, 2025-02-14 09:46:18.801
114.0, -79543.75649020154, -115398.34623317079, -178946.81441149884, -154345.90331863204, -163454.10507370296, -155732.38202719475, -137621.56815785985, -164647.4647101718, 0.34, 0.628, 0.712, 192.0, 0.0, 0.0, 0.0, 0.0, 0.0, 0.0, 0.0, 0.0, 0.0, 1.7395371788013728E9, 0.0, 2025-02-14 09:46:18.801
115.0, -79545.18700184667, -115560.70930489413, -179100.86263428483, -154501.09148038525, -163476.4791699027, -155891.6382064388, -137721.4581038306, -164796.52849394424, 0.34, 0.628, 0.712, 192.0, 0.0, 0.0, 0.0, 0.0, 0.0, 0.0, 0.0, 0.0, 0.0, 1.739537178801385E9, 0.0, 2025-02-14 09:46:18.801
116.0, -79656.83396540093, -115623.58476204691, -179203.3453826124, -154607.32932178132, -163607.48274415528, -155968.17057945378, -137828.9252911717, -164858.912212719, 0.34, 0.628, 0.712, 192.0, 0.0, 0.0, 0.0, 0.0, 0.0, 0.0, 0.0, 0.0, 0.0, 1.739537178801397E9, 0.0, 2025-02-14 09:46:18.801
117.0, -79808.71406897475, -115611.31365434095, -179212.42019086127, -154606.8822868922, -163746.13061501153, -155958.89460550484, -137885.63166685484, -164856.7664452513, 0.34600000000000003, 0.628, 0.714, 192.0, 10.0, 208.0, 19.0, 160.0, 22.0, 80.0, 0.0, 0.0, 0.0, 1.7395371788014092E9, 0.0, 2025-02-14 09:46:18.801
118.0, -79857.12794746495, -115693.99275708113, -179262.5551536745, -154645.50610131098, -163766.44835072142, -156027.8720888939, -137927.4070772418, -164932.91883861052, 0.34600000000000003, 0.628, 0.714, 192.0, 0.0, 0.0, 0.0, 0.0, 0.0, 0.0, 0.0, 0.0, 0.0, 1.739537178801422E9, 0.0, 2025-02-14 09:46:18.801
119.0, -79851.09297646201, -115858.61335499446, -179419.17382707284, -154795.5757135839, -163770.18109204544, -156184.08843089206, -138019.71978184223, -165083.03315437236, 0.34600000000000003, 0.628, 0.714, 192.0, 0.0, 0.0, 0.0, 0.0, 0.0, 0.0, 0.0, 0.0, 0.0, 1.7395371788014407E9, 0.0, 2025-02-14 09:46:18.801
120.0, -79939.3153118271, -115935.45865243181, -179548.3222065356, -154916.14102317585, -163888.0418405583, -156273.80833313565, -138133.1995884418, -165167.2768792244, 0.34600000000000003, 0.628, 0.714, 192.0, 0.0, 0.0, 0.0, 0.0, 0.0, 0.0, 0.0, 0.0, 0.0, 1.7395371792795324E9, 0.0, 2025-02-14 09:46:19.279
121.0, -80093.87762473556, -115920.8629633025, -179563.7896136987, -154921.14781393384, -164034.84809814073, -156270.81319937864, -138195.00216186073, -165167.85802458026, 0.34600000000000003, 0.628, 0.714, 192.0, 0.0, 0.0, 0.0, 0.0, 0.0, 0.0, 0.0, 0.0, 0.0, 1.7395371792795904E9, 0.0, 2025-02-14 09:46:19.279
122.0, -80162.36336974661, -115976.92113839641, -179588.22007038834, -154938.3139536755, -164079.8198079848, -156317.5954005236, -138231.05552566715, -165222.75390896248, 0.34600000000000003, 0.628, 0.714, 192.0, 0.0, 0.0, 0.0, 0.0, 0.0, 0.0, 0.0, 0.0, 0.0, 1.739537179279606E9, 0.0, 2025-02-14 09:46:19.279
123.0, -80153.37796847559, -116137.58547754116, -179725.5715400662, -155069.07165873906, -164082.61377604172, -156468.06734419672, -138316.7521139088, -165372.04121017948, 0.34600000000000003, 0.628, 0.714, 192.0, 0.0, 0.0, 0.0, 0.0, 0.0, 0.0, 0.0, 0.0, 0.0, 1.7395371792796192E9, 0.0, 2025-02-14 09:46:19.279
124.0, -80221.0814024307, -116236.84957466717, -179876.66933258408, -155209.127689496, -164185.6553179807, -156580.38486008465, -138435.28341475528, -165473.67459221778, 0.34600000000000003, 0.628, 0.714, 192.0, 0.0, 0.0, 0.0, 0.0, 0.0, 0.0, 0.0, 0.0, 0.0, 1.7395371792796316E9, 0.0, 2025-02-14 09:46:19.279
125.0, -80376.44837813954, -116227.9312286295, -179916.14251329214, -155236.30741075368, -164337.82599423244, -156585.88338922066, -138508.66419180206, -165474.74747595162, 0.34600000000000003, 0.628, 0.714, 192.0, 0.0, 0.0, 0.0, 0.0, 0.0, 0.0, 0.0, 0.0, 0.0, 1.739537179279644E9, 0.0, 2025-02-14 09:46:19.279
126.0, -80465.72124549405, -116264.36457209165, -179930.33587102126, -155239.28019276622, -164398.08629728394, -156612.88429652265, -138540.4483724175, -165513.79597351505, 0.34600000000000003, 0.628, 0.714, 192.0, 0.0, 0.0, 0.0, 0.0, 0.0, 0.0, 0.0, 0.0, 0.0, 1.7395371792796564E9, 0.0, 2025-02-14 09:46:19.279
127.0, -80458.97101866854, -116419.55273384486, -180050.23062827953, -155355.73278137838, -164389.83850357993, -156748.6934958331, -138608.44237905054, -165652.2426786712, 0.34800000000000003, 0.63, 0.716, 192.0, 10.0, 224.0, 19.0, 176.0, 22.0, 96.0, 0.0, 0.0, 0.0, 1.7395371792796688E9, 0.0, 2025-02-14 09:46:19.279
128.0, -80505.23912969102, -116541.012113215, -180201.75310394206, -155509.89276288662, -164463.37574283787, -156874.8243897944, -138721.45279901658, -165770.93044172888, 0.34800000000000003, 0.63, 0.716, 192.0, 0.0, 0.0, 0.0, 0.0, 0.0, 0.0, 0.0, 0.0, 0.0, 1.7395371792796824E9, 0.0, 2025-02-14 09:46:19.279
129.0, -80654.97346579713, -116539.24632540302, -180255.12906970133, -155554.6633070306, -164619.41327088038, -156887.52018064502, -138804.3107157124, -165789.70590707136, 0.34800000000000003, 0.63, 0.716, 192.0, 0.0, 0.0, 0.0, 0.0, 0.0, 0.0, 0.0, 0.0, 0.0, 1.739537179279695E9, 0.0, 2025-02-14 09:46:19.279
130.0, -80764.20644095022, -116555.76426455549, -180257.2971889135, -155546.63903077116, -164698.4266875299, -156898.29372147247, -138837.61481495082, -165817.15384926248, 0.34800000000000003, 0.63, 0.716, 192.0, 0.0, 0.0, 0.0, 0.0, 0.0, 0.0, 0.0, 0.0, 0.0, 1.739537179279708E9, 0.0, 2025-02-14 09:46:19.279
131.0, -80767.33568517395, -116693.56276912247, -180340.33391956496, -155636.24717429248, -164691.25177755975, -157026.6150863904, -138898.21039416915, -165946.10106302513, 0.34800000000000003, 0.63, 0.716, 192.0, 0.0, 0.0, 0.0, 0.0, 0.0, 0.0, 0.0, 0.0, 0.0, 1.73953717927972E9, 0.0, 2025-02-14 09:46:19.279
132.0, -80798.89634834485, -116833.50704115714, -180480.92639218885, -155789.93776916715, -164752.42850213393, -157172.37081198345, -139013.4559885807, -166083.8995675921, 0.34800000000000003, 0.63, 0.716, 192.0, 0.0, 0.0, 0.0, 0.0, 0.0, 0.0, 0.0, 0.0, 0.0, 1.7395371792797322E9, 0.0, 2025-02-14 09:46:19.279
133.0, -80940.4052424914, -116853.17657627781, -180547.55694241013, -155855.47308391012, -164908.6224923876, -157204.46791702128, -139105.54517573657, -166115.50493425192, 0.34800000000000003, 0.63, 0.716, 192.0, 0.0, 0.0, 0.0, 0.0, 0.0, 0.0, 0.0, 0.0, 0.0, 1.7395371792797444E9, 0.0, 2025-02-14 09:46:19.279
134.0, -81068.01135158674, -116850.09203554298, -180546.93109356536, -155850.6898105967, -165006.52313310184, -157206.9042571669, -139147.5441035681, -166121.3610912992, 0.34800000000000003, 0.63, 0.716, 192.0, 0.0, 0.0, 0.0, 0.0, 0.0, 0.0, 0.0, 0.0, 0.0, 1.739537179279795E9, 0.0, 2025-02-14 09:46:19.279
135.0, -81082.62939246051, -116969.69622012333, -180565.59480018556, -155925.92578243325, -165000.5999208212, -157312.29273227367, -139200.2495169937, -166225.29670301639, 0.34800000000000003, 0.63, 0.716, 192.0, 0.0, 0.0, 0.0, 0.0, 0.0, 0.0, 0.0, 0.0, 0.0, 1.7395371792798085E9, 0.0, 2025-02-14 09:46:19.279
136.0, -81095.50399726677, -117124.07971907614, -180577.5306317247, -156079.86224649695, -165040.38602595165, -157461.02123987928, -139306.7332275788, -166366.023286107, 0.34800000000000003, 0.63, 0.716, 192.0, 0.0, 0.0, 0.0, 0.0, 0.0, 0.0, 0.0, 0.0, 0.0, 1.739537179279821E9, 0.0, 2025-02-14 09:46:19.279
137.0, -81221.14315285005, -117164.93870794043, -180575.18369855688, -156161.98255562576, -165184.71123989957, -157511.26796141482, -139405.63969679354, -166415.80062100897, 0.34600000000000003, 0.632, 0.714, 192.0, 10.0, 208.0, 19.0, 192.0, 22.0, 80.0, 0.0, 0.0, 0.0, 1.7395371792798333E9, 0.0, 2025-02-14 09:46:19.279
138.0, -81363.76963421937, -117160.26719334927, -180570.15455605442, -156155.79112241164, -165301.92378782318, -157504.45067935594, -139446.99042403584, -166414.45951634165, 0.34600000000000003, 0.632, 0.714, 192.0, 0.0, 0.0, 0.0, 0.0, 0.0, 0.0, 0.0, 0.0, 0.0, 1.7395371792798464E9, 0.0, 2025-02-14 09:46:19.279
139.0, -81397.23019566896, -117260.2241945534, -180568.1652507979, -156207.8706869925, -165307.3105582369, -157594.79643044432, -139487.7153024334, -166506.39224128632, 0.34600000000000003, 0.632, 0.714, 192.0, 0.0, 0.0, 0.0, 0.0, 0.0, 0.0, 0.0, 0.0, 0.0, 1.7395371792798588E9, 0.0, 2025-02-14 09:46:19.279
140.0, -81403.95807075001, -117426.14119364515, -180564.79013738516, -156361.47187488936, -165328.0753288359, -157751.25864163146, -139583.17960300203, -166660.30635360556, 0.34600000000000003, 0.632, 0.714, 192.0, 0.0, 0.0, 0.0, 0.0, 0.0, 0.0, 0.0, 0.0, 0.0, 1.7395371792798707E9, 0.0, 2025-02-14 09:46:19.279
141.0, -81515.49327558199, -117488.77078160892, -180560.8115268721, -156467.1732744185, -165453.96035360818, -157824.88528786725, -139694.3795316672, -166730.58023817305, 0.34600000000000003, 0.632, 0.714, 192.0, 0.0, 0.0, 0.0, 0.0, 0.0, 0.0, 0.0, 0.0, 0.0, 1.739537179279883E9, 0.0, 2025-02-14 09:46:19.279
142.0, -81666.25579193304, -117476.76789483642, -180556.40823321443, -156468.9390622305, -165583.8239888935, -157818.62679941976, -139747.5766834708, -166727.13806952693, 0.34600000000000003, 0.632, 0.714, 192.0, 0.0, 0.0, 0.0, 0.0, 0.0, 0.0, 0.0, 0.0, 0.0, 1.7395371792798953E9, 0.0, 2025-02-14 09:46:19.279
143.0, -81716.14488555728, -117558.15059639819, -180548.94275056635, -156498.91275154505, -165609.6849572283, -157883.60332055134, -139781.12665189823, -166795.95909070483, 0.34600000000000003, 0.632, 0.714, 192.0, 0.0, 0.0, 0.0, 0.0, 0.0, 0.0, 0.0, 0.0, 0.0, 1.7395371792799077E9, 0.0, 2025-02-14 09:46:19.279
144.0, -81711.1380947993, -117726.92861878022, -180543.98066329726, -156642.16508175913, -165616.07755614253, -158037.0033427481, -139867.51614421798, -166938.60792381858, 0.34600000000000003, 0.632, 0.714, 192.0, 0.0, 0.0, 0.0, 0.0, 0.0, 0.0, 0.0, 0.0, 0.0, 1.73953717927992E9, 0.0, 2025-02-14 09:46:19.279
145.0, -81803.07081974398, -117811.39586107682, -180540.24792197323, -156764.67499311865, -165732.4183860324, -158126.4326723138, -139979.4983839391, -167018.96244513543, 0.34600000000000003, 0.632, 0.714, 192.0, 0.0, 0.0, 0.0, 0.0, 0.0, 0.0, 0.0, 0.0, 0.0, 1.7395371792799325E9, 0.0, 2025-02-14 09:46:19.279
146.0, -81962.86344085497, -117795.61552949138, -180532.871846303, -156772.58751065584, -165883.1138471501, -158115.9273524198, -140039.7586869906, -167017.33076779018, 0.34600000000000003, 0.632, 0.714, 192.0, 0.0, 0.0, 0.0, 0.0, 0.0, 0.0, 0.0, 0.0, 0.0, 1.739537179279945E9, 0.0, 2025-02-14 09:46:19.279
147.0, -82036.69125279084, -117855.20528020922, -180527.52977937815, -156787.11614455178, -165931.0136355178, -158154.17118718283, -140070.60409433892, -167062.3918846121, 0.34800000000000003, 0.63, 0.712, 192.0, 10.0, 224.0, 19.0, 176.0, 22.0, 64.0, 0.0, 0.0, 0.0, 1.7395371792799568E9, 0.0, 2025-02-14 09:46:19.279
148.0, -82032.82440100008, -118019.87058161147, -180523.4617618873, -156914.14110829128, -165933.2711617078, -158300.865686043, -140149.55045575506, -167209.48871487245, 0.34800000000000003, 0.63, 0.712, 192.0, 0.0, 0.0, 0.0, 0.0, 0.0, 0.0, 0.0, 0.0, 0.0, 1.7395371792799697E9, 0.0, 2025-02-14 09:46:19.279
149.0, -82103.00887858974, -118128.25419047526, -180519.52785486318, -157048.87742386787, -166030.27773264382, -158408.39992861747, -140266.62889321195, -167307.32230035335, 0.34800000000000003, 0.63, 0.712, 192.0, 0.0, 0.0, 0.0, 0.0, 0.0, 0.0, 0.0, 0.0, 0.0, 1.7395371792799892E9, 0.0, 2025-02-14 09:46:19.279
150.0, -82261.28158107777, -118126.06371951864, -180516.17509319488, -157072.39145903487, -166183.4765891405, -158408.73520478432, -140341.28371969267, -167308.46223932056, 0.34800000000000003, 0.63, 0.712, 192.0, 0.0, 0.0, 0.0, 0.0, 0.0, 0.0, 0.0, 0.0, 0.0, 1.739537179280002E9, 0.0, 2025-02-14 09:46:19.280
151.0, -82353.12489904463, -118162.76528391425, -180510.47539835877, -157078.94052016028, -166245.27916255943, -158438.55243188769, -140368.44108920588, -167341.4534141366, 0.34800000000000003, 0.63, 0.712, 192.0, 0.0, 0.0, 0.0, 0.0, 0.0, 0.0, 0.0, 0.0, 0.0, 1.7395371792800145E9, 0.0, 2025-02-14 09:46:19.280
152.0, -82348.49808794238, -118313.75131770984, -180503.03226745516, -157189.15697206938, -166233.76801416493, -158577.31206146625, -140435.5410260607, -167476.10032273535, 0.34800000000000003, 0.63, 0.712, 192.0, 0.0, 0.0, 0.0, 0.0, 0.0, 0.0, 0.0, 0.0, 0.0, 1.739537179280027E9, 0.0, 2025-02-14 09:46:19.280
153.0, -82400.91292869007, -118445.02311289587, -180497.66784878587, -157330.88938366048, -166300.8008957864, -158703.82293508327, -140551.65833850604, -167591.52473110257, 0.34800000000000003, 0.63, 0.712, 192.0, 0.0, 0.0, 0.0, 0.0, 0.0, 0.0, 0.0, 0.0, 0.0, 1.739537179280039E9, 0.0, 2025-02-14 09:46:19.280
154.0, -82557.37513987723, -118451.16984262108, -180491.38700859394, -157371.904834736, -166453.86564181634, -158716.0493393003, -140632.90692960107, -167604.8687225424, 0.34800000000000003, 0.63, 0.712, 192.0, 0.0, 0.0, 0.0, 0.0, 0.0, 0.0, 0.0, 0.0, 0.0, 1.7395371792800515E9, 0.0, 2025-02-14 09:46:19.280
155.0, -82672.15134765522, -118470.52645331937, -180485.7990724801, -157362.31593636464, -166541.86445973688, -158723.49247020396, -140667.5968369957, -167624.98529255216, 0.34800000000000003, 0.63, 0.712, 192.0, 0.0, 0.0, 0.0, 0.0, 0.0, 0.0, 0.0, 0.0, 0.0, 1.7395371792800636E9, 0.0, 2025-02-14 09:46:19.280
156.0, -82677.24754539103, -118604.9945479625, -180480.97109567776, -157454.38277177606, -166541.59623880344, -158847.67876239764, -140732.43924766054, -167750.31152371306, 0.34800000000000003, 0.63, 0.712, 192.0, 0.0, 0.0, 0.0, 0.0, 0.0, 0.0, 0.0, 0.0, 0.0, 1.739537179280076E9, 0.0, 2025-02-14 09:46:19.280
157.0, -82708.29411843946, -118738.81444201642, -180475.51727003066, -157613.92952369805, -166599.35314647594, -158992.74158391258, -140849.22711243955, -167880.39867644294, 0.336, 0.63, 0.716, 192.0, 10.0, 128.0, 19.0, 176.0, 22.0, 96.0, 0.0, 0.0, 0.0, 1.7395371792800882E9, 0.0, 2025-02-14 09:46:19.280
158.0, -82849.78066084156, -118762.46258765014, -180473.1479851184, -157678.68252738507, -166749.78038666016, -159030.44897680866, -140939.0587734054, -167913.4345547479, 0.336, 0.63, 0.716, 192.0, 0.0, 0.0, 0.0, 0.0, 0.0, 0.0, 0.0, 0.0, 0.0, 1.7395371792801015E9, 0.0, 2025-02-14 09:46:19.280
159.0, -82980.1360345049, -118763.66958185073, -180465.7942611926, -157671.90994881513, -166848.888021575, -159030.20310761966, -140972.22876217708, -167914.86506639305, 0.336, 0.63, 0.716, 192.0, 0.0, 0.0, 0.0, 0.0, 0.0, 0.0, 0.0, 0.0, 0.0, 1.7395371792801137E9, 0.0, 2025-02-14 09:46:19.280
160.0, -82995.87166260144, -118879.2057489402, -180459.87104891194, -157747.83882472978, -166845.892887818, -159130.1154053349, -141017.5804516769, -168017.72779437635, 0.336, 0.63, 0.716, 192.0, 0.0, 0.0, 0.0, 0.0, 0.0, 0.0, 0.0, 0.0, 0.0, 1.739537179280126E9, 0.0, 2025-02-14 09:46:19.280
161.0, -83009.32741276354, -119030.90703855838, -180454.17135407584, -157908.6819778302, -166879.01817310075, -159281.9061019309, -141123.4606651617, -168165.96456360395, 0.336, 0.63, 0.716, 192.0, 0.0, 0.0, 0.0, 0.0, 0.0, 0.0, 0.0, 0.0, 0.0, 1.7395371792801383E9, 0.0, 2025-02-14 09:46:19.280
162.0, -83135.65947242493, -119063.38412325193, -180450.6844819408, -157995.7420224836, -167018.82833466868, -159339.7971200701, -141228.80443677955, -168222.0003869534, 0.336, 0.63, 0.716, 192.0, 0.0, 0.0, 0.0, 0.0, 0.0, 0.0, 0.0, 0.0, 0.0, 1.7395371792801504E9, 0.0, 2025-02-14 09:46:19.280
163.0, -83280.34231428413, -119043.62518115345, -180446.61646444994, -157990.57876951442, -167134.2974465248, -159335.72910257927, -141279.7440623932, -168230.44934635752, 0.336, 0.63, 0.716, 192.0, 0.0, 0.0, 0.0, 0.0, 0.0, 0.0, 0.0, 0.0, 0.0, 1.7395371792801626E9, 0.0, 2025-02-14 09:46:19.280
164.0, -83314.80870423421, -119140.58704860057, -180440.6485486804, -158041.74191257262, -167142.34407452872, -159422.7220919993, -141323.12879838096, -168321.10802186825, 0.336, 0.63, 0.716, 192.0, 0.0, 0.0, 0.0, 0.0, 0.0, 0.0, 0.0, 0.0, 0.0, 1.7395371792801812E9, 0.0, 2025-02-14 09:46:19.280
165.0, -83316.0604019237, -119305.00648081381, -180437.07226956752, -158196.21481850324, -167160.22547009296, -159579.3184136532, -141417.09553207108, -168468.78599748446, 0.336, 0.63, 0.716, 192.0, 0.0, 0.0, 0.0, 0.0, 0.0, 0.0, 0.0, 0.0, 0.0, 1.7395371792801936E9, 0.0, 2025-02-14 09:46:19.280
166.0, -83422.1864845975, -119364.10449315365, -180431.57374043152, -158304.33020643357, -167291.60902400126, -159656.25311806836, -141526.03793454624, -168537.2717424955, 0.336, 0.63, 0.716, 192.0, 0.0, 0.0, 0.0, 0.0, 0.0, 0.0, 0.0, 0.0, 0.0, 1.739537179280206E9, 0.0, 2025-02-14 09:46:19.280
167.0, -83571.8761172147, -119344.83728943317, -180424.86821709495, -158305.00075876722, -167429.94397043515, -159643.7808446623, -141581.51496428432, -168535.46125119465, 0.328, 0.636, 0.718, 192.0, 10.0, 64.0, 19.0, 224.0, 22.0, 112.0, 0.0, 0.0, 0.0, 1.7395371792802181E9, 0.0, 2025-02-14 09:46:19.280
168.0, -83620.24529221599, -119416.65344436807, -180416.75453385766, -158337.83547137206, -167456.6766568037, -159700.8448482567, -141616.76366529032, -168602.538836305, 0.328, 0.636, 0.718, 192.0, 0.0, 0.0, 0.0, 0.0, 0.0, 0.0, 0.0, 0.0, 0.0, 1.739537179280238E9, 0.0, 2025-02-14 09:46:19.280
169.0, -83611.37164966723, -119583.53156847139, -180411.36776344394, -158477.08683932864, -167464.7232848076, -159857.44116991057, -141706.17064311155, -168747.64636130887, 0.328, 0.636, 0.718, 192.0, 0.0, 0.0, 0.0, 0.0, 0.0, 0.0, 0.0, 0.0, 0.0, 1.739537179280254E9, 0.0, 2025-02-14 09:46:19.280
170.0, -83697.29175535342, -119670.83748231381, -180407.50091165316, -158600.60257918868, -167573.01748669357, -159954.5594995689, -141819.89631890017, -168832.42652802783, 0.328, 0.636, 0.718, 192.0, 0.0, 0.0, 0.0, 0.0, 0.0, 0.0, 0.0, 0.0, 0.0, 1.7395371792802663E9, 0.0, 2025-02-14 09:46:19.280
171.0, -83856.30206540848, -119658.5440228634, -180404.19285347377, -158611.8455066497, -167713.36409012845, -159951.56436581188, -141880.87187777425, -168829.341987293, 0.328, 0.636, 0.718, 192.0, 0.0, 0.0, 0.0, 0.0, 0.0, 0.0, 0.0, 0.0, 0.0, 1.7395371792802787E9, 0.0, 2025-02-14 09:46:19.280
172.0, -83930.73337444465, -119716.16682006918, -180398.69432433776, -158628.00581789087, -167755.72064587125, -159992.13278199825, -141910.66675313315, -168887.7694472992, 0.328, 0.636, 0.718, 192.0, 0.0, 0.0, 0.0, 0.0, 0.0, 0.0, 0.0, 0.0, 0.0, 1.7395371792802908E9, 0.0, 2025-02-14 09:46:19.280
173.0, -83923.06672609648, -119875.08772314641, -180392.9275742683, -158755.81309268632, -167750.11035801296, -160141.28597274853, -141987.5120505705, -169040.36480669558, 0.328, 0.636, 0.718, 192.0, 0.0, 0.0, 0.0, 0.0, 0.0, 0.0, 0.0, 0.0, 0.0, 1.739537179280303E9, 0.0, 2025-02-14 09:46:19.280
174.0, -83987.90913676133, -119963.08654106696, -180388.1219492104, -158893.72335597556, -167849.08388246107, -160261.24778524015, -142110.22312763013, -169143.58516259017, 0.328, 0.636, 0.718, 192.0, 0.0, 0.0, 0.0, 0.0, 0.0, 0.0, 0.0, 0.0, 0.0, 1.7395371792803152E9, 0.0, 2025-02-14 09:46:19.280
175.0, -84143.18670549235, -119956.22455551918, -180384.0315799751, -158921.0595394444, -168004.160285492, -160263.81823585252, -142186.93431460074, -169147.51906961433, 0.328, 0.636, 0.718, 192.0, 0.0, 0.0, 0.0, 0.0, 0.0, 0.0, 0.0, 0.0, 0.0, 1.739537179280327E9, 0.0, 2025-02-14 09:46:19.280
176.0, -84233.82302925862, -119987.76286694562, -180380.58941132898, -158925.4628331021, -168063.5712222542, -160285.54413146307, -142216.34921030395, -169181.3819624641, 0.328, 0.636, 0.718, 192.0, 0.0, 0.0, 0.0, 0.0, 0.0, 0.0, 0.0, 0.0, 0.0, 1.7395371792803392E9, 0.0, 2025-02-14 09:46:19.280
177.0, -84227.45278208886, -120139.71002575279, -180374.9344199818, -159034.82991872192, -168050.04841685874, -160422.60502846303, -142287.0254262716, -169323.49435371094, 0.338, 0.638, 0.718, 192.0, 10.0, 144.0, 19.0, 240.0, 22.0, 112.0, 0.0, 0.0, 0.0, 1.7395371792803516E9, 0.0, 2025-02-14 09:46:19.280
178.0, -84275.19610824539, -120266.35500983657, -180367.75951001162, -159182.84317050496, -168124.85970555065, -160553.58625097113, -142404.50619512872, -169445.4007679702, 0.338, 0.638, 0.718, 192.0, 0.0, 0.0, 0.0, 0.0, 0.0, 0.0, 0.0, 0.0, 0.0, 1.7395371792803707E9, 0.0, 2025-02-14 09:46:19.280
179.0, -84425.31042400723, -120269.50660580477, -180361.83629773097, -159228.3289704715, -168279.84670160373, -160571.71351572438, -142487.94525718037, -169463.4609774901, 0.338, 0.638, 0.718, 192.0, 0.0, 0.0, 0.0, 0.0, 0.0, 0.0, 0.0, 0.0, 0.0, 1.739537179280383E9, 0.0, 2025-02-14 09:46:19.280
180.0, -84539.19256200703, -120283.5882048116, -180356.98596918417, -159224.6856361253, -168361.40821712115, -160586.04098392022, -142522.90338550849, -169484.60572774478, 0.338, 0.638, 0.718, 192.0, 0.0, 0.0, 0.0, 0.0, 0.0, 0.0, 0.0, 0.0, 0.0, 1.7395371792803953E9, 0.0, 2025-02-14 09:46:19.280
181.0, -84541.80771610829, -120415.28468314228, -180353.23087611567, -159316.55130583662, -168360.7376647875, -160706.6733487455, -142583.8118891492, -169609.86490367234, 0.338, 0.638, 0.718, 192.0, 0.0, 0.0, 0.0, 0.0, 0.0, 0.0, 0.0, 0.0, 0.0, 1.7395371792804072E9, 0.0, 2025-02-14 09:46:19.280
182.0, -84567.19929780952, -120557.79940578931, -180348.00056791314, -159470.15249373348, -168423.2107905401, -160844.49420505695, -142701.180899284, -169743.2154110927, 0.338, 0.638, 0.718, 192.0, 0.0, 0.0, 0.0, 0.0, 0.0, 0.0, 0.0, 0.0, 0.0, 1.739537179280419E9, 0.0, 2025-02-14 09:46:19.280
183.0, -84707.54590124439, -120589.3153654713, -180340.08805037595, -159534.19024159794, -168573.30275455746, -160874.0208594824, -142798.1651184756, -169772.2726788846, 0.338, 0.638, 0.718, 192.0, 0.0, 0.0, 0.0, 0.0, 0.0, 0.0, 0.0, 0.0, 0.0, 1.7395371792804313E9, 0.0, 2025-02-14 09:46:19.280
184.0, -84837.275426063, -120579.77117058888, -180331.77320143857, -159522.14265133653, -168675.47257846268, -160872.232719926, -142837.28067127237, -169779.69345804377, 0.338, 0.638, 0.718, 192.0, 0.0, 0.0, 0.0, 0.0, 0.0, 0.0, 0.0, 0.0, 0.0, 1.7395371792804437E9, 0.0, 2025-02-14 09:46:19.280
185.0, -84852.80988845944, -120698.66009934666, -180328.8674746594, -159590.49428588085, -168677.79715988605, -160974.737819998, -142882.38649158317, -169889.73109599724, 0.338, 0.638, 0.718, 192.0, 0.0, 0.0, 0.0, 0.0, 0.0, 0.0, 0.0, 0.0, 0.0, 1.7395371792804556E9, 0.0, 2025-02-14 09:46:19.280
186.0, -84861.83999321939, -120840.14664174875, -180324.2183118127, -159752.4103227151, -168715.54925627104, -161130.61888582932, -142987.61850447877, -170040.27009490374, 0.338, 0.638, 0.718, 192.0, 0.0, 0.0, 0.0, 0.0, 0.0, 0.0, 0.0, 0.0, 0.0, 1.7395371792804675E9, 0.0, 2025-02-14 09:46:19.280
187.0, -84985.60160226842, -120872.89194737577, -180319.54679722153, -159845.8406145383, -168861.37203709746, -161190.20863654718, -143092.89522086325, -170092.52847344024, 0.34400000000000003, 0.63, 0.72, 192.0, 10.0, 192.0, 19.0, 176.0, 22.0, 128.0, 0.0, 0.0, 0.0, 1.7395371792804797E9, 0.0, 2025-02-14 09:46:19.280
188.0, -85133.07841218454, -120859.88323210279, -180316.43990474223, -159840.49854761345, -168979.7468757328, -161190.8344853919, -143145.1312476553, -170096.97647058684, 0.34400000000000003, 0.63, 0.72, 192.0, 0.0, 0.0, 0.0, 0.0, 0.0, 0.0, 0.0, 0.0, 0.0, 1.7395371792804923E9, 0.0, 2025-02-14 09:46:19.280
189.0, -85167.54480213461, -120957.06861699447, -180311.6119279399, -159891.237007527, -168992.57677705013, -161270.317288675, -143188.27011445406, -170187.23281469737, 0.34400000000000003, 0.63, 0.72, 192.0, 0.0, 0.0, 0.0, 0.0, 0.0, 0.0, 0.0, 0.0, 0.0, 1.7395371792805042E9, 0.0, 2025-02-14 09:46:19.280
190.0, -85168.64003761293, -121122.91856085284, -180305.53225344807, -160044.65938146823, -169012.0451464707, -161425.39369170592, -143285.1649266678, -170340.92340957207, 0.34400000000000003, 0.63, 0.72, 192.0, 0.0, 0.0, 0.0, 0.0, 0.0, 0.0, 0.0, 0.0, 0.0, 1.7395371792805164E9, 0.0, 2025-02-14 09:46:19.280
191.0, -85277.47068136581, -121191.00197446371, -180299.87726210087, -160154.2499845326, -169136.49965959784, -161502.99894845474, -143393.1909076203, -170414.30418661883, 0.34400000000000003, 0.63, 0.72, 192.0, 0.0, 0.0, 0.0, 0.0, 0.0, 0.0, 0.0, 0.0, 0.0, 1.7395371792805283E9, 0.0, 2025-02-14 09:46:19.280
192.0, -85430.42366867348, -121170.97481143175, -180293.7528841201, -160156.3063450225, -169266.76562628336, -161497.38866059645, -143449.1596757364, -170412.96308195152, 0.34400000000000003, 0.63, 0.72, 192.0, 0.0, 0.0, 0.0, 0.0, 0.0, 0.0, 0.0, 0.0, 0.0, 1.7395371792805407E9, 0.0, 2025-02-14 09:46:19.280
193.0, -85483.7772826883, -121237.53830641965, -180290.91421257428, -160188.3140430825, -169290.2573097059, -161559.70532413785, -143487.0682343326, -170483.81811187483, 0.34400000000000003, 0.63, 0.72, 192.0, 0.0, 0.0, 0.0, 0.0, 0.0, 0.0, 0.0, 0.0, 0.0, 1.7395371792805593E9, 0.0, 2025-02-14 09:46:19.280
194.0, -85479.1281198416, -121397.77796241976, -180285.795663094, -160329.26414361765, -169302.2154929895, -161713.55238122374, -143575.24586620877, -170631.36197702432, 0.34400000000000003, 0.63, 0.72, 192.0, 0.0, 0.0, 0.0, 0.0, 0.0, 0.0, 0.0, 0.0, 0.0, 1.7395371792805717E9, 0.0, 2025-02-14 09:46:19.280
195.0, -85568.04335928481, -121479.98767852638, -180278.10666300138, -160448.80127296463, -169426.11121250526, -161811.3412632157, -143689.7762047978, -170719.56196064496, 0.34400000000000003, 0.63, 0.72, 192.0, 0.0, 0.0, 0.0, 0.0, 0.0, 0.0, 0.0, 0.0, 0.0, 1.7395371792805839E9, 0.0, 2025-02-14 09:46:19.280
196.0, -85725.0867158278, -121462.30744866222, -180273.09987224342, -160463.06168592712, -169575.0632375554, -161811.1848010045, -143758.6419294646, -170724.05466128048, 0.34400000000000003, 0.63, 0.72, 192.0, 0.0, 0.0, 0.0, 0.0, 0.0, 0.0, 0.0, 0.0, 0.0, 1.739537179280596E9, 0.0, 2025-02-14 09:46:19.280
197.0, -85794.75710329499, -121515.90693186605, -180269.23302045264, -160480.13841869097, -169615.69870897516, -161854.86010967018, -143789.66615076855, -170776.93888866174, 0.34, 0.624, 0.716, 192.0, 10.0, 160.0, 19.0, 128.0, 22.0, 96.0, 0.0, 0.0, 0.0, 1.7395371792806084E9, 0.0, 2025-02-14 09:46:19.280
198.0, -85781.01078045498, -121678.22530010049, -180265.2991134285, -160608.8174115202, -169615.02815664152, -162000.57113177434, -143867.51727670638, -170921.91230319886, 0.34, 0.624, 0.716, 192.0, 0.0, 0.0, 0.0, 0.0, 0.0, 0.0, 0.0, 0.0, 0.0, 1.7395371792806213E9, 0.0, 2025-02-14 09:46:19.280
199.0, -85844.91441785269, -121785.17839731913, -180259.30884591446, -160746.05712247576, -169712.57116944448, -162114.09564186283, -143984.483955441, -171030.2288568293, 0.34, 0.624, 0.716, 192.0, 0.0, 0.0, 0.0, 0.0, 0.0, 0.0, 0.0, 0.0, 0.0, 1.7395371792806334E9, 0.0, 2025-02-14 09:46:19.280
200.0, -86000.21433832817, -121778.15994956017, -180254.9949592346, -160771.00166928789, -169866.28411606362, -162118.85656343182, -144060.54694182242, -171034.25217083123, 0.34, 0.624, 0.716, 192.0, 0.0, 0.0, 0.0, 0.0, 0.0, 0.0, 0.0, 0.0, 0.0, 1.7395371792806451E9, 0.0, 2025-02-14 09:46:19.280
201.0, -86092.7729121176, -121807.97717666355, -180247.7529940311, -160773.7956373448, -169933.853439552, -162143.04115093246, -144094.1192619943, -171064.13645316797, 0.34, 0.624, 0.716, 192.0, 0.0, 0.0, 0.0, 0.0, 0.0, 0.0, 0.0, 0.0, 0.0, 1.7395371792806573E9, 0.0, 2025-02-14 09:46:19.280
202.0, -86085.48624342517, -121959.14202441479, -180241.8968369838, -160884.66028984313, -169932.13235522897, -162280.41497235477, -144160.79451570447, -171199.69978328943, 0.34, 0.624, 0.716, 192.0, 0.0, 0.0, 0.0, 0.0, 0.0, 0.0, 0.0, 0.0, 0.0, 1.7395371792806695E9, 0.0, 2025-02-14 09:46:19.280
203.0, -86128.55805499054, -122084.24473813114, -180236.3983078478, -161033.96994280457, -170013.40329806844, -162410.92680822933, -144279.19170608424, -171324.98131096142, 0.34, 0.624, 0.716, 192.0, 0.0, 0.0, 0.0, 0.0, 0.0, 0.0, 0.0, 0.0, 0.0, 1.7395371792806814E9, 0.0, 2025-02-14 09:46:19.280
204.0, -86278.9182399414, -122091.0173167011, -180231.36916534536, -161081.31093756092, -170173.03945696825, -162432.25037243968, -144367.95048331626, -171347.78009030584, 0.34, 0.624, 0.716, 192.0, 0.0, 0.0, 0.0, 0.0, 0.0, 0.0, 0.0, 0.0, 0.0, 1.7395371792806935E9, 0.0, 2025-02-14 09:46:19.280
205.0, -86389.84994767308, -122100.5168080946, -180225.64711876478, -161080.86390267182, -170254.26569631885, -162444.2979627011, -144400.87460289893, -171367.42727368206, 0.34, 0.624, 0.716, 192.0, 0.0, 0.0, 0.0, 0.0, 0.0, 0.0, 0.0, 0.0, 0.0, 1.7395371792807057E9, 0.0, 2025-02-14 09:46:19.280
206.0, -86389.60407848407, -122233.21911492577, -180221.64615650728, -161172.55075842747, -170253.12575735163, -162566.20437696035, -144458.72091754925, -171489.53485364138, 0.34, 0.624, 0.716, 192.0, 0.0, 0.0, 0.0, 0.0, 0.0, 0.0, 0.0, 0.0, 0.0, 1.7395371792807178E9, 0.0, 2025-02-14 09:46:19.280
207.0, -86409.07244790465, -122378.50545388526, -180216.54995877147, -161328.54358298107, -170317.36467091617, -162709.47905891886, -144572.6254072935, -171623.33239595086, 0.34600000000000003, 0.626, 0.716, 192.0, 10.0, 208.0, 19.0, 144.0, 22.0, 96.0, 0.0, 0.0, 0.0, 1.7395371792807298E9, 0.0, 2025-02-14 09:46:19.280
208.0, -86540.14307739057, -122404.45582919788, -180211.69963022467, -161396.0458512361, -170473.7821786144, -162744.77246341377, -144669.47551601834, -171655.9659428556, 0.34600000000000003, 0.626, 0.716, 192.0, 0.0, 0.0, 0.0, 0.0, 0.0, 0.0, 0.0, 0.0, 0.0, 1.739537179280749E9, 0.0, 2025-02-14 09:46:19.280
209.0, -86664.79875621782, -122401.37128846304, -180206.60343248886, -161386.92633949834, -170582.65752585622, -162743.65487619102, -144709.3510281266, -171658.84931789033, 0.34600000000000003, 0.626, 0.716, 192.0, 0.0, 0.0, 0.0, 0.0, 0.0, 0.0, 0.0, 0.0, 0.0, 1.7395371792807615E9, 0.0, 2025-02-14 09:46:19.280
210.0, -86678.4109685911, -122514.29230145125, -180200.6355167193, -161456.7531891767, -170585.16092123522, -162844.14831926208, -144755.95441531594, -171760.50505167307, 0.34600000000000003, 0.626, 0.716, 192.0, 0.0, 0.0, 0.0, 0.0, 0.0, 0.0, 0.0, 0.0, 0.0, 1.7395371792807739E9, 0.0, 2025-02-14 09:46:19.280
211.0, -86687.82105300677, -122672.74381789492, -180196.4333887617, -161612.2542753523, -170625.99755835504, -163000.0293850934, -144861.63346310062, -171905.83609412148, 0.34600000000000003, 0.626, 0.716, 192.0, 0.0, 0.0, 0.0, 0.0, 0.0, 0.0, 0.0, 0.0, 0.0, 1.7395371792807858E9, 0.0, 2025-02-14 09:46:19.280
212.0, -86812.9908219565, -122721.56002778531, -180191.3371910259, -161701.99652934034, -170776.44715028373, -163059.57443232232, -144968.29598764135, -171961.31312385955, 0.34600000000000003, 0.626, 0.716, 192.0, 0.0, 0.0, 0.0, 0.0, 0.0, 0.0, 0.0, 0.0, 0.0, 1.7395371792807977E9, 0.0, 2025-02-14 09:46:19.280
213.0, -86957.65131207125, -122712.50757128092, -180185.61514444533, -161697.0120903268, -170906.4448960358, -163051.4831008295, -145012.35127596275, -171957.82625172453, 0.34600000000000003, 0.626, 0.716, 192.0, 0.0, 0.0, 0.0, 0.0, 0.0, 0.0, 0.0, 0.0, 0.0, 1.7395371792808104E9, 0.0, 2025-02-14 09:46:19.280
214.0, -86989.34608570888, -122804.82027588133, -180180.1389670538, -161749.94102119698, -170925.06389916706, -163132.9552093691, -145051.84680841528, -172041.8017556431, 0.34600000000000003, 0.626, 0.716, 192.0, 0.0, 0.0, 0.0, 0.0, 0.0, 0.0, 0.0, 0.0, 0.0, 1.7395371792808225E9, 0.0, 2025-02-14 09:46:19.280
215.0, -86982.81937632793, -122968.88208018329, -180176.3391704964, -161908.19137194054, -170941.9394662308, -163285.46116178765, -145153.90487359822, -172195.5370540067, 0.34600000000000003, 0.626, 0.716, 192.0, 0.0, 0.0, 0.0, 0.0, 0.0, 0.0, 0.0, 0.0, 0.0, 1.739537179280835E9, 0.0, 2025-02-14 09:46:19.280
216.0, -87081.09999669791, -123032.62925536981, -180171.31002799392, -162020.06185293937, -171073.7253515393, -163366.35212497142, -145266.71412786414, -172264.916868796, 0.34600000000000003, 0.626, 0.716, 192.0, 0.0, 0.0, 0.0, 0.0, 0.0, 0.0, 0.0, 0.0, 0.0, 1.7395371792808468E9, 0.0, 2025-02-14 09:46:19.280
217.0, -87230.61081535945, -123016.15601970626, -180164.69391163517, -162018.3854721052, -171214.31782416318, -163362.52997666955, -145320.91710816827, -172262.8605083061, 0.35000000000000003, 0.638, 0.712, 192.0, 10.0, 240.0, 19.0, 240.0, 22.0, 64.0, 0.0, 0.0, 0.0, 1.7395371792808642E9, 0.0, 2025-02-14 09:46:19.280
218.0, -87281.37162701746, -123085.51348275108, -180159.39654819926, -162048.62738235324, -171241.34108320964, -163422.79027972106, -145354.08709693994, -172330.98862540588, 0.35000000000000003, 0.638, 0.712, 192.0, 0.0, 0.0, 0.0, 0.0, 0.0, 0.0, 0.0, 0.0, 0.0, 1.739537179280877E9, 0.0, 2025-02-14 09:46:19.280
219.0, -87269.18992628931, -123254.47031908874, -180153.7192051076, -162189.64453812176, -171246.59374315664, -163577.53140658516, -145441.50476950465, -172480.99118244543, 0.35000000000000003, 0.638, 0.712, 192.0, 0.0, 0.0, 0.0, 0.0, 0.0, 0.0, 0.0, 0.0, 0.0, 1.7395371792808895E9, 0.0, 2025-02-14 09:46:19.280
220.0, -87350.84084878456, -123348.07942486757, -180146.74546083756, -162319.19524898473, -171360.07354975626, -163679.45536130137, -145555.69983192682, -172573.37094227923, 0.35000000000000003, 0.638, 0.712, 192.0, 0.0, 0.0, 0.0, 0.0, 0.0, 0.0, 0.0, 0.0, 0.0, 1.739537179280902E9, 0.0, 2025-02-14 09:46:19.280
221.0, -87505.649030882, -123334.06488109409, -180142.94566428015, -162334.39443521434, -171511.7301358855, -163677.5778147671, -145620.65400131393, -172575.96374463604, 0.35000000000000003, 0.638, 0.712, 192.0, 0.0, 0.0, 0.0, 0.0, 0.0, 0.0, 0.0, 0.0, 0.0, 1.739537179280914E9, 0.0, 2025-02-14 09:46:19.280
222.0, -87576.68287476098, -123377.96370720431, -180137.15656246623, -162345.12327255288, -171560.81456670936, -163717.29686466418, -145655.65683313095, -172604.46221881657, 0.35000000000000003, 0.638, 0.712, 192.0, 0.0, 0.0, 0.0, 0.0, 0.0, 0.0, 0.0, 0.0, 0.0, 1.7395371792809265E9, 0.0, 2025-02-14 09:46:19.280
223.0, -87567.9209909345, -123527.96626424388, -180129.89224551825, -162469.42132346885, -171553.75141546148, -163862.0691135012, -145735.27374688076, -172630.21142842906, 0.35000000000000003, 0.638, 0.712, 192.0, 0.0, 0.0, 0.0, 0.0, 0.0, 0.0, 0.0, 0.0, 0.0, 1.7395371792809453E9, 0.0, 2025-02-14 09:46:19.280
224.0, -87634.84211383369, -123629.19731488197, -180124.95250999363, -162606.83984838007, -171630.79787859894, -163970.206853176, -145847.97124242442, -172690.33762101384, 0.35000000000000003, 0.638, 0.712, 192.0, 0.0, 0.0, 0.0, 0.0, 0.0, 0.0, 0.0, 0.0, 0.0, 1.7395371792809577E9, 0.0, 2025-02-14 09:46:19.280
225.0, -87791.99722909895, -123613.95342516345, -180122.89614950374, -162633.6842934709, -171772.55264193448, -163968.21754791946, -145917.46281593596, -172694.6738594382, 0.35000000000000003, 0.638, 0.712, 192.0, 0.0, 0.0, 0.0, 0.0, 0.0, 0.0, 0.0, 0.0, 0.0, 1.73953717928097E9, 0.0, 2025-02-14 09:46:19.280
226.0, -87887.12625350074, -123634.22645738441, -180117.73289653455, -162629.39275853548, -171830.3542530959, -163987.84237955124, -145940.50746446938, -172717.56204576042, 0.35000000000000003, 0.638, 0.712, 192.0, 0.0, 0.0, 0.0, 0.0, 0.0, 0.0, 0.0, 0.0, 0.0, 1.7395371792809832E9, 0.0, 2025-02-14 09:46:19.280
227.0, -87883.77349183244, -123775.78005501987, -180111.58616680934, -162731.22730627385, -171812.87518893185, -164117.41544215864, -146000.83482275426, -172846.12927986734, 0.34800000000000003, 0.632, 0.712, 192.0, 10.0, 224.0, 19.0, 192.0, 22.0, 64.0, 0.0, 0.0, 0.0, 1.7395371792809951E9, 0.0, 2025-02-14 09:46:19.280
228.0, -87930.3545272773, -123897.46295183456, -180107.74166676303, -162876.200720811, -171881.33858219846, -164242.8757837863, -146113.93464969812, -172971.76843545062, 0.34800000000000003, 0.632, 0.712, 192.0, 0.0, 0.0, 0.0, 0.0, 0.0, 0.0, 0.0, 0.0, 0.0, 1.739537179281008E9, 0.0, 2025-02-14 09:46:19.281
229.0, -88080.78176746152, -123894.87014947775, -180105.4170853397, -162918.49022132042, -172032.34696773853, -164256.66681011522, -146195.42910998216, -172985.42535131282, 0.34800000000000003, 0.632, 0.712, 192.0, 0.0, 0.0, 0.0, 0.0, 0.0, 0.0, 0.0, 0.0, 0.0, 1.7395371792810202E9, 0.0, 2025-02-14 09:46:19.281
230.0, -88196.60850722891, -123896.23360588952, -180101.59493703782, -162905.81678221427, -172112.6791373109, -164260.15368225024, -146220.93245040567, -172982.07258964452, 0.34800000000000003, 0.632, 0.712, 192.0, 0.0, 0.0, 0.0, 0.0, 0.0, 0.0, 0.0, 0.0, 0.0, 1.739537179281032E9, 0.0, 2025-02-14 09:46:19.281
231.0, -88204.90100442183, -124020.8222294834, -180094.8000067234, -162985.3666407307, -172099.53631157117, -164373.16410221628, -146270.75448879655, -172982.16199662234, 0.34800000000000003, 0.632, 0.712, 192.0, 0.0, 0.0, 0.0, 0.0, 0.0, 0.0, 0.0, 0.0, 0.0, 1.7395371792810445E9, 0.0, 2025-02-14 09:46:19.281
232.0, -88236.5287228261, -124149.43416707923, -180090.37436132127, -163131.18942155712, -172144.30685571514, -164505.5311328806, -146374.62304528034, -173036.83436356002, 0.34800000000000003, 0.632, 0.712, 192.0, 0.0, 0.0, 0.0, 0.0, 0.0, 0.0, 0.0, 0.0, 0.0, 1.7395371792810564E9, 0.0, 2025-02-14 09:46:19.281
233.0, -88381.90446876342, -124154.39625434832, -180086.66397174168, -163187.5605210734, -172285.83810160615, -164529.82747910352, -146464.23118880167, -173061.73420688324, 0.34800000000000003, 0.632, 0.712, 192.0, 0.0, 0.0, 0.0, 0.0, 0.0, 0.0, 0.0, 0.0, 0.0, 1.7395371792810683E9, 0.0, 2025-02-14 09:46:19.281
234.0, -88522.02755475373, -124134.59260876091, -180080.11491061628, -163164.06883765088, -172386.30919293276, -164511.7896213281, -146491.83559320398, -173050.40187244437, 0.34800000000000003, 0.632, 0.712, 192.0, 0.0, 0.0, 0.0, 0.0, 0.0, 0.0, 0.0, 0.0, 0.0, 1.7395371792810805E9, 0.0, 2025-02-14 09:46:19.281
235.0, -88549.22962775585, -124234.3707960094, -180075.68926521414, -163221.55752438994, -172377.14497770608, -164595.87688396894, -146522.32337264103, -173141.5075828442, 0.34800000000000003, 0.632, 0.712, 192.0, 0.0, 0.0, 0.0, 0.0, 0.0, 0.0, 0.0, 0.0, 0.0, 1.739537179281093E9, 0.0, 2025-02-14 09:46:19.281
236.0, -88566.61928494208, -124383.97102164877, -180072.78353843495, -163364.25106099262, -172397.3956581826, -164738.0339787047, -146616.5583272646, -173278.52377635526, 0.34800000000000003, 0.632, 0.712, 192.0, 0.0, 0.0, 0.0, 0.0, 0.0, 0.0, 0.0, 0.0, 0.0, 1.7395371792811048E9, 0.0, 2025-02-14 09:46:19.281
237.0, -88694.85124288217, -124419.08561218806, -180067.57558197685, -163442.14689041936, -172524.6664911111, -164787.4983891843, -146708.06636906462, -173321.59558792063, 0.34800000000000003, 0.636, 0.704, 192.0, 10.0, 224.0, 19.0, 224.0, 22.0, 0.0, 0.0, 0.0, 0.0, 1.7395371792811172E9, 0.0, 2025-02-14 09:46:19.281
238.0, -88846.15020110014, -124393.38110606447, -180062.54643947442, -163424.1313843884, -172633.78770754192, -164769.95226978688, -146741.57163400314, -173306.68697436893, 0.34800000000000003, 0.636, 0.704, 192.0, 0.0, 0.0, 0.0, 0.0, 0.0, 0.0, 0.0, 0.0, 0.0, 1.7395371792811873E9, 0.0, 2025-02-14 09:46:19.281
239.0, -88886.49509984197, -124474.2273657593, -180059.9536371176, -163457.74840804917, -172626.47868710503, -164836.82868919717, -146765.4432970814, -173378.7266467484, 0.34800000000000003, 0.636, 0.704, 192.0, 0.0, 0.0, 0.0, 0.0, 0.0, 0.0, 0.0, 0.0, 0.0, 1.7395371792811997E9, 0.0, 2025-02-14 09:46:19.281
240.0, -88888.46205335404, -124623.93935012096, -180055.23741903753, -163594.29521492665, -172627.46216386106, -164977.1976443765, -146849.3070422777, -173512.99357569142, 0.34800000000000003, 0.636, 0.704, 192.0, 0.0, 0.0, 0.0, 0.0, 0.0, 0.0, 0.0, 0.0, 0.0, 1.7395371797600722E9, 0.0, 2025-02-14 09:46:19.760
241.0, -88993.53760403843, -124678.16468216953, -180051.5493812024, -163687.16671313843, -172746.015816452, -165041.23539224095, -146950.24752023787, -173573.5220996764, 0.34800000000000003, 0.636, 0.704, 192.0, 0.0, 0.0, 0.0, 0.0, 0.0, 0.0, 0.0, 0.0, 0.0, 1.7395371797601297E9, 0.0, 2025-02-14 09:46:19.760
242.0, -89152.5926175824, -124645.10645212013, -180046.2967212554, -163668.45830302936, -172871.02912319056, -165024.58334262174, -147000.0025033954, -173562.7709105934, 0.34800000000000003, 0.636, 0.704, 192.0, 0.0, 0.0, 0.0, 0.0, 0.0, 0.0, 0.0, 0.0, 0.0, 1.739537179760152E9, 0.0, 2025-02-14 09:46:19.760
243.0, -89218.64202244784, -124700.53877836929, -180042.31811074234, -163677.26489034473, -172838.1944105857, -165073.4219042566, -147025.32702986326, -173613.9787571405, 0.34800000000000003, 0.636, 0.704, 192.0, 0.0, 0.0, 0.0, 0.0, 0.0, 0.0, 0.0, 0.0, 0.0, 1.7395371797601774E9, 0.0, 2025-02-14 09:46:19.760
244.0, -89217.81500790299, -124847.21092548501, -180039.52414268543, -163799.7524499598, -172835.22162857314, -165209.1416965892, -147090.30355099484, -173744.06590987038, 0.34800000000000003, 0.636, 0.704, 192.0, 0.0, 0.0, 0.0, 0.0, 0.0, 0.0, 0.0, 0.0, 0.0, 1.7395371797601907E9, 0.0, 2025-02-14 09:46:19.760
245.0, -89308.51838690262, -124912.07568789432, -180035.63493915022, -163919.20017232897, -172938.7102054012, -165298.66043313273, -147191.0875667438, -173827.59437889987, 0.34800000000000003, 0.636, 0.704, 192.0, 0.0, 0.0, 0.0, 0.0, 0.0, 0.0, 0.0, 0.0, 0.0, 1.7395371797602036E9, 0.0, 2025-02-14 09:46:19.760
246.0, -89475.55297321713, -124879.10686482274, -180032.3939362042, -163918.57432348424, -173026.46315413274, -165282.70128759163, -147244.1953115696, -173808.14836122375, 0.34800000000000003, 0.636, 0.704, 192.0, 0.0, 0.0, 0.0, 0.0, 0.0, 0.0, 0.0, 0.0, 0.0, 1.7395371797602162E9, 0.0, 2025-02-14 09:46:19.760
247.0, -89559.6849393469, -124908.74527797048, -180029.26469198047, -163906.77260241183, -173027.2007616998, -165297.9675290546, -147254.79003844142, -173827.61673064434, 0.34400000000000003, 0.644, 0.704, 192.0, 10.0, 192.0, 20.0, 32.0, 22.0, 0.0, 0.0, 0.0, 0.0, 1.7395371797602289E9, 0.0, 2025-02-14 09:46:19.760
248.0, -89560.15432598047, -125039.88296268976, -180025.30843321187, -164008.6071501502, -172984.50892979014, -165420.3433299474, -147308.70244606765, -173944.22578146766, 0.34400000000000003, 0.644, 0.704, 192.0, 0.0, 0.0, 0.0, 0.0, 0.0, 0.0, 0.0, 0.0, 0.0, 1.7395371797602463E9, 0.0, 2025-02-14 09:46:19.760
249.0, -89631.97048091538, -125128.70879515515, -180023.3414796998, -164126.33378819632, -173042.55641014056, -165512.8572002479, -147399.2493628561, -174029.4753348202, 0.34400000000000003, 0.644, 0.704, 192.0, 0.0, 0.0, 0.0, 0.0, 0.0, 0.0, 0.0, 0.0, 0.0, 1.7395371797602594E9, 0.0, 2025-02-14 09:46:19.760
250.0, -89794.35590438318, -125097.99749827356, -180019.85460756478, -164134.7380441115, -173169.04493201314, -165496.83099947346, -147450.23369195865, -174012.39860205635, 0.34400000000000003, 0.644, 0.704, 192.0, 0.0, 0.0, 0.0, 0.0, 0.0, 0.0, 0.0, 0.0, 0.0, 1.7395371797602832E9, 0.0, 2025-02-14 09:46:19.760
251.0, -89896.72689398848, -125100.16561748572, -180015.3842586737, -164110.8440292888, -173209.8368656441, -165492.74063023814, -147454.52522689407, -174014.03027940157, 0.34400000000000003, 0.644, 0.704, 192.0, 0.0, 0.0, 0.0, 0.0, 0.0, 0.0, 0.0, 0.0, 0.0, 1.7395371797602973E9, 0.0, 2025-02-14 09:46:19.760
252.0, -89901.15253939063, -125223.32372943447, -180013.17143597265, -164195.1548093742, -173177.91857456192, -165601.75008794668, -147497.01589310358, -174122.3021295431, 0.34400000000000003, 0.644, 0.704, 192.0, 0.0, 0.0, 0.0, 0.0, 0.0, 0.0, 0.0, 0.0, 0.0, 1.739537179760346E9, 0.0, 2025-02-14 09:46:19.760
253.0, -89950.21461847004, -125330.56739933103, -180010.0868952378, -164321.71038648015, -173227.7853164417, -165711.07247007758, -147590.46853667122, -174218.74990686774, 0.34400000000000003, 0.644, 0.704, 192.0, 0.0, 0.0, 0.0, 0.0, 0.0, 0.0, 0.0, 0.0, 0.0, 1.739537179760358E9, 0.0, 2025-02-14 09:46:19.760
254.0, -90101.69239064364, -125311.41195433283, -180005.10245622427, -164349.40419786028, -173361.78402445128, -165709.17257179887, -147657.68023224836, -174213.7207643653, 0.34400000000000003, 0.644, 0.704, 192.0, 0.0, 0.0, 0.0, 0.0, 0.0, 0.0, 0.0, 0.0, 0.0, 1.73953717976037E9, 0.0, 2025-02-14 09:46:19.760
255.0, -90219.73195311213, -125295.8774919364, -180002.57670910083, -164320.54809576846, -173423.11721123665, -165690.82178960106, -147666.1962468858, -174203.26014796022, 0.34400000000000003, 0.644, 0.704, 192.0, 0.0, 0.0, 0.0, 0.0, 0.0, 0.0, 0.0, 0.0, 0.0, 1.739537179760393E9, 0.0, 2025-02-14 09:46:19.760
0.0, -90228.22561600515, -125403.32232753305, -179999.53687185489, -164383.6470703658, -173393.29998413325, -165780.74285754477, -147692.07956696505, -174298.50093108427, 0.34400000000000003, 0.644, 0.704, 192.0, 0.0, 0.0, 0.0, 0.0, 0.0, 0.0, 0.0, 0.0, 0.0, 1.7395371797604065E9, 0.0, 2025-02-14 09:46:19.760
1.0, -90256.34411052991, -125528.8273726496, -179995.37944738622, -164518.76336559813, -173420.34559492418, -165902.71632703737, -147775.60803599455, -174419.51327556532, 0.332, 0.646, 0.71, 192.0, 10.0, 96.0, 20.0, 48.0, 22.0, 48.0, 0.0, 0.0, 0.0, 1.739537179760419E9, 0.0, 2025-02-14 09:46:19.760
2.0, -90393.15913834085, -125535.130564586, -179992.13844444018, -164566.6408022214, -173546.23061969646, -165919.36837665658, -147849.23468223034, -174437.171153685, 0.332, 0.646, 0.71, 192.0, 0.0, 0.0, 0.0, 0.0, 0.0, 0.0, 0.0, 0.0, 0.0, 1.7395371797604322E9, 0.0, 2025-02-14 09:46:19.760
3.0, -90525.07913411608, -125509.94014858486, -179989.29977289436, -164535.32600823953, -173629.49086779248, -165891.2051786429, -147864.47857194886, -174413.3218423512, 0.332, 0.646, 0.71, 192.0, 0.0, 0.0, 0.0, 0.0, 0.0, 0.0, 0.0, 0.0, 0.0, 1.739537179760446E9, 0.0, 2025-02-14 09:46:19.760
4.0, -90546.38034658198, -125600.75528630678, -179986.01406645944, -164576.31910757054, -173609.39664952716, -165962.86487136662, -147890.29483679472, -174489.5412909438, 0.332, 0.646, 0.71, 192.0, 0.0, 0.0, 0.0, 0.0, 0.0, 0.0, 0.0, 0.0, 0.0, 1.7395371797604597E9, 0.0, 2025-02-14 09:46:19.760
5.0, -90556.75155600924, -125733.77051756032, -179982.4377873466, -164706.00392890023, -173615.83395193028, -166095.83539913123, -147975.52203840282, -174614.33108023778, 0.332, 0.646, 0.71, 192.0, 0.0, 0.0, 0.0, 0.0, 0.0, 0.0, 0.0, 0.0, 0.0, 1.7395371797604716E9, 0.0, 2025-02-14 09:46:19.760
6.0, -90675.37226383356, -125757.2845527273, -179978.95091521155, -164776.143703001, -173730.29723528592, -166132.9616466715, -148058.42465858755, -174649.53507775487, 0.332, 0.646, 0.71, 192.0, 0.0, 0.0, 0.0, 0.0, 0.0, 0.0, 0.0, 0.0, 0.0, 1.7395371797604835E9, 0.0, 2025-02-14 09:46:19.760
7.0, -90818.02109694733, -125716.6267295631, -179975.8440227323, -164746.57234508664, -173830.6342161458, -166101.93742536753, -148080.88816176512, -174626.51278096592, 0.332, 0.646, 0.71, 192.0, 0.0, 0.0, 0.0, 0.0, 0.0, 0.0, 0.0, 0.0, 0.0, 1.7395371797604952E9, 0.0, 2025-02-14 09:46:19.760
8.0, -90849.60411186267, -125781.4914919724, -179972.64772327518, -164768.32059244165, -173818.94425379566, -166156.18510916058, -148091.9075717816, -174685.6778485391, 0.332, 0.646, 0.71, 192.0, 0.0, 0.0, 0.0, 0.0, 0.0, 0.0, 0.0, 0.0, 0.0, 1.739537179760507E9, 0.0, 2025-02-14 09:46:19.760
9.0, -90845.11141122716, -125922.44159250756, -179969.85375521824, -164893.64682360255, -173806.96371876763, -166287.41220085768, -148167.74704071844, -174817.4190303587, 0.332, 0.646, 0.71, 192.0, 0.0, 0.0, 0.0, 0.0, 0.0, 0.0, 0.0, 0.0, 0.0, 1.739537179760522E9, 0.0, 2025-02-14 09:46:19.760
10.0, -90944.37550835319, -125970.65430529766, -179965.53986853838, -164983.07615316822, -173902.2492053806, -166344.4091492187, -148259.09862030728, -174870.45971995112, 0.332, 0.646, 0.71, 192.0, 0.0, 0.0, 0.0, 0.0, 0.0, 0.0, 0.0, 0.0, 0.0, 1.739537179760532E9, 0.0, 2025-02-14 09:46:19.760
11.0, -91095.4509491266, -125932.723394957, -179960.80129871386, -164961.70788546896, -174018.76884922612, -166313.89901803722, -148293.2073823461, -174842.98942601556, 0.326, 0.644, 0.72, 192.0, 10.0, 48.0, 20.0, 32.0, 22.0, 128.0, 0.0, 0.0, 0.0, 1.7395371797605484E9, 0.0, 2025-02-14 09:46:19.760
12.0, -91149.765688153, -125978.32095364583, -179959.0802143908, -164963.11604536965, -174027.19545688576, -166351.53935569996, -148303.37742607325, -174884.56367070242, 0.326, 0.644, 0.72, 192.0, 0.0, 0.0, 0.0, 0.0, 0.0, 0.0, 0.0, 0.0, 0.0, 1.7395371797605588E9, 0.0, 2025-02-14 09:46:19.760
13.0, -91138.63451941425, -126122.73557457156, -179956.88974343418, -165076.55114848033, -174001.2674333176, -166482.9452613527, -148362.8777698133, -175015.12021006588, 0.326, 0.644, 0.72, 192.0, 0.0, 0.0, 0.0, 0.0, 0.0, 0.0, 0.0, 0.0, 0.0, 1.7395371797605689E9, 0.0, 2025-02-14 09:46:19.760
14.0, -91218.40789537525, -126194.90935741775, -179954.20753409952, -165181.8949200982, -174082.11369301245, -166563.23272743617, -148455.07871569143, -175086.3328679005, 0.326, 0.644, 0.72, 192.0, 0.0, 0.0, 0.0, 0.0, 0.0, 0.0, 0.0, 0.0, 0.0, 1.7395371797605784E9, 0.0, 2025-02-14 09:46:19.760
15.0, -91370.98090302717, -126153.2233540086, -179951.70413872055, -165180.39735321968, -174203.95305203833, -166540.0092649471, -148497.8599545789, -175065.05400717905, 0.326, 0.644, 0.72, 192.0, 0.0, 0.0, 0.0, 0.0, 0.0, 0.0, 0.0, 0.0, 0.0, 1.739537179760588E9, 0.0, 2025-02-14 09:46:19.760
16.0, -91440.18190386081, -126169.22720303861, -179948.4184322856, -165171.16608275965, -174225.27661624868, -166552.5485935865, -148502.97850405914, -175085.55055684454, 0.326, 0.644, 0.72, 192.0, 0.0, 0.0, 0.0, 0.0, 0.0, 0.0, 0.0, 0.0, 0.0, 1.7395371797605977E9, 0.0, 2025-02-14 09:46:19.760
17.0, -91426.39087753189, -126298.28617552355, -179943.8139729278, -165274.05116248742, -174198.4098194134, -166674.76793226815, -148552.062934883, -175206.2052734143, 0.326, 0.644, 0.72, 192.0, 0.0, 0.0, 0.0, 0.0, 0.0, 0.0, 0.0, 0.0, 0.0, 1.7395371797606075E9, 0.0, 2025-02-14 09:46:19.760
18.0, -91483.56663984855, -126390.55417663505, -179938.94129263656, -165398.2374546811, -174261.7770149442, -166772.93679391587, -148646.0967238065, -175296.3275070581, 0.326, 0.644, 0.72, 192.0, 0.0, 0.0, 0.0, 0.0, 0.0, 0.0, 0.0, 0.0, 0.0, 1.7395371797606251E9, 0.0, 2025-02-14 09:46:19.760
19.0, -91633.36803118802, -126363.62032456641, -179934.42624025658, -165410.77678332053, -174390.0089728843, -166759.19047107585, -148700.92555295533, -175286.9174226424, 0.326, 0.644, 0.72, 192.0, 0.0, 0.0, 0.0, 0.0, 0.0, 0.0, 0.0, 0.0, 0.0, 1.7395371797606368E9, 0.0, 2025-02-14 09:46:19.760
20.0, -91726.46304684438, -126364.827318767, -179932.61574895572, -165391.80015227798, -174435.56182808423, -166751.56852621658, -148710.93913447132, -175291.25366106673, 0.326, 0.644, 0.72, 192.0, 0.0, 0.0, 0.0, 0.0, 0.0, 0.0, 0.0, 0.0, 0.0, 1.7395371797606485E9, 0.0, 2025-02-14 09:46:19.760
21.0, -91717.92468046244, -126489.95238422781, -179927.85482738673, -165475.08275211844, -174401.25190034532, -166862.41082697044, -148752.4463239248, -175397.20092978489, 0.332, 0.648, 0.718, 192.0, 10.0, 96.0, 20.0, 64.0, 22.0, 112.0, 0.0, 0.0, 0.0, 1.73953717976066E9, 0.0, 2025-02-14 09:46:19.760
22.0, -91754.60389311361, -126605.71206876184, -179925.15026630764, -165604.2981868146, -174450.2692759358, -166976.44942718142, -148843.0826476911, -175498.8343118232, 0.332, 0.648, 0.718, 192.0, 0.0, 0.0, 0.0, 0.0, 0.0, 0.0, 0.0, 0.0, 0.0, 1.7395371797606723E9, 0.0, 2025-02-14 09:46:19.760
23.0, -91896.98450529392, -126598.64891751397, -179921.68574591706, -165635.47887032974, -174587.77720782487, -166975.08597076967, -148904.5499449432, -175492.95580303142, 0.332, 0.648, 0.718, 192.0, 0.0, 0.0, 0.0, 0.0, 0.0, 0.0, 0.0, 0.0, 0.0, 1.739537179760684E9, 0.0, 2025-02-14 09:46:19.760
24.0, -92004.3622856572, -126586.44486504137, -179917.93065284856, -165607.82976243852, -174653.08900512327, -166955.0588077377, -148913.62475319204, -175477.53309935727, 0.332, 0.648, 0.718, 192.0, 0.0, 0.0, 0.0, 0.0, 0.0, 0.0, 0.0, 0.0, 0.0, 1.7395371797606957E9, 0.0, 2025-02-14 09:46:19.760
25.0, -92002.6635530786, -126685.03840983372, -179916.25427201443, -165675.17556848237, -174622.98120534196, -167048.5785065387, -148947.3535355751, -175576.3948650831, 0.332, 0.648, 0.718, 192.0, 0.0, 0.0, 0.0, 0.0, 0.0, 0.0, 0.0, 0.0, 0.0, 1.7395371797607071E9, 0.0, 2025-02-14 09:46:19.760
26.0, -92020.50024515393, -126805.24609151437, -179911.53805393435, -165806.44736366838, -174653.6254469902, -167172.58598477676, -149036.9840308409, -175696.3119740858, 0.332, 0.648, 0.718, 192.0, 0.0, 0.0, 0.0, 0.0, 0.0, 0.0, 0.0, 0.0, 0.0, 1.7395371797607276E9, 0.0, 2025-02-14 09:46:19.760
27.0, -92147.86048506029, -126807.95065259346, -179908.78878936634, -165855.8447189146, -174784.56196600938, -167189.08157218478, -149114.7457498009, -175716.5850063068, 0.332, 0.648, 0.718, 192.0, 0.0, 0.0, 0.0, 0.0, 0.0, 0.0, 0.0, 0.0, 0.0, 1.7395371797607377E9, 0.0, 2025-02-14 09:46:19.760
28.0, -92272.96319877663, -126779.69804760195, -179905.92776607609, -165822.6970818874, -174872.11374904081, -167159.93489741505, -149136.4045901781, -175705.74441024597, 0.332, 0.648, 0.718, 192.0, 0.0, 0.0, 0.0, 0.0, 0.0, 0.0, 0.0, 0.0, 0.0, 1.739537179760748E9, 0.0, 2025-02-14 09:46:19.760
29.0, -92283.96025704865, -126864.54526955429, -179901.09978927372, -165858.23635557134, -174854.27705696548, -167233.53919190637, -149161.81852362378, -175787.32827750783, 0.332, 0.648, 0.718, 192.0, 0.0, 0.0, 0.0, 0.0, 0.0, 0.0, 0.0, 0.0, 0.0, 1.7395371797607577E9, 0.0, 2025-02-14 09:46:19.760
30.0, -92283.84849832636, -127002.12025667672, -179896.42827468258, -165990.06694436874, -174866.34699897136, -167367.22497549356, -149245.726972309, -175910.15111328973, 0.332, 0.648, 0.718, 192.0, 0.0, 0.0, 0.0, 0.0, 0.0, 0.0, 0.0, 0.0, 0.0, 1.7395371797607677E9, 0.0, 2025-02-14 09:46:19.760
31.0, -92394.82490954697, -127029.70230933456, -179893.3660856922, -166062.91127954857, -174982.55371839448, -167407.1228393463, -149333.9046041852, -175945.64568348476, 0.338, 0.644, 0.714, 192.0, 10.0, 144.0, 20.0, 32.0, 22.0, 80.0, 0.0, 0.0, 0.0, 1.7395371797607772E9, 0.0, 2025-02-14 09:46:19.760
32.0, -92526.63314659991, -126994.230090884, -179891.3097252023, -166037.56440133625, -175080.54376608657, -167376.36683897578, -149359.6538137977, -175919.8294186389, 0.338, 0.644, 0.714, 192.0, 0.0, 0.0, 0.0, 0.0, 0.0, 0.0, 0.0, 0.0, 0.0, 1.7395371797608E9, 0.0, 2025-02-14 09:46:19.760
33.0, -92553.589350413, -127059.81010911586, -179888.1581292341, -166060.87727080315, -175072.40773110482, -167429.9663221796, -149370.6508720697, -175979.4415211012, 0.338, 0.644, 0.714, 192.0, 0.0, 0.0, 0.0, 0.0, 0.0, 0.0, 0.0, 0.0, 0.0, 1.739537179760812E9, 0.0, 2025-02-14 09:46:19.760
34.0, -92542.23466422972, -127200.84961662885, -179885.8558995552, -166185.91292928613, -175067.33388511348, -167560.85813770987, -149442.2211578156, -176114.28959540007, 0.338, 0.644, 0.714, 192.0, 0.0, 0.0, 0.0, 0.0, 0.0, 0.0, 0.0, 0.0, 0.0, 1.7395371797608244E9, 0.0, 2025-02-14 09:46:19.760
35.0, -92635.24027290825, -127248.79410848548, -179884.5147948879, -166277.46567457507, -175170.46483403025, -167623.8677053294, -149537.1937200062, -176171.6218199279, 0.338, 0.644, 0.714, 192.0, 0.0, 0.0, 0.0, 0.0, 0.0, 0.0, 0.0, 0.0, 0.0, 1.7395371797608366E9, 0.0, 2025-02-14 09:46:19.760
36.0, -92778.93963801142, -127210.79614291147, -179880.0444459968, -166260.21012785556, -175286.49273949777, -167595.43628638223, -149576.8457146699, -176149.02420628362, 0.338, 0.644, 0.714, 192.0, 0.0, 0.0, 0.0, 0.0, 0.0, 0.0, 0.0, 0.0, 0.0, 1.7395371797608488E9, 0.0, 2025-02-14 09:46:19.760
37.0, -92825.09599031163, -127256.32664636691, -179874.03182673836, -166260.29953483338, -175296.55102450264, -167630.17089726578, -149588.58038050897, -176188.1844625693, 0.338, 0.644, 0.714, 192.0, 0.0, 0.0, 0.0, 0.0, 0.0, 0.0, 0.0, 0.0, 0.0, 1.7395371797608612E9, 0.0, 2025-02-14 09:46:19.760
38.0, -92806.6110976471, -127395.2650899011, -179871.81900403727, -166378.00382113503, -175277.6638004379, -167766.42713146535, -149650.65117486136, -176314.02478385268, 0.338, 0.644, 0.714, 192.0, 0.0, 0.0, 0.0, 0.0, 0.0, 0.0, 0.0, 0.0, 0.0, 1.7395371797608733E9, 0.0, 2025-02-14 09:46:19.760
39.0, -92875.677988014, -127469.36112277045, -179870.03086448085, -166490.92483412326, -175360.5887723671, -167845.8205277706, -149742.8968242284, -176388.3890376555, 0.338, 0.644, 0.714, 192.0, 0.0, 0.0, 0.0, 0.0, 0.0, 0.0, 0.0, 0.0, 0.0, 1.7395371797608855E9, 0.0, 2025-02-14 09:46:19.760
40.0, -93018.79620776132, -127434.06771827552, -179865.8510882677, -166486.16391255427, -175486.6079076061, -167821.52418154766, -149789.6566736289, -176364.29385713267, 0.338, 0.644, 0.714, 192.0, 0.0, 0.0, 0.0, 0.0, 0.0, 0.0, 0.0, 0.0, 0.0, 1.7395371797608995E9, 0.0, 2025-02-14 09:46:19.760
41.0, -93084.77855739338, -127456.59827668648, -179862.63243706615, -166469.86949084635, -175512.9829660634, -167831.87303923047, -149797.12215627698, -176382.06349397462, 0.338, 0.644, 0.712, 192.0, 10.0, 144.0, 20.0, 32.0, 22.0, 64.0, 0.0, 0.0, 0.0, 1.739537179760919E9, 0.0, 2025-02-14 09:46:19.760
42.0, -93064.55022866133, -127598.53185397768, -179860.50902134288, -166564.84205303693, -175487.8596052956, -167949.97965693232, -149848.5088167797, -176504.88632975655, 0.338, 0.644, 0.712, 192.0, 0.0, 0.0, 0.0, 0.0, 0.0, 0.0, 0.0, 0.0, 0.0, 1.7395371797609406E9, 0.0, 2025-02-14 09:46:19.760
43.0, -93114.19345309657, -127693.81734059064, -179856.19513466302, -166690.07887722002, -175558.6922834745, -168046.04745460124, -149944.57661444863, -176598.71895297992, 0.338, 0.644, 0.712, 192.0, 0.0, 0.0, 0.0, 0.0, 0.0, 0.0, 0.0, 0.0, 0.0, 1.7395371797609525E9, 0.0, 2025-02-14 09:46:19.760
44.0, -93257.22226586608, -127671.4879478798, -179850.78601250483, -166707.848514062, -175690.724037972, -168035.63154168506, -150007.1614989235, -176586.93958365198, 0.338, 0.644, 0.712, 192.0, 0.0, 0.0, 0.0, 0.0, 0.0, 0.0, 0.0, 0.0, 0.0, 1.7395371797609668E9, 0.0, 2025-02-14 09:46:19.760
45.0, -93341.91302560724, -127675.15363397046, -179847.5003060699, -166686.72611555175, -175736.25454142745, -168027.5178584478, -150023.32181016466, -176593.04160988829, 0.338, 0.644, 0.712, 192.0, 0.0, 0.0, 0.0, 0.0, 0.0, 0.0, 0.0, 0.0, 0.0, 1.7395371797609768E9, 0.0, 2025-02-14 09:46:19.760
46.0, -93325.05981028793, -127802.1115424766, -179847.0979746697, -166769.7181427143, -175703.68804975608, -168132.54870564328, -150065.4772002074, -176707.0578583548, 0.338, 0.644, 0.712, 192.0, 0.0, 0.0, 0.0, 0.0, 0.0, 0.0, 0.0, 0.0, 0.0, 1.7395371797609868E9, 0.0, 2025-02-14 09:46:19.760
47.0, -93351.8372001454, -127918.16179968856, -179843.72286125695, -166902.57691175662, -175748.43624215559, -168246.63200934316, -150158.7957333083, -176815.57557768532, 0.338, 0.644, 0.712, 192.0, 0.0, 0.0, 0.0, 0.0, 0.0, 0.0, 0.0, 0.0, 0.0, 1.7395371797609963E9, 0.0, 2025-02-14 09:46:19.760
48.0, -93484.24893429864, -127904.8848634821, -179839.56543678825, -166939.07731045215, -175882.83728156536, -168246.87787853216, -150225.00160038492, -176817.52017945293, 0.338, 0.644, 0.712, 192.0, 0.0, 0.0, 0.0, 0.0, 0.0, 0.0, 0.0, 0.0, 0.0, 1.7395371797610064E9, 0.0, 2025-02-14 09:46:19.761
49.0, -93587.06695879305, -127888.32222084072, -179836.63735826462, -166909.6400630045, -175951.30067483196, -168232.52805859185, -150239.57493776976, -176808.35596422624, 0.338, 0.644, 0.712, 192.0, 0.0, 0.0, 0.0, 0.0, 0.0, 0.0, 0.0, 0.0, 0.0, 1.739537179761016E9, 0.0, 2025-02-14 09:46:19.761
50.0, -93582.21663024624, -127991.6096319687, -179834.446887308, -166972.78374109077, -175929.44066875466, -168325.1760393591, -150271.1132491962, -176903.59674735033, 0.338, 0.644, 0.712, 192.0, 0.0, 0.0, 0.0, 0.0, 0.0, 0.0, 0.0, 0.0, 0.0, 1.739537179761026E9, 0.0, 2025-02-14 09:46:19.761
51.0, -93593.54896468509, -128119.05927885286, -179828.3448610717, -167105.55310315528, -175958.54264003548, -168454.8608606888, -150359.15677060565, -177027.82774303292, 0.34, 0.644, 0.706, 192.0, 10.0, 160.0, 20.0, 32.0, 22.0, 16.0, 0.0, 0.0, 0.0, 1.7395371797610357E9, 0.0, 2025-02-14 09:46:19.761
52.0, -93716.77413186719, -128132.35856680377, -179823.36042205818, -167159.3984555481, -176084.80764446352, -168483.82872150288, -150438.37135295526, -177050.96179854416, 0.34, 0.644, 0.706, 192.0, 0.0, 0.0, 0.0, 0.0, 0.0, 0.0, 0.0, 0.0, 0.0, 1.7395371797610462E9, 0.0, 2025-02-14 09:46:19.761
53.0, -93838.38997344852, -128101.89313911118, -179820.47704702342, -167132.12932731264, -176170.83950887198, -168461.32051483638, -150456.63272817526, -177034.46621113614, 0.34, 0.644, 0.706, 192.0, 0.0, 0.0, 0.0, 0.0, 0.0, 0.0, 0.0, 0.0, 0.0, 1.739537179761056E9, 0.0, 2025-02-14 09:46:19.761
54.0, -93846.16838051897, -128193.46823614457, -179816.3419742992, -167175.6034702782, -176152.15345050735, -168531.14736451476, -150476.03404236247, -177109.34455506143, 0.34, 0.644, 0.706, 192.0, 0.0, 0.0, 0.0, 0.0, 0.0, 0.0, 0.0, 0.0, 0.0, 1.7395371797610655E9, 0.0, 2025-02-14 09:46:19.761
55.0, -93839.86518858257, -128336.40764193627, -179812.8327504197, -167310.11626841026, -176159.5742296665, -168661.05570328902, -150558.17670323572, -177236.50362926765, 0.34, 0.644, 0.706, 192.0, 0.0, 0.0, 0.0, 0.0, 0.0, 0.0, 0.0, 0.0, 0.0, 1.7395371797610755E9, 0.0, 2025-02-14 09:46:19.761
56.0, -93943.64433808856, -128362.13449980432, -179809.77056142935, -167384.43581872416, -176279.69250436933, -168701.2217880752, -150647.04723919003, -177274.8368710085, 0.34, 0.644, 0.706, 192.0, 0.0, 0.0, 0.0, 0.0, 0.0, 0.0, 0.0, 0.0, 0.0, 1.7395371797610912E9, 0.0, 2025-02-14 09:46:19.761
57.0, -94071.205743695, -128325.90232204227, -179807.20011081698, -167358.79836783392, -176387.31615392162, -168671.49396794965, -150675.7692308151, -177249.28882709608, 0.34, 0.644, 0.706, 192.0, 0.0, 0.0, 0.0, 0.0, 0.0, 0.0, 0.0, 0.0, 0.0, 1.7395371797611089E9, 0.0, 2025-02-14 09:46:19.761
58.0, -94093.98217129495, -128390.0071251401, -179803.46736949295, -167383.02765882347, -176377.54844159467, -168725.74165174266, -150689.80612633302, -177308.6997638583, 0.34, 0.644, 0.706, 192.0, 0.0, 0.0, 0.0, 0.0, 0.0, 0.0, 0.0, 0.0, 0.0, 1.739537179761119E9, 0.0, 2025-02-14 09:46:19.761
59.0, -94077.73245307595, -128534.84642921049, -179799.71227642446, -167515.3946894878, -176364.00328445475, -168864.92596446586, -150758.2248161107, -177450.47687893832, 0.34, 0.644, 0.706, 192.0, 0.0, 0.0, 0.0, 0.0, 0.0, 0.0, 0.0, 0.0, 0.0, 1.7395371797611284E9, 0.0, 2025-02-14 09:46:19.761
60.0, -94164.88190470719, -128585.83075831304, -179795.89012812258, -167610.1660859783, -176471.69398924042, -168933.32230249912, -150852.03508758964, -177516.34746984811, 0.34, 0.644, 0.706, 192.0, 0.0, 0.0, 0.0, 0.0, 0.0, 0.0, 0.0, 0.0, 0.0, 1.7395371797611382E9, 0.0, 2025-02-14 09:46:19.761
61.0, -94305.49672907553, -128543.87653397043, -179793.49849146587, -167594.87749277087, -176596.0367436453, -168906.09787775253, -150892.1564688869, -177492.7440277033, 0.34, 0.642, 0.706, 192.0, 10.0, 160.0, 20.0, 16.0, 22.0, 16.0, 0.0, 0.0, 0.0, 1.739537179761148E9, 0.0, 2025-02-14 09:46:19.761
62.0, -94349.97670054159, -128589.0494095146, -179791.71035190945, -167595.9056730158, -176603.41281931553, -168939.98312234678, -150901.63360853598, -177529.89262698803, 0.34, 0.642, 0.706, 192.0, 0.0, 0.0, 0.0, 0.0, 0.0, 0.0, 0.0, 0.0, 0.0, 1.739537179761158E9, 0.0, 2025-02-14 09:46:19.761
63.0, -94328.47432237558, -128728.4795914268, -179787.61998267414, -167710.0783836935, -176578.31181029225, -169073.08776057814, -150961.9833185653, -177663.51135534185, 0.34, 0.642, 0.706, 192.0, 0.0, 0.0, 0.0, 0.0, 0.0, 0.0, 0.0, 0.0, 0.0, 1.7395371797611697E9, 0.0, 2025-02-14 09:46:19.761
64.0, -94394.30020979646, -128799.28991786123, -179783.32844773872, -167820.65246351392, -176665.9530003015, -169155.49864238486, -151053.91604350996, -177742.1000888467, 0.34, 0.642, 0.706, 192.0, 0.0, 0.0, 0.0, 0.0, 0.0, 0.0, 0.0, 0.0, 0.0, 1.739537179761181E9, 0.0, 2025-02-14 09:46:19.761
65.0, -94534.49035102014, -128769.27152505775, -179781.51795643783, -167819.62428326896, -176800.734019367, -169127.8271827492, -151102.35227374462, -177713.6016146662, 0.34, 0.642, 0.706, 192.0, 0.0, 0.0, 0.0, 0.0, 0.0, 0.0, 0.0, 0.0, 0.0, 1.7395371797611928E9, 0.0, 2025-02-14 09:46:19.761
66.0, -94597.07523549501, -128793.56787128067, -179778.52282268082, -167812.5611320211, -176832.11586858224, -169134.04096770776, -151111.2259162934, -177726.58797819473, 0.34, 0.642, 0.706, 192.0, 0.0, 0.0, 0.0, 0.0, 0.0, 0.0, 0.0, 0.0, 0.0, 1.7395371797612042E9, 0.0, 2025-02-14 09:46:19.761
67.0, -94574.79054627307, -128929.08649791319, -179774.07482553422, -167914.88741813748, -176808.981813071, -169254.98625695542, -151165.54065531978, -177849.232000021, 0.34, 0.642, 0.706, 192.0, 0.0, 0.0, 0.0, 0.0, 0.0, 0.0, 0.0, 0.0, 0.0, 1.7395371797612157E9, 0.0, 2025-02-14 09:46:19.761
68.0, -94620.2316427507, -129029.11055435069, -179770.5432499103, -168041.26418128778, -176872.8407469798, -169357.08902562727, -151265.16238035707, -177950.3959954257, 0.34, 0.642, 0.706, 192.0, 0.0, 0.0, 0.0, 0.0, 0.0, 0.0, 0.0, 0.0, 0.0, 1.7395371797612271E9, 0.0, 2025-02-14 09:46:19.761
69.0, -94757.9183885954, -129006.82586512875, -179766.29641846378, -168059.68201871897, -177008.96287071262, -169346.02491212188, -151320.39354090614, -177939.6001028538, 0.34, 0.642, 0.706, 192.0, 0.0, 0.0, 0.0, 0.0, 0.0, 0.0, 0.0, 0.0, 0.0, 1.7395371797612388E9, 0.0, 2025-02-14 09:46:19.761
70.0, -94839.18933143489, -129002.93666159353, -179763.1224707511, -168035.87741087406, -177067.52444118555, -169339.2746852964, -151324.79683456384, -177942.81875405536, 0.34, 0.642, 0.706, 192.0, 0.0, 0.0, 0.0, 0.0, 0.0, 0.0, 0.0, 0.0, 0.0, 1.7395371797612505E9, 0.0, 2025-02-14 09:46:19.761
71.0, -94821.44204633738, -129124.44074445257, -179759.45678466043, -168117.10365022466, -177039.71887108314, -169447.6359424157, -151364.3817739942, -178055.96328448813, 0.336, 0.64, 0.706, 192.0, 10.0, 128.0, 20.0, 0.0, 22.0, 16.0, 0.0, 0.0, 0.0, 1.7395371797612681E9, 0.0, 2025-02-14 09:46:19.761
72.0, -94843.95025300387, -129239.17224874167, -179756.79692707027, -168246.96728550998, -177084.06473208248, -169563.2168129941, -151459.1978739736, -178174.51693707908, 0.336, 0.64, 0.706, 192.0, 0.0, 0.0, 0.0, 0.0, 0.0, 0.0, 0.0, 0.0, 0.0, 1.7395371797612803E9, 0.0, 2025-02-14 09:46:19.761
73.0, -94972.53983885526, -129230.43271665963, -179751.3207496787, -168280.83017835979, -177221.86323664943, -169570.9281648312, -151528.5106335295, -178177.28855339153, 0.336, 0.64, 0.706, 192.0, 0.0, 0.0, 0.0, 0.0, 0.0, 0.0, 0.0, 0.0, 0.0, 1.739537179761292E9, 0.0, 2025-02-14 09:46:19.761
74.0, -95071.55806679226, -129210.40555362769, -179749.64436884457, -168253.24812570194, -177298.1497404754, -169555.08077801237, -151536.08787489985, -178164.92803870776, 0.336, 0.64, 0.706, 192.0, 0.0, 0.0, 0.0, 0.0, 0.0, 0.0, 0.0, 0.0, 0.0, 1.7395371797613037E9, 0.0, 2025-02-14 09:46:19.761
75.0, -95062.90794168806, -129315.05642116744, -179748.90676127755, -168313.70959445354, -177272.22171690725, -169643.45957558867, -151564.40753512474, -178272.05994988204, 0.336, 0.64, 0.706, 192.0, 0.0, 0.0, 0.0, 0.0, 0.0, 0.0, 0.0, 0.0, 0.0, 1.739537179761315E9, 0.0, 2025-02-14 09:46:19.761
76.0, -95069.85933421366, -129446.79760298702, -179743.81056354172, -168450.50227052002, -177290.5501473606, -169773.323210874, -151658.62013800384, -178415.98283242976, 0.336, 0.64, 0.706, 192.0, 0.0, 0.0, 0.0, 0.0, 0.0, 0.0, 0.0, 0.0, 0.0, 1.7395371797613263E9, 0.0, 2025-02-14 09:46:19.761
77.0, -95187.51891702639, -129455.76065251359, -179741.15070595156, -168507.70038458114, -177418.24566343377, -169799.29593793108, -151740.74044713264, -178446.1576874444, 0.336, 0.64, 0.706, 192.0, 0.0, 0.0, 0.0, 0.0, 0.0, 0.0, 0.0, 0.0, 0.0, 1.7395371797613387E9, 0.0, 2025-02-14 09:46:19.761
78.0, -95302.9433253936, -129426.25634983259, -179737.6191303276, -168476.22912838808, -177514.53697854723, -169774.75372251915, -151756.36431650692, -178418.70974525332, 0.336, 0.64, 0.706, 192.0, 0.0, 0.0, 0.0, 0.0, 0.0, 0.0, 0.0, 0.0, 0.0, 1.7395371797613485E9, 0.0, 2025-02-14 09:46:19.761
79.0, -95306.0502178729, -129508.60017640593, -179732.41117386954, -168512.75187882804, -177497.97433590583, -169842.7924326411, -151771.69761320326, -178495.08565605708, 0.336, 0.64, 0.706, 192.0, 0.0, 0.0, 0.0, 0.0, 0.0, 0.0, 0.0, 0.0, 0.0, 1.739537179761358E9, 0.0, 2025-02-14 09:46:19.761
80.0, -95294.33790377832, -129645.05757630558, -179730.53362733527, -168646.9070490488, -177495.98503064932, -169977.79696915115, -151850.62162287495, -178637.28745428176, 0.336, 0.64, 0.706, 192.0, 0.0, 0.0, 0.0, 0.0, 0.0, 0.0, 0.0, 0.0, 0.0, 1.7395371797613678E9, 0.0, 2025-02-14 09:46:19.761
81.0, -95394.29490498244, -129681.17799534537, -179727.29262438926, -168721.07013715152, -177613.10817159511, -170023.4839348178, -151936.3629146055, -178682.57208854822, 0.34, 0.634, 0.71, 192.0, 10.0, 160.0, 19.0, 208.0, 22.0, 48.0, 0.0, 0.0, 0.0, 1.7395371797613773E9, 0.0, 2025-02-14 09:46:19.761
82.0, -95522.88449083382, -129641.16837277036, -179722.97873770937, -168694.3598025274, -177725.22452178295, -169993.64435596997, -151964.52611261918, -178653.00073063382, 0.34, 0.634, 0.71, 192.0, 0.0, 0.0, 0.0, 0.0, 0.0, 0.0, 0.0, 0.0, 0.0, 1.7395371797613876E9, 0.0, 2025-02-14 09:46:19.761
83.0, -95544.78920040003, -129698.25472810921, -179718.73190626287, -168710.98950040215, -177724.7998386383, -170040.7841850262, -151983.5697988951, -178718.1784174655, 0.34, 0.634, 0.71, 192.0, 0.0, 0.0, 0.0, 0.0, 0.0, 0.0, 0.0, 0.0, 0.0, 1.7395371797613974E9, 0.0, 2025-02-14 09:46:19.761
84.0, -95528.047743803, -129837.3943373435, -179715.64736552804, -168838.9532374088, -177715.52386468934, -170174.64878256904, -152061.35386959958, -178866.1693175041, 0.34, 0.634, 0.71, 192.0, 0.0, 0.0, 0.0, 0.0, 0.0, 0.0, 0.0, 0.0, 0.0, 1.7395371797614071E9, 0.0, 2025-02-14 09:46:19.761
85.0, -95611.64326806585, -129891.68672462544, -179712.54047304875, -168936.69741591185, -177817.29135719436, -170242.30751303525, -152153.4654084999, -178938.8795422172, 0.34, 0.634, 0.71, 192.0, 0.0, 0.0, 0.0, 0.0, 0.0, 0.0, 0.0, 0.0, 0.0, 1.739537179761417E9, 0.0, 2025-02-14 09:46:19.761
86.0, -95749.1959034438, -129857.44385211992, -179709.99237418085, -168922.23583724926, -177937.78961155293, -170216.69241388948, -152188.13296415008, -178915.56667275034, 0.34, 0.634, 0.71, 192.0, 0.0, 0.0, 0.0, 0.0, 0.0, 0.0, 0.0, 0.0, 0.0, 1.7395371797614317E9, 0.0, 2025-02-14 09:46:19.761
87.0, -95789.69726439682, -129900.158035774, -179707.04194391274, -168921.05119479314, -177950.88773380374, -170244.85561190316, -152198.66063578852, -178947.3508533658, 0.34, 0.634, 0.71, 192.0, 0.0, 0.0, 0.0, 0.0, 0.0, 0.0, 0.0, 0.0, 0.0, 1.7395371797614412E9, 0.0, 2025-02-14 09:46:19.761
88.0, -95763.12104023946, -130043.7456421549, -179701.9233944325, -169035.2462572153, -177928.91596900416, -170371.67940994256, -152256.81987486125, -179075.9627909616, 0.34, 0.634, 0.71, 192.0, 0.0, 0.0, 0.0, 0.0, 0.0, 0.0, 0.0, 0.0, 0.0, 1.7395371797614508E9, 0.0, 2025-02-14 09:46:19.761
89.0, -95825.14713110295, -130128.03407049587, -179697.6095077526, -169145.75328180235, -178015.90895842423, -170453.19622197107, -152349.78078005085, -179160.05005360246, 0.34, 0.634, 0.71, 192.0, 0.0, 0.0, 0.0, 0.0, 0.0, 0.0, 0.0, 0.0, 0.0, 1.7395371797614605E9, 0.0, 2025-02-14 09:46:19.761
90.0, -95963.66089149247, -130093.65708752359, -179696.33545831864, -169143.16047944553, -178155.96498918117, -170429.972759482, -152396.94296085156, -179146.035509829, 0.34, 0.634, 0.71, 192.0, 0.0, 0.0, 0.0, 0.0, 0.0, 0.0, 0.0, 0.0, 0.0, 1.7395371797614746E9, 0.0, 2025-02-14 09:46:19.761
91.0, -96026.98338353436, -130112.67842205506, -179690.658115227, -169126.30726412623, -178194.8570245334, -170434.82308802882, -152408.7670336684, -179152.6963296767, 0.35000000000000003, 0.632, 0.714, 192.0, 10.0, 240.0, 19.0, 192.0, 22.0, 80.0, 0.0, 0.0, 0.0, 1.7395371797614844E9, 0.0, 2025-02-14 09:46:19.761
92.0, -96006.86681352458, -130253.67322607915, -179686.6571529695, -169223.02326238435, -178168.1913933982, -170553.3990923642, -152461.8300750053, -179263.2033542637, 0.35000000000000003, 0.632, 0.714, 192.0, 0.0, 0.0, 0.0, 0.0, 0.0, 0.0, 0.0, 0.0, 0.0, 1.7395371797614949E9, 0.0, 2025-02-14 09:46:19.761
93.0, -96050.47506695689, -130352.49028831605, -179683.3043913012, -169350.58466799077, -178233.57024593, -170655.59126801387, -152557.38378255174, -179364.50146013516, 0.35000000000000003, 0.632, 0.714, 192.0, 0.0, 0.0, 0.0, 0.0, 0.0, 0.0, 0.0, 0.0, 0.0, 1.7395371797615044E9, 0.0, 2025-02-14 09:46:19.761
94.0, -96187.87124012367, -130323.45537226861, -179678.0517313542, -169372.51172930142, -178374.38623599842, -170645.82355568692, -152622.00267577203, -179362.8921345344, 0.35000000000000003, 0.632, 0.714, 192.0, 0.0, 0.0, 0.0, 0.0, 0.0, 0.0, 0.0, 0.0, 0.0, 1.7395371797615237E9, 0.0, 2025-02-14 09:46:19.761
95.0, -96271.44441264206, -130317.35334603231, -179674.94483887492, -169346.98603713347, -178435.49590533925, -170639.76623293952, -152633.51382416653, -179350.75513729514, 0.35000000000000003, 0.632, 0.714, 192.0, 0.0, 0.0, 0.0, 0.0, 0.0, 0.0, 0.0, 0.0, 0.0, 1.7395371797615354E9, 0.0, 2025-02-14 09:46:19.761
96.0, -96248.98090946447, -130435.66112943426, -179672.68731268495, -169423.741927593, -178406.79626545863, -170747.47928946966, -152668.3825455168, -179439.93859767183, 0.35000000000000003, 0.632, 0.714, 192.0, 0.0, 0.0, 0.0, 0.0, 0.0, 0.0, 0.0, 0.0, 0.0, 1.7395371797615469E9, 0.0, 2025-02-14 09:46:19.761
97.0, -96270.10330797474, -130551.15259303483, -179669.73688241685, -169558.83587108087, -178453.80198404813, -170864.42361645983, -152759.84588382792, -179552.70314844887, 0.35000000000000003, 0.632, 0.714, 192.0, 0.0, 0.0, 0.0, 0.0, 0.0, 0.0, 0.0, 0.0, 0.0, 1.7395371797615583E9, 0.0, 2025-02-14 09:46:19.761
98.0, -96397.03886473643, -130543.59770340893, -179666.54058295974, -169594.10692383134, -178606.79967484472, -170869.40805547335, -152835.30537310903, -179567.879982934, 0.35000000000000003, 0.632, 0.714, 192.0, 0.0, 0.0, 0.0, 0.0, 0.0, 0.0, 0.0, 0.0, 0.0, 1.73953717976157E9, 0.0, 2025-02-14 09:46:19.761
99.0, -96497.44290082967, -130525.49279040014, -179662.56197244668, -169557.78533909147, -178694.95495497645, -170851.9289913093, -152851.28687039457, -179550.64678795898, 0.35000000000000003, 0.632, 0.714, 192.0, 0.0, 0.0, 0.0, 0.0, 0.0, 0.0, 0.0, 0.0, 0.0, 1.7395371797615824E9, 0.0, 2025-02-14 09:46:19.761
100.0, -96489.55273503694, -130627.70731779425, -179660.72912940136, -169615.49754327507, -178672.1785273765, -170941.2912656416, -152880.61235911996, -179603.7321810403, 0.35000000000000003, 0.632, 0.714, 192.0, 0.0, 0.0, 0.0, 0.0, 0.0, 0.0, 0.0, 0.0, 0.0, 1.7395371797616005E9, 0.0, 2025-02-14 09:46:19.761
101.0, -96494.96185719513, -130756.74393853474, -179657.62223692206, -169750.5691350185, -178693.12211193112, -171068.09271193657, -152968.1641421514, -179642.13247801454, 0.35000000000000003, 0.638, 0.722, 192.0, 10.0, 240.0, 19.0, 240.0, 22.0, 144.0, 0.0, 0.0, 0.0, 1.739537179761612E9, 0.0, 2025-02-14 09:46:19.761
102.0, -96611.03446615154, -130769.30561891862, -179653.77773687575, -169806.24733045665, -178834.07221246627, -171096.01004076126, -153047.80340764564, -179641.88660882553, 0.35000000000000003, 0.638, 0.722, 192.0, 0.0, 0.0, 0.0, 0.0, 0.0, 0.0, 0.0, 0.0, 0.0, 1.739537179761624E9, 0.0, 2025-02-14 09:46:19.761
103.0, -96727.06237161903, -130731.9111504449, -179651.83313510814, -169773.18910040727, -178938.27604511692, -171072.89833699446, -153071.0268701347, -179638.66795762395, 0.35000000000000003, 0.638, 0.722, 192.0, 0.0, 0.0, 0.0, 0.0, 0.0, 0.0, 0.0, 0.0, 0.0, 1.7395371797616355E9, 0.0, 2025-02-14 09:46:19.761
104.0, -96731.57742399901, -130807.46004670383, -179648.0556902952, -169809.86831305842, -178916.9301291621, -171143.1945733064, -153089.26589361022, -179637.6621291235, 0.35000000000000003, 0.638, 0.722, 192.0, 0.0, 0.0, 0.0, 0.0, 0.0, 0.0, 0.0, 0.0, 0.0, 1.7395371802395656E9, 0.0, 2025-02-14 09:46:20.239
105.0, -96722.45791226125, -130947.11374606058, -179644.23354199334, -169943.4199861789, -178916.3713355507, -171278.51203423884, -153165.0606590582, -179637.61742563455, 0.35000000000000003, 0.638, 0.722, 192.0, 0.0, 0.0, 0.0, 0.0, 0.0, 0.0, 0.0, 0.0, 0.0, 1.7395371802396078E9, 0.0, 2025-02-14 09:46:20.239
106.0, -96819.352724475, -130977.51211851981, -179641.81955359215, -170015.7278794918, -179040.40116553323, -171324.60133130566, -153253.41710489002, -179636.2092657339, 0.35000000000000003, 0.638, 0.722, 192.0, 0.0, 0.0, 0.0, 0.0, 0.0, 0.0, 0.0, 0.0, 0.0, 1.7395371802396224E9, 0.0, 2025-02-14 09:46:20.239
107.0, -96946.69061263688, -130937.14486803352, -179635.78458258923, -169987.0729431001, -179165.30271354946, -171296.9745751589, -153285.06717503874, -179629.92842554193, 0.35000000000000003, 0.638, 0.722, 192.0, 0.0, 0.0, 0.0, 0.0, 0.0, 0.0, 0.0, 0.0, 0.0, 1.739537180239645E9, 0.0, 2025-02-14 09:46:20.239
108.0, -96969.4893919813, -130999.30506936373, -179632.6553383655, -170001.89214967398, -179171.36003629686, -171344.78495654883, -153301.40630023557, -179627.6038441186, 0.35000000000000003, 0.638, 0.722, 192.0, 0.0, 0.0, 0.0, 0.0, 0.0, 0.0, 0.0, 0.0, 0.0, 1.7395371802396576E9, 0.0, 2025-02-14 09:46:20.239
109.0, -96947.47292369283, -131142.17741992205, -179628.83319006363, -170126.5031250123, -179152.36105350984, -171481.13059772618, -153370.6520045581, -179625.48042839533, 0.35000000000000003, 0.638, 0.722, 192.0, 0.0, 0.0, 0.0, 0.0, 0.0, 0.0, 0.0, 0.0, 0.0, 1.7395371802396693E9, 0.0, 2025-02-14 09:46:20.239
110.0, -97026.28517464224, -131198.4144089716, -179626.26273945128, -170224.64963491555, -179241.90214179782, -171547.20235433607, -153465.11047662623, -179623.58053011663, 0.35000000000000003, 0.638, 0.722, 192.0, 0.0, 0.0, 0.0, 0.0, 0.0, 0.0, 0.0, 0.0, 0.0, 1.7395371802397463E9, 0.0, 2025-02-14 09:46:20.239
111.0, -97157.66872855053, -131158.4047863966, -179622.66410859398, -170207.7740678518, -179360.0311112441, -171519.35208074478, -153508.986950992, -179619.6466230925, 0.34600000000000003, 0.634, 0.726, 192.0, 10.0, 208.0, 19.0, 208.0, 22.0, 176.0, 0.0, 0.0, 0.0, 1.7395371802397597E9, 0.0, 2025-02-14 09:46:20.239
112.0, -97196.15843250256, -131191.217147257, -179618.05964923618, -170203.9742712944, -179382.15933825486, -171546.37533979124, -153517.36885516273, -179615.2880329237, 0.34600000000000003, 0.634, 0.726, 192.0, 0.0, 0.0, 0.0, 0.0, 0.0, 0.0, 0.0, 0.0, 0.0, 1.7395371802397866E9, 0.0, 2025-02-14 09:46:20.239
113.0, -97169.15752520056, -131330.87084661375, -179617.23263469132, -170325.5454093868, -179358.15356470985, -171675.56842274292, -153568.57670170986, -179615.4891986238, 0.34600000000000003, 0.634, 0.726, 192.0, 0.0, 0.0, 0.0, 0.0, 0.0, 0.0, 0.0, 0.0, 0.0, 1.7395371802397995E9, 0.0, 2025-02-14 09:46:20.239
114.0, -97228.83668289623, -131411.53829235295, -179615.01981199026, -170446.73656782348, -179421.8560364075, -171747.87631605583, -153656.10613299682, -179613.81281778967, 0.34600000000000003, 0.634, 0.726, 192.0, 0.0, 0.0, 0.0, 0.0, 0.0, 0.0, 0.0, 0.0, 0.0, 1.739537180239812E9, 0.0, 2025-02-14 09:46:20.239
115.0, -97365.89757989616, -131375.08259714636, -179610.2812421657, -170449.21761145804, -179527.80330512565, -171732.4312606372, -153703.84945915337, -179608.80602703168, 0.34600000000000003, 0.634, 0.726, 192.0, 0.0, 0.0, 0.0, 0.0, 0.0, 0.0, 0.0, 0.0, 0.0, 1.7395371802398608E9, 0.0, 2025-02-14 09:46:20.239
116.0, -97429.4435893826, -131387.84544323033, -179605.3415066411, -170434.7783845399, -179551.56320948162, -171693.38276307378, -153713.14778484678, -179604.11216069607, 0.34600000000000003, 0.634, 0.726, 192.0, 0.0, 0.0, 0.0, 0.0, 0.0, 0.0, 0.0, 0.0, 0.0, 1.7395371802398734E9, 0.0, 2025-02-14 09:46:20.239
117.0, -97409.88581298421, -131519.7430872611, -179601.11702693906, -170533.4389845656, -179542.8236773996, -171587.27903214443, -153764.0874104604, -179600.5358815832, 0.34600000000000003, 0.634, 0.726, 192.0, 0.0, 0.0, 0.0, 0.0, 0.0, 0.0, 0.0, 0.0, 0.0, 1.7395371802398872E9, 0.0, 2025-02-14 09:46:20.239
118.0, -97459.30551997489, -131615.25209131863, -179599.4406461049, -170658.11701513734, -179549.39509026948, -171629.12149776478, -153858.25530985062, -179599.26183214926, 0.34600000000000003, 0.634, 0.726, 192.0, 0.0, 0.0, 0.0, 0.0, 0.0, 0.0, 0.0, 0.0, 0.0, 1.7395371802399015E9, 0.0, 2025-02-14 09:46:20.239
119.0, -97600.50148969908, -131587.7594456386, -179597.04900944818, -170671.25984087706, -179557.37466304, -171618.81734357087, -153916.70512160126, -179596.80314025917, 0.34600000000000003, 0.634, 0.726, 192.0, 0.0, 0.0, 0.0, 0.0, 0.0, 0.0, 0.0, 0.0, 0.0, 1.7395371802399142E9, 0.0, 2025-02-14 09:46:20.239
120.0, -97687.58388609695, -131580.33866647942, -179596.95960247036, -170640.81676492892, -179559.29691306318, -171608.20026495462, -153916.3251419455, -179596.62432630354, 0.34600000000000003, 0.634, 0.726, 192.0, 0.0, 0.0, 0.0, 0.0, 0.0, 0.0, 0.0, 0.0, 0.0, 1.7395371802399263E9, 0.0, 2025-02-14 09:46:20.239
121.0, -97675.93862723574, -131697.46180742525, -179594.16563441345, -170714.73398384263, -179555.36300603903, -171710.59360630438, -153951.4397324848, -179594.34444836908, 0.336, 0.626, 0.728, 192.0, 10.0, 128.0, 19.0, 144.0, 22.0, 192.0, 0.0, 0.0, 0.0, 1.7395371802399392E9, 0.0, 2025-02-14 09:46:20.239
122.0, -97706.09113050594, -131812.75210532572, -179591.4387215899, -170844.64232261686, -179553.5748664826, -171821.41355531377, -154044.8476725635, -179591.885756479, 0.336, 0.626, 0.728, 192.0, 0.0, 0.0, 0.0, 0.0, 0.0, 0.0, 0.0, 0.0, 0.0, 1.7395371802399557E9, 0.0, 2025-02-14 09:46:20.239
123.0, -97838.65932687037, -131802.2020819428, -179588.53299481072, -170879.7792649006, -179553.86543916052, -171821.50296229162, -154113.08754838558, -179589.02473318874, 0.336, 0.626, 0.728, 192.0, 0.0, 0.0, 0.0, 0.0, 0.0, 0.0, 0.0, 0.0, 0.0, 1.7395371802399676E9, 0.0, 2025-02-14 09:46:20.239
124.0, -97944.69600256634, -131774.01653218467, -179584.50968080875, -170845.55874413953, -179551.25028505927, -171796.91604339078, -154120.5306792892, -179585.00141918677, 0.336, 0.626, 0.728, 192.0, 0.0, 0.0, 0.0, 0.0, 0.0, 0.0, 0.0, 0.0, 0.0, 1.7395371802399793E9, 0.0, 2025-02-14 09:46:20.239
125.0, -97943.37724964348, -131872.69948395484, -179581.33573309612, -170897.1465703424, -179547.74106117978, -171879.14811124184, -154142.70360978885, -179582.16274764095, 0.336, 0.626, 0.728, 192.0, 0.0, 0.0, 0.0, 0.0, 0.0, 0.0, 0.0, 0.0, 0.0, 1.739537180239991E9, 0.0, 2025-02-14 09:46:20.239
126.0, -97952.63087184798, -131999.36681978308, -179578.92174469493, -171027.613702728, -179545.5282384787, -172005.81544707005, -154232.8034916882, -179580.19579412887, 0.336, 0.626, 0.728, 192.0, 0.0, 0.0, 0.0, 0.0, 0.0, 0.0, 0.0, 0.0, 0.0, 1.7395371802400029E9, 0.0, 2025-02-14 09:46:20.240
127.0, -98071.00571048328, -132005.64765997502, -179577.96061968335, -171082.35312489906, -179545.88586639, -172032.39167122744, -154313.64975138305, -179579.30172435066, 0.336, 0.626, 0.728, 192.0, 0.0, 0.0, 0.0, 0.0, 0.0, 0.0, 0.0, 0.0, 0.0, 1.7395371802400143E9, 0.0, 2025-02-14 09:46:20.240
128.0, -98190.94517123046, -131966.26388624476, -179575.61368651554, -171051.5747727841, -179544.34359602258, -172001.68037434583, -154333.81102488172, -179576.91008769395, 0.336, 0.626, 0.728, 192.0, 0.0, 0.0, 0.0, 0.0, 0.0, 0.0, 0.0, 0.0, 0.0, 1.739537180240026E9, 0.0, 2025-02-14 09:46:20.240
129.0, -98200.19879343496, -132041.47750633687, -179574.63020975952, -171085.5270726117, -179543.1813053109, -172062.49947100872, -154348.69728668896, -179576.12777663802, 0.336, 0.626, 0.728, 192.0, 0.0, 0.0, 0.0, 0.0, 0.0, 0.0, 0.0, 0.0, 0.0, 1.7395371802400444E9, 0.0, 2025-02-14 09:46:20.240
130.0, -98194.25322940985, -132177.33140913624, -179571.74683472476, -171214.6083968411, -179540.25322678726, -172196.07349587363, -154422.79331955832, -179573.55732602565, 0.336, 0.626, 0.728, 192.0, 0.0, 0.0, 0.0, 0.0, 0.0, 0.0, 0.0, 0.0, 0.0, 1.7395371802400632E9, 0.0, 2025-02-14 09:46:20.240
131.0, -98297.49593704891, -132212.4012961866, -179569.2434393458, -171286.84923492066, -179538.5768459531, -172242.07338596266, -154506.47825079897, -179570.9868754133, 0.332, 0.626, 0.724, 192.0, 10.0, 96.0, 19.0, 144.0, 22.0, 160.0, 0.0, 0.0, 0.0, 1.739537180240076E9, 0.0, 2025-02-14 09:46:20.240
132.0, -98430.3770578357, -132169.24007764342, -179566.1812503554, -171256.31675199472, -179536.29696801867, -172208.67987974643, -154530.5734313218, -179567.90233467845, 0.332, 0.626, 0.724, 192.0, 0.0, 0.0, 0.0, 0.0, 0.0, 0.0, 0.0, 0.0, 0.0, 1.739537180240089E9, 0.0, 2025-02-14 09:46:20.240
133.0, -98458.40614538267, -132219.08446777874, -179565.2424770883, -171265.14569105455, -179535.2687877737, -172252.28813317875, -154540.98934423798, -179567.07532013362, 0.332, 0.626, 0.724, 192.0, 0.0, 0.0, 0.0, 0.0, 0.0, 0.0, 0.0, 0.0, 0.0, 1.739537180240101E9, 0.0, 2025-02-14 09:46:20.240
134.0, -98441.41881959663, -132359.52047819144, -179561.15210785295, -171384.1016750457, -179530.9772528383, -172383.47052138695, -154609.56449622687, -179563.4319857874, 0.332, 0.626, 0.724, 192.0, 0.0, 0.0, 0.0, 0.0, 0.0, 0.0, 0.0, 0.0, 0.0, 1.7395371802401135E9, 0.0, 2025-02-14 09:46:20.240
135.0, -98522.95798336959, -132413.67875500664, -179558.80517468514, -171478.49309188046, -179529.09970630406, -172449.60933323018, -154698.45738392562, -179561.21916308632, 0.332, 0.626, 0.724, 192.0, 0.0, 0.0, 0.0, 0.0, 0.0, 0.0, 0.0, 0.0, 0.0, 1.739537180240126E9, 0.0, 2025-02-14 09:46:20.240
136.0, -98658.23074081312, -132367.36594049525, -179557.128793851, -171456.96836197, -179528.18328478138, -172420.77558288284, -154734.7119134321, -179559.40867178544, 0.332, 0.626, 0.724, 192.0, 0.0, 0.0, 0.0, 0.0, 0.0, 0.0, 0.0, 0.0, 0.0, 1.7395371802401383E9, 0.0, 2025-02-14 09:46:20.240
137.0, -98702.55425006799, -132398.07723737686, -179553.7313286938, -171452.2744956344, -179524.38348822398, -172434.67836793404, -154742.60207922483, -179556.01120662823, 0.332, 0.626, 0.724, 192.0, 0.0, 0.0, 0.0, 0.0, 0.0, 0.0, 0.0, 0.0, 0.0, 1.7395371802401505E9, 0.0, 2025-02-14 09:46:20.240
138.0, -98684.67285450373, -132539.31791058992, -179549.90918039193, -171565.1955086226, -179518.01324105423, -172393.2829372028, -154798.280274663, -179552.4349275154, 0.332, 0.626, 0.724, 192.0, 0.0, 0.0, 0.0, 0.0, 0.0, 0.0, 0.0, 0.0, 0.0, 1.739537180240163E9, 0.0, 2025-02-14 09:46:20.240
