%OpenBCI Raw EXG Data
%Number of channels = 8
%Sample Rate = 250 Hz
%Board = OpenBCI_GUI$BoardCytonSerial
Sample Index, EXG Channel 0, EXG Channel 1, EXG Channel 2, EXG Channel 3, EXG Channel 4, EXG Channel 5, EXG Channel 6, EXG Channel 7, Accel Channel 0, Accel Channel 1, Accel Channel 2, Not Used, Digital Channel 0 (D11), Digital Channel 1 (D12), Digital Channel 2 (D13), Digital Channel 3 (D17), Not Used, Digital Channel 4 (D18), Analog Channel 0, Analog Channel 1, Analog Channel 2, Timestamp, Marker Channel, Timestamp (Formatted)
178.0, -9106.480670747838, -9436.660639841633, -7626.370504661859, -7051.327175060174, -10471.769925566903, -27658.875603541805, -15627.691522561494, -24921.680977544904, 0.0, 0.0, 0.0, 192.0, 0.0, 0.0, 0.0, 0.0, 0.0, 0.0, 0.0, 0.0, 0.0, 1.7398226056808453E9, 0.0, 2025-02-17 17:03:25.680
179.0, -9038.285498414696, -9368.04078436384, -7656.835932354443, -7048.197930836432, -10411.643732982127, -27645.71042605763, -15674.630185917638, -24952.012294770753, 0.0, 0.0, 0.0, 192.0, 0.0, 0.0, 0.0, 0.0, 0.0, 0.0, 0.0, 0.0, 0.0, 1.7398226056808798E9, 0.0, 2025-02-17 17:03:25.680
180.0, -9070.31554821915, -9398.282694611871, -7647.51525491658, -7052.6682797274925, -10409.25209632541, -27655.32167617341, -15657.106418264679, -24942.9374865219, 0.0, 0.0, 0.0, 192.0, 0.0, 0.0, 0.0, 0.0, 0.0, 0.0, 0.0, 0.0, 0.0, 1.7398226056809E9, 0.0, 2025-02-17 17:03:25.680
181.0, -9122.640981989025, -9453.200930738562, -7621.877804026342, -7057.3621460631075, -10464.282091174377, -27664.910574544738, -15612.648798543072, -24913.634349540993, 0.0, 0.0, 0.0, 192.0, 0.0, 0.0, 0.0, 0.0, 0.0, 0.0, 0.0, 0.0, 0.0, 1.7398226056809185E9, 0.0, 2025-02-17 17:03:25.680
182.0, -9102.882039890534, -9432.01147699493, -7624.828234294443, -7055.238730339853, -10463.58918709626, -27658.13799597478, -15616.80622301176, -24914.79664025267, 0.0, 0.0, 0.0, 192.0, 0.0, 0.0, 0.0, 0.0, 0.0, 0.0, 0.0, 0.0, 0.0, 1.7398226056809373E9, 0.0, 2025-02-17 17:03:25.680
183.0, -9030.574146577615, -9360.552949971312, -7652.6561561413, -7049.3825732925625, -10404.312360800786, -27642.00003647805, -15661.286194477821, -24942.289285932697, 0.0, 0.0, 0.0, 192.0, 0.0, 0.0, 0.0, 0.0, 0.0, 0.0, 0.0, 0.0, 0.0, 1.739822605680956E9, 0.0, 2025-02-17 17:03:25.680
184.0, -9039.648954826469, -9371.997043132431, -7651.829141596454, -7052.0647826272, -10383.748755901905, -27647.2750481695, -15658.134598509623, -24942.289285932697, 0.0, 0.0, 0.0, 192.0, 0.0, 0.0, 0.0, 0.0, 0.0, 0.0, 0.0, 0.0, 0.0, 1.7398226056809745E9, 0.0, 2025-02-17 17:03:25.680
185.0, -9100.892734634012, -9432.637325839678, -7622.526004615546, -7056.401021051529, -10439.471654828985, -27658.205051208148, -15608.312560118744, -24909.65573902795, 0.0, 0.0, 0.0, 192.0, 0.0, 0.0, 0.0, 0.0, 0.0, 0.0, 0.0, 0.0, 0.0, 1.7398226056809926E9, 0.0, 2025-02-17 17:03:25.680
186.0, -9094.254266530785, -9424.501290857947, -7621.989562748619, -7057.004518151823, -10452.279204401875, -27655.32167617341, -15605.60799903965, -24906.817067482123, -0.01, 0.984, -0.136, 192.0, 255.0, 176.0, 30.0, 192.0, 251.0, 192.0, 0.0, 0.0, 0.0, 1.7398226056810384E9, 0.0, 2025-02-17 17:03:25.681
187.0, -9027.668419798425, -9357.535464469847, -7650.242167740127, -7053.785866950258, -10404.267657311877, -27641.843574266863, -15649.52917689433, -24934.68969281789, -0.01, 0.984, -0.136, 192.0, 0.0, 0.0, 0.0, 0.0, 0.0, 0.0, 0.0, 0.0, 0.0, 1.7398226056810596E9, 0.0, 2025-02-17 17:03:25.681
188.0, -9015.531422559194, -9346.940737598032, -7658.177037021761, -7054.478771028373, -10367.00729930488, -27642.111795200326, -15660.749752610893, -24943.630390600014, -0.01, 0.984, -0.136, 192.0, 0.0, 0.0, 0.0, 0.0, 0.0, 0.0, 0.0, 0.0, 0.0, 1.739822605681079E9, 0.0, 2025-02-17 17:03:25.681
189.0, -9083.525429192237, -9414.353598875237, -7629.6785628412445, -7060.893721687045, -10419.757416219403, -27656.3275046739, -15611.486507831396, -24912.628521040504, -0.01, 0.984, -0.136, 192.0, 0.0, 0.0, 0.0, 0.0, 0.0, 0.0, 0.0, 0.0, 0.0, 1.7398226056810977E9, 0.0, 2025-02-17 17:03:25.681
190.0, -9088.129888550031, -9416.901697743142, -7623.084798226929, -7061.452515298429, -10442.980878708468, -27654.71817907312, -15599.148344892068, -24903.196084880365, -0.01, 0.984, -0.136, 192.0, 0.0, 0.0, 0.0, 0.0, 0.0, 0.0, 0.0, 0.0, 0.0, 1.7398226056811163E9, 0.0, 2025-02-17 17:03:25.681
191.0, -9026.886108742488, -9356.529635969358, -7645.682411871245, -7056.535131518261, -10399.462032253985, -27640.033082965983, -15635.42522614303, -24925.32431189112, -0.01, 0.984, -0.136, 192.0, 0.0, 0.0, 0.0, 0.0, 0.0, 0.0, 0.0, 0.0, 0.0, 1.739822605681135E9, 0.0, 2025-02-17 17:03:25.681
192.0, -8991.9726839033, -9323.784330342332, -7659.406382966803, -7053.361183805608, -10347.226005461933, -27633.14874567375, -15657.709915364972, -24940.165870209443, -0.01, 0.984, -0.136, 192.0, 0.0, 0.0, 0.0, 0.0, 0.0, 0.0, 0.0, 0.0, 0.0, 1.7398226056811533E9, 0.0, 2025-02-17 17:03:25.681
193.0, -9056.12219049003, -9388.112650884706, -7629.767969819066, -7057.473904785384, -10389.739023415927, -27645.688074313173, -15608.692539774484, -24908.985186694288, -0.01, 0.984, -0.136, 192.0, 0.0, 0.0, 0.0, 0.0, 0.0, 0.0, 0.0, 0.0, 0.0, 1.739822605681172E9, 0.0, 2025-02-17 17:03:25.681
194.0, -9075.344690721595, -9405.94934296004, -7620.000257492096, -7061.027832153778, -10425.323000588776, -27648.862022025827, -15589.60415000965, -24896.02117491021, -0.01, 0.984, -0.136, 192.0, 0.0, 0.0, 0.0, 0.0, 0.0, 0.0, 0.0, 0.0, 0.0, 1.7398226056812832E9, 0.0, 2025-02-17 17:03:25.681
195.0, -9024.673286041414, -9354.8085516463, -7639.848606568409, -7058.3009193302305, -10396.288084541331, -27637.84261200936, -15620.561316080251, -24915.198971652862, -0.01, 0.984, -0.136, 192.0, 0.0, 0.0, 0.0, 0.0, 0.0, 0.0, 0.0, 0.0, 0.0, 1.7398226056813028E9, 0.0, 2025-02-17 17:03:25.681
196.0, -8973.979529616778, -9304.785347555322, -7661.306281245504, -7054.456419283917, -10336.877147779125, -27628.097251426847, -15654.580671141228, -24937.282495174706, -0.01, 0.978, -0.14400000000000002, 192.0, 255.0, 176.0, 30.0, 144.0, 251.0, 128.0, 0.0, 0.0, 0.0, 1.739822605681322E9, 0.0, 2025-02-17 17:03:25.681
197.0, -9032.809321023145, -9364.263339550895, -7636.518196644569, -7059.172637363987, -10366.940244071513, -27641.865926011316, -15612.961722965447, -24911.73445126229, -0.01, 0.978, -0.14400000000000002, 192.0, 0.0, 0.0, 0.0, 0.0, 0.0, 0.0, 0.0, 0.0, 0.0, 1.739822605681342E9, 0.0, 2025-02-17 17:03:25.681
198.0, -9064.906426060967, -9394.795822476843, -7621.766045304066, -7063.6429862550485, -10411.77784344886, -27648.303228414446, -15585.245559840867, -24893.40602080894, -0.01, 0.978, -0.14400000000000002, 192.0, 0.0, 0.0, 0.0, 0.0, 0.0, 0.0, 0.0, 0.0, 0.0, 1.7398226056813607E9, 0.0, 2025-02-17 17:03:25.681
199.0, -9027.087274442587, -9356.66374643609, -7638.753371090099, -7063.486524043861, -10394.701110685004, -27641.93298124468, -15610.145403164079, -24909.432221583396, -0.01, 0.978, -0.14400000000000002, 192.0, 0.0, 0.0, 0.0, 0.0, 0.0, 0.0, 0.0, 0.0, 0.0, 1.7398226056813793E9, 0.0, 2025-02-17 17:03:25.681
200.0, -8964.502389967727, -9294.928228250532, -7664.6590429138005, -7058.256215841319, -10331.468025620941, -27629.28189388298, -15651.540833895308, -24935.874335274024, -0.01, 0.978, -0.14400000000000002, 192.0, 0.0, 0.0, 0.0, 0.0, 0.0, 0.0, 0.0, 0.0, 0.0, 1.7398226056814032E9, 0.0, 2025-02-17 17:03:25.681
201.0, -9007.998884677754, -9339.475254949959, -7643.246071725616, -7059.39615480854, -10343.090932737701, -27638.401405620745, -15617.23090615641, -24914.617826297024, -0.01, 0.978, -0.14400000000000002, 192.0, 0.0, 0.0, 0.0, 0.0, 0.0, 0.0, 0.0, 0.0, 0.0, 1.7398226056814303E9, 0.0, 2025-02-17 17:03:25.681
202.0, -9050.26603344274, -9379.753098458421, -7621.073141225951, -7062.279529843275, -10393.829392651247, -27644.950466746148, -15579.03177488229, -24888.86861668451, -0.01, 0.978, -0.14400000000000002, 192.0, 0.0, 0.0, 0.0, 0.0, 0.0, 0.0, 0.0, 0.0, 0.0, 1.739822605681459E9, 0.0, 2025-02-17 17:03:25.681
203.0, -9020.538213317182, -9350.069981821774, -7630.282059941538, -7060.469038542395, -10385.983930347435, -27637.61909456481, -15593.113373889135, -24897.07170689961, -0.01, 0.978, -0.14400000000000002, 192.0, 0.0, 0.0, 0.0, 0.0, 0.0, 0.0, 0.0, 0.0, 0.0, 1.739822605681478E9, 0.0, 2025-02-17 17:03:25.681
204.0, -8954.466456707294, -9284.959350223464, -7661.507446945602, -7057.898587930034, -10327.489415107897, -27625.5715043034, -15641.28138319032, -24928.61001832605, -0.01, 0.978, -0.14400000000000002, 192.0, 0.0, 0.0, 0.0, 0.0, 0.0, 0.0, 0.0, 0.0, 0.0, 1.7398226056814966E9, 0.0, 2025-02-17 17:03:25.681
205.0, -8986.407099533928, -9317.525841894847, -7652.477342185658, -7062.659509499015, -10325.678923807016, -27635.60743756383, -15624.785795782305, -24920.56339032214, -0.01, 0.978, -0.14400000000000002, 192.0, 0.0, 0.0, 0.0, 0.0, 0.0, 0.0, 0.0, 0.0, 0.0, 1.7398226056815157E9, 0.0, 2025-02-17 17:03:25.681
206.0, -9039.06780947063, -9368.823095419777, -7625.342324416915, -7065.989919422856, -10381.223008778454, -27643.94463824566, -15579.277644071299, -24890.29912832965, -0.016, 0.986, -0.14400000000000002, 192.0, 255.0, 128.0, 30.0, 208.0, 251.0, 128.0, 0.0, 0.0, 0.0, 1.739822605681534E9, 0.0, 2025-02-17 17:03:25.681
207.0, -9020.40410285045, -9350.584071944246, -7628.404513407292, -7064.313538588708, -10381.357119245187, -27637.395577120256, -15584.016213895824, -24892.10961963053, -0.016, 0.986, -0.14400000000000002, 192.0, 0.0, 0.0, 0.0, 0.0, 0.0, 0.0, 0.0, 0.0, 0.0, 1.739822605681554E9, 0.0, 2025-02-17 17:03:25.681
208.0, -8950.398439216428, -9280.64546354359, -7656.053621298507, -7058.390326308051, -10323.734322039405, -27621.27996936798, -15629.054978973269, -24920.228114155307, -0.016, 0.986, -0.14400000000000002, 192.0, 0.0, 0.0, 0.0, 0.0, 0.0, 0.0, 0.0, 0.0, 0.0, 1.739822605681573E9, 0.0, 2025-02-17 17:03:25.681
209.0, -8958.087439309054, -9289.921437492543, -7652.589100907934, -7058.546788519238, -10301.471984561918, -27624.632731036276, -15624.04818821528, -24918.55173332116, -0.016, 0.986, -0.14400000000000002, 192.0, 0.0, 0.0, 0.0, 0.0, 0.0, 0.0, 0.0, 0.0, 0.0, 1.7398226056816177E9, 0.0, 2025-02-17 17:03:25.681
210.0, -9021.186413906385, -9352.461618478492, -7624.582365105434, -7064.514704288806, -10359.05007827879, -27638.04377770946, -15576.193103336467, -24888.131009117486, -0.016, 0.986, -0.14400000000000002, 192.0, 0.0, 0.0, 0.0, 0.0, 0.0, 0.0, 0.0, 0.0, 0.0, 1.7398226056816373E9, 0.0, 2025-02-17 17:03:25.681
211.0, -9015.330256859095, -9345.7560951419, -7624.202385449695, -7065.364070578107, -10373.310491241276, -27636.725024786596, -15574.2261498244, -24886.298166072153, -0.016, 0.986, -0.14400000000000002, 192.0, 0.0, 0.0, 0.0, 0.0, 0.0, 0.0, 0.0, 0.0, 0.0, 1.7398226056816564E9, 0.0, 2025-02-17 17:03:25.681
212.0, -8949.124389782475, -9279.080841431718, -7650.309222973493, -7060.178465864476, -10323.644915061584, -27622.755184502028, -15616.605057311663, -24912.829686740602, -0.016, 0.986, -0.14400000000000002, 192.0, 0.0, 0.0, 0.0, 0.0, 0.0, 0.0, 0.0, 0.0, 0.0, 1.739822605681676E9, 0.0, 2025-02-17 17:03:25.681
213.0, -8935.19925298682, -9265.111001147152, -7655.450124198213, -7058.166808863499, -10284.305844820243, -27621.74935600154, -15625.702217304972, -24919.669320543926, -0.016, 0.986, -0.14400000000000002, 192.0, 0.0, 0.0, 0.0, 0.0, 0.0, 0.0, 0.0, 0.0, 0.0, 1.7398226056816945E9, 0.0, 2025-02-17 17:03:25.681
214.0, -8999.974608418299, -9330.489853678924, -7624.224737194149, -7062.078364143177, -10335.200766944978, -27635.18275441918, -15574.2261498244, -24886.611090494527, -0.016, 0.986, -0.14400000000000002, 192.0, 0.0, 0.0, 0.0, 0.0, 0.0, 0.0, 0.0, 0.0, 0.0, 1.7398226056817133E9, 0.0, 2025-02-17 17:03:25.681
215.0, -9004.668474753915, -9333.619097902669, -7617.452158624192, -7062.458343798918, -10359.273595723344, -27635.026292207993, -15561.910338629526, -24877.58098573458, -0.016, 0.986, -0.14400000000000002, 192.0, 0.0, 0.0, 0.0, 0.0, 0.0, 0.0, 0.0, 0.0, 0.0, 1.7398226056817317E9, 0.0, 2025-02-17 17:03:25.681
216.0, -8947.470360692783, -9277.717385019945, -7643.626051381356, -7061.228997853876, -10321.856775505159, -27625.482097325577, -15602.009368182347, -24903.73252674729, -0.02, 0.976, -0.138, 192.0, 255.0, 96.0, 30.0, 128.0, 251.0, 176.0, 0.0, 0.0, 0.0, 1.73982260568175E9, 0.0, 2025-02-17 17:03:25.681
217.0, -8916.267325433175, -9248.369544550127, -7660.926301589764, -7061.228997853876, -10272.392365025564, -27622.755184502028, -15628.160909195056, -24922.329178134107, -0.02, 0.976, -0.138, 192.0, 0.0, 0.0, 0.0, 0.0, 0.0, 0.0, 0.0, 0.0, 0.0, 1.7398226056817777E9, 0.0, 2025-02-17 17:03:25.681
218.0, -8979.411003519417, -9310.663856347068, -7630.036190752529, -7063.911207188512, -10313.810147501248, -27634.355739874332, -15577.757725448339, -24889.807389951635, -0.02, 0.976, -0.138, 192.0, 0.0, 0.0, 0.0, 0.0, 0.0, 0.0, 0.0, 0.0, 0.0, 1.7398226056817968E9, 0.0, 2025-02-17 17:03:25.681
219.0, -8996.845364194556, -9327.762940855377, -7618.882670269331, -7065.855808956124, -10348.008316517868, -27635.89801024175, -15557.03765833827, -24875.278756055686, -0.02, 0.976, -0.138, 192.0, 0.0, 0.0, 0.0, 0.0, 0.0, 0.0, 0.0, 0.0, 0.0, 1.7398226056818154E9, 0.0, 2025-02-17 17:03:25.681
220.0, -8947.000974059221, -9277.225646641928, -7637.971060034163, -7062.324233332185, -10317.364074869642, -27623.64925428024, -15586.921940675014, -24893.607186509038, -0.02, 0.976, -0.138, 192.0, 0.0, 0.0, 0.0, 0.0, 0.0, 0.0, 0.0, 0.0, 0.0, 1.739822605681834E9, 0.0, 2025-02-17 17:03:25.681
221.0, -8898.81061301358, -9229.124692574107, -7662.066240556985, -7060.6478524980375, -10260.523588719796, -27615.379108831778, -15623.62350507063, -24918.328215876605, -0.02, 0.976, -0.138, 192.0, 0.0, 0.0, 0.0, 0.0, 0.0, 0.0, 0.0, 0.0, 0.0, 1.7398226056818542E9, 0.0, 2025-02-17 17:03:25.681
222.0, -8954.53351194066, -9286.166344424051, -7635.154740232795, -7062.726564732381, -10288.843248944671, -27625.616207792307, -15579.635271982585, -24890.433238796384, -0.02, 0.976, -0.138, 192.0, 0.0, 0.0, 0.0, 0.0, 0.0, 0.0, 0.0, 0.0, 0.0, 1.7398226056818728E9, 0.0, 2025-02-17 17:03:25.681
223.0, -8984.797773933145, -9315.894164549609, -7618.390931891315, -7065.095849644644, -10330.573955842729, -27629.013672949517, -15549.594527434652, -24869.690819941858, -0.02, 0.976, -0.138, 192.0, 0.0, 0.0, 0.0, 0.0, 0.0, 0.0, 0.0, 0.0, 0.0, 1.7398226056818914E9, 0.0, 2025-02-17 17:03:25.681
224.0, -8945.637517647448, -9275.236341385405, -7632.98662102063, -7062.5253990322835, -10310.882068977604, -27619.469478067098, -15571.655699212039, -24883.057163126134, -0.02, 0.976, -0.138, 192.0, 0.0, 0.0, 0.0, 0.0, 0.0, 0.0, 0.0, 0.0, 0.0, 1.7398226056819172E9, 0.0, 2025-02-17 17:03:25.681
225.0, -8883.499668061695, -9213.724340644401, -7660.591025422934, -7058.63619549706, -10248.923033347492, -27607.913626183705, -15614.57104856623, -24911.06389892863, -0.02, 0.976, -0.138, 192.0, 0.0, 0.0, 0.0, 0.0, 0.0, 0.0, 0.0, 0.0, 0.0, 1.739822605681936E9, 0.0, 2025-02-17 17:03:25.681
226.0, -8929.588965128538, -9261.288852845295, -7642.441408925225, -7062.458343798918, -10263.339908521166, -27619.871809467295, -15583.390365051077, -24892.556654519638, -0.02, 0.976, -0.138, 192.0, 0.0, 0.0, 0.0, 0.0, 0.0, 0.0, 0.0, 0.0, 0.0, 1.7398226056819546E9, 0.0, 2025-02-17 17:03:25.681
227.0, -8970.179733059374, -9301.767862053855, -7619.732036558633, -7064.49235254435, -10314.301885879266, -27625.75031825904, -15544.386570976565, -24865.86867164, -0.02, 0.97, -0.136, 192.0, 255.0, 96.0, 30.0, 80.0, 251.0, 192.0, 0.0, 0.0, 0.0, 1.7398226056819727E9, 0.0, 2025-02-17 17:03:25.681
228.0, -8941.301279223118, -9271.45889657246, -7628.493920385114, -7062.190122865453, -10305.830574730704, -27618.284835610968, -15557.775265905293, -24873.468264754807, -0.02, 0.97, -0.136, 192.0, 0.0, 0.0, 0.0, 0.0, 0.0, 0.0, 0.0, 0.0, 0.0, 1.7398226056819923E9, 0.0, 2025-02-17 17:03:25.681
229.0, -8873.62019701245, -9203.531945172781, -7658.177037021761, -7058.122105374588, -10245.078533301179, -27604.963195915607, -15604.490411816885, -24903.531361047193, -0.02, 0.97, -0.136, 192.0, 0.0, 0.0, 0.0, 0.0, 0.0, 0.0, 0.0, 0.0, 0.0, 1.739822605682011E9, 0.0, 2025-02-17 17:03:25.682
230.0, -8901.537525837128, -9233.036247853786, -7645.682411871245, -7059.105582130621, -10238.797693109238, -27611.266387852003, -15584.55265576275, -24891.908453930435, -0.02, 0.97, -0.136, 192.0, 0.0, 0.0, 0.0, 0.0, 0.0, 0.0, 0.0, 0.0, 0.0, 1.7398226056820295E9, 0.0, 2025-02-17 17:03:25.682
231.0, -8954.39940147393, -9286.613379313158, -7618.770911547054, -7062.503047287828, -10294.051205402757, -27619.31301585591, -15539.066855796202, -24861.465377982306, -0.02, 0.97, -0.136, 192.0, 0.0, 0.0, 0.0, 0.0, 0.0, 0.0, 0.0, 0.0, 0.0, 1.7398226056820483E9, 0.0, 2025-02-17 17:03:25.682
232.0, -8938.0602762771, -9267.346175592682, -7622.883632526831, -7062.167771120999, -10297.739243237882, -27613.83683846436, -15545.012419821314, -24864.46051173932, -0.02, 0.97, -0.136, 192.0, 0.0, 0.0, 0.0, 0.0, 0.0, 0.0, 0.0, 0.0, 0.0, 1.7398226056820822E9, 0.0, 2025-02-17 17:03:25.682
233.0, -8869.32866207703, -9200.402700949038, -7653.2149497526825, -7059.35145131963, -10242.821007111193, -27600.135219113257, -15592.867504700125, -24895.44002955437, -0.02, 0.97, -0.136, 192.0, 0.0, 0.0, 0.0, 0.0, 0.0, 0.0, 0.0, 0.0, 0.0, 1.7398226056821012E9, 0.0, 2025-02-17 17:03:25.682
234.0, -8876.794144725101, -9208.806956864233, -7650.08570552894, -7059.77613446428, -10220.268096955788, -27602.348041814334, -15588.240693597878, -24893.920110931413, -0.02, 0.97, -0.136, 192.0, 0.0, 0.0, 0.0, 0.0, 0.0, 0.0, 0.0, 0.0, 0.0, 1.73982260568212E9, 0.0, 2025-02-17 17:03:25.682
235.0, -8937.702648365814, -9270.31895760524, -7619.620277836357, -7063.1735996214875, -10275.521609249308, -27611.98164367457, -15537.681047639973, -24860.54895645964, -0.02, 0.97, -0.136, 192.0, 0.0, 0.0, 0.0, 0.0, 0.0, 0.0, 0.0, 0.0, 0.0, 1.7398226056821392E9, 0.0, 2025-02-17 17:03:25.682
236.0, -8931.555918640604, -9263.50167554637, -7618.949725502697, -7063.888855444057, -10290.050243145257, -27609.210027362114, -15535.22235574989, -24858.179671547376, -0.02, 0.97, -0.136, 192.0, 0.0, 0.0, 0.0, 0.0, 0.0, 0.0, 0.0, 0.0, 0.0, 1.7398226056821587E9, 0.0, 2025-02-17 17:03:25.682
237.0, -8863.316042818553, -9197.519325914303, -7646.531778160546, -7060.424335053484, -10243.715076889406, -27595.70957371111, -15579.03177488229, -24886.20875909433, -0.02, 0.978, -0.14, 192.0, 255.0, 96.0, 30.0, 144.0, 251.0, 160.0, 0.0, 0.0, 0.0, 1.7398226056821773E9, 0.0, 2025-02-17 17:03:25.682
238.0, -8854.934138647812, -9182.633064107069, -7653.6843363862445, -7060.11141063111, -10202.386701391542, -27594.994317888537, -15590.185295365489, -24895.037698154178, -0.02, 0.978, -0.14, 192.0, 0.0, 0.0, 0.0, 0.0, 0.0, 0.0, 0.0, 0.0, 0.0, 1.739822605682197E9, 0.0, 2025-02-17 17:03:25.682
239.0, -8920.201232457308, -9249.062448628241, -7622.950687760197, -7064.2911868442525, -10253.169864794001, -27607.399536061235, -15538.910393585014, -24862.046523338144, -0.02, 0.978, -0.14, 192.0, 0.0, 0.0, 0.0, 0.0, 0.0, 0.0, 0.0, 0.0, 0.0, 1.7398226056822157E9, 0.0, 2025-02-17 17:03:25.682
240.0, -8922.726979580759, -9254.583329508701, -7616.4686818681585, -7064.984090922367, -10277.130934850089, -27606.527818027476, -15526.795748090239, -24853.06112206711, -0.02, 0.978, -0.14, 192.0, 0.0, 0.0, 0.0, 0.0, 0.0, 0.0, 0.0, 0.0, 0.0, 1.739822605682308E9, 0.0, 2025-02-17 17:03:25.682
241.0, -8862.444324784796, -9192.803107834234, -7639.625089123856, -7060.5360937757605, -10236.160187263511, -27593.094419609835, -15563.676126441494, -24875.9716601338, -0.02, 0.978, -0.14, 192.0, 0.0, 0.0, 0.0, 0.0, 0.0, 0.0, 0.0, 0.0, 0.0, 1.7398226056823273E9, 0.0, 2025-02-17 17:03:25.682
242.0, -8829.497853457673, -9159.901339996022, -7656.165380020783, -7059.507913530817, -10185.511134327786, -27588.914643396696, -15589.000652909357, -24893.763648720225, -0.02, 0.978, -0.14, 192.0, 0.0, 0.0, 0.0, 0.0, 0.0, 0.0, 0.0, 0.0, 0.0, 1.7398226056823485E9, 0.0, 2025-02-17 17:03:25.682
243.0, -8893.33443562203, -9224.810805894233, -7626.281097684038, -7062.860675199113, -10225.319591202688, -27600.805771446918, -15539.402131963032, -24862.046523338144, -0.02, 0.978, -0.14, 192.0, 0.0, 0.0, 0.0, 0.0, 0.0, 0.0, 0.0, 0.0, 0.0, 1.7398226056823747E9, 0.0, 2025-02-17 17:03:25.682
244.0, -8911.327589908551, -9242.334573547194, -7615.664019067767, -7065.431125811473, -10260.478885230887, -27602.906835425718, -15519.129099742067, -24848.14373828694, -0.02, 0.978, -0.14, 192.0, 0.0, 0.0, 0.0, 0.0, 0.0, 0.0, 0.0, 0.0, 0.0, 1.739822605682394E9, 0.0, 2025-02-17 17:03:25.682
245.0, -8859.158618349866, -9190.232657221874, -7635.221795466161, -7062.4136403100065, -10231.041637783246, -27591.328631797867, -15549.572175690197, -24867.187424562864, -0.02, 0.978, -0.14, 192.0, 0.0, 0.0, 0.0, 0.0, 0.0, 0.0, 0.0, 0.0, 0.0, 1.739822605682413E9, 0.0, 2025-02-17 17:03:25.682
246.0, -8808.733082858693, -9140.321211853172, -7658.869941099876, -7060.312576331208, -10172.949453943904, -27582.767913671487, -15585.89376043007, -24891.72963997479, -0.02, 0.978, -0.14, 192.0, 0.0, 0.0, 0.0, 0.0, 0.0, 0.0, 0.0, 0.0, 0.0, 1.739822605682432E9, 0.0, 2025-02-17 17:03:25.682
247.0, -8868.23342659872, -9199.240410237362, -7634.528891388046, -7064.7605734778135, -10201.11265195759, -27595.08372486636, -15544.543033187752, -24866.561575718115, -0.016, 0.986, -0.14, 192.0, 255.0, 128.0, 30.0, 208.0, 251.0, 160.0, 0.0, 0.0, 0.0, 1.7398226056824603E9, 0.0, 2025-02-17 17:03:25.682
248.0, -8898.698854291302, -9230.421093752515, -7618.636801080323, -7068.2250938683865, -10245.592623423652, -27599.442315035143, -15515.396358418031, -24847.115558041998, -0.016, 0.986, -0.14, 192.0, 0.0, 0.0, 0.0, 0.0, 0.0, 0.0, 0.0, 0.0, 0.0, 1.7398226056824803E9, 0.0, 2025-02-17 17:03:25.682
249.0, -8858.935100905312, -9190.366767688605, -7634.350077432404, -7067.1075066456215, -10226.50423365882, -27590.926300397674, -15538.999800562837, -24862.225337293785, -0.016, 0.986, -0.14, 192.0, 0.0, 0.0, 0.0, 0.0, 0.0, 0.0, 0.0, 0.0, 0.0, 1.7398226056824987E9, 0.0, 2025-02-17 17:03:25.682
250.0, -8796.484326897184, -9127.200737857907, -7661.954481834708, -7063.73239323287, -10164.746363728806, -27579.482207236553, -15582.406888295041, -24890.96968066331, -0.016, 0.986, -0.14, 192.0, 0.0, 0.0, 0.0, 0.0, 0.0, 0.0, 0.0, 0.0, 0.0, 1.7398226056825173E9, 0.0, 2025-02-17 17:03:25.682
251.0, -8841.277222785619, -9171.725412812879, -7641.927318802753, -7065.989919422856, -10175.877532467548, -27589.451085263623, -15549.818044879205, -24871.277793798185, -0.016, 0.986, -0.14, 192.0, 0.0, 0.0, 0.0, 0.0, 0.0, 0.0, 0.0, 0.0, 0.0, 1.739822605682536E9, 0.0, 2025-02-17 17:03:25.682
252.0, -8884.505496562184, -9215.02074182281, -7620.112016214373, -7069.610902024616, -10226.236012725356, -27597.005974889515, -15511.93183802746, -24846.15443303042, -0.016, 0.986, -0.14, 192.0, 0.0, 0.0, 0.0, 0.0, 0.0, 0.0, 0.0, 0.0, 0.0, 1.7398226056825552E9, 0.0, 2025-02-17 17:03:25.682
253.0, -8853.99536538069, -9185.181162974974, -7629.343286674415, -7068.001576423833, -10218.055274254713, -27590.83689341985, -15526.281657967766, -24854.96102034581, -0.016, 0.986, -0.14, 192.0, 0.0, 0.0, 0.0, 0.0, 0.0, 0.0, 0.0, 0.0, 0.0, 1.739822605682574E9, 0.0, 2025-02-17 17:03:25.682
254.0, -8785.464916880717, -9116.360141797084, -7659.56284517799, -7064.4700007998945, -10157.169122358457, -27579.236338047547, -15573.913225402026, -24886.186407349876, -0.016, 0.986, -0.14, 192.0, 0.0, 0.0, 0.0, 0.0, 0.0, 0.0, 0.0, 0.0, 0.0, 1.7398226056825926E9, 0.0, 2025-02-17 17:03:25.682
255.0, -8813.426949194307, -9143.584566543648, -7648.185807250239, -7066.481657800872, -10151.938814155916, -27588.08762885185, -15555.31657401521, -24876.15047408944, -0.016, 0.986, -0.14, 192.0, 0.0, 0.0, 0.0, 0.0, 0.0, 0.0, 0.0, 0.0, 0.0, 1.739822605682619E9, 0.0, 2025-02-17 17:03:25.682
0.0, -8866.758211464668, -9197.429918936483, -7620.9837342481305, -7069.722660746892, -10205.962980504391, -27598.257672579013, -15509.674311837472, -24846.243840008243, -0.016, 0.986, -0.14, 192.0, 0.0, 0.0, 0.0, 0.0, 0.0, 0.0, 0.0, 0.0, 0.0, 1.7398226056826384E9, 0.0, 2025-02-17 17:03:25.682
1.0, -8848.161560077853, -9179.660282094514, -7624.828234294443, -7068.761535735314, -10207.68406482745, -27594.65904172171, -15515.2622479513, -24849.462491209804, -0.018000000000000002, 0.986, -0.136, 192.0, 255.0, 112.0, 30.0, 208.0, 251.0, 192.0, 0.0, 0.0, 0.0, 1.7398226056826568E9, 0.0, 2025-02-17 17:03:25.682
2.0, -8778.424117377295, -9109.56521148267, -7654.600757908912, -7064.715869988903, -10151.022392633247, -27582.209120060103, -15562.446780496453, -24880.196139835854, -0.018000000000000002, 0.986, -0.136, 192.0, 0.0, 0.0, 0.0, 0.0, 0.0, 0.0, 0.0, 0.0, 0.0, 1.7398226056826773E9, 0.0, 2025-02-17 17:03:25.682
3.0, -8786.940132014768, -9118.438854031427, -7653.460818941691, -7066.481657800872, -10128.782406900216, -27588.22173931858, -15559.675164183995, -24880.8219886806, -0.018000000000000002, 0.986, -0.136, 192.0, 0.0, 0.0, 0.0, 0.0, 0.0, 0.0, 0.0, 0.0, 0.0, 1.7398226056826968E9, 0.0, 2025-02-17 17:03:25.682
4.0, -8847.692173444293, -9181.113145484107, -7623.554184860491, -7070.214399124909, -10184.192381404922, -27600.135219113257, -15509.584904859652, -24848.568421431595, -0.018000000000000002, 0.986, -0.136, 192.0, 0.0, 0.0, 0.0, 0.0, 0.0, 0.0, 0.0, 0.0, 0.0, 1.7398226056827216E9, 0.0, 2025-02-17 17:03:25.682
5.0, -8842.774789664125, -9172.19479944644, -7622.03426623753, -7069.655605513526, -10196.441137366432, -27597.54241675644, -15506.120384469079, -24845.573287674582, -0.018000000000000002, 0.986, -0.136, 192.0, 0.0, 0.0, 0.0, 0.0, 0.0, 0.0, 0.0, 0.0, 0.0, 1.7398226056827526E9, 0.0, 2025-02-17 17:03:25.682
6.0, -8779.005262733133, -9104.491365491314, -7650.912720073787, -7066.749878734337, -10150.374192044043, -27585.427771261668, -15551.025039079792, -24875.055238611134, -0.018000000000000002, 0.986, -0.136, 192.0, 0.0, 0.0, 0.0, 0.0, 0.0, 0.0, 0.0, 0.0, 0.0, 1.7398226056827717E9, 0.0, 2025-02-17 17:03:25.682
7.0, -8764.521332326094, -9093.203734541385, -7658.691127144233, -7066.504009545328, -10111.90683983646, -27585.383067772756, -15562.782056663282, -24884.95706140483, -0.018000000000000002, 0.986, -0.136, 192.0, 0.0, 0.0, 0.0, 0.0, 0.0, 0.0, 0.0, 0.0, 0.0, 1.7398226056828227E9, 0.0, 2025-02-17 17:03:25.682
8.0, -8827.285030756597, -9160.95187198542, -7626.45991163968, -7068.985053179867, -10161.035974149225, -27596.491884767045, -15509.964884515392, -24850.982409832766, -0.018000000000000002, 0.986, -0.136, 192.0, 0.0, 0.0, 0.0, 0.0, 0.0, 0.0, 0.0, 0.0, 0.0, 1.7398226056828563E9, 0.0, 2025-02-17 17:03:25.682
9.0, -8830.771902891625, -9163.142342942041, -7617.116882457362, -7066.6381200120595, -10181.130192414546, -27593.094419609835, -15495.056270963702, -24839.873592838478, -0.018000000000000002, 0.986, -0.136, 192.0, 0.0, 0.0, 0.0, 0.0, 0.0, 0.0, 0.0, 0.0, 0.0, 1.7398226056828768E9, 0.0, 2025-02-17 17:03:25.682
10.0, -8772.54560858555, -9102.99379861281, -7640.250937968605, -7062.078364143177, -10140.025334361237, -27580.041000847938, -15532.338980715154, -24863.722904172293, -0.018000000000000002, 0.986, -0.136, 192.0, 0.0, 0.0, 0.0, 0.0, 0.0, 0.0, 0.0, 0.0, 0.0, 1.7398226056828961E9, 0.0, 2025-02-17 17:03:25.682
11.0, -8737.96745991319, -9069.242664485297, -7655.293661987026, -7059.552617019727, -10088.929246536403, -27574.877747878763, -15556.903547871538, -24881.380782291984, -0.02, 0.982, -0.134, 192.0, 255.0, 96.0, 30.0, 176.0, 251.0, 208.0, 0.0, 0.0, 0.0, 1.739822605682915E9, 0.0, 2025-02-17 17:03:25.682
12.0, -8805.112100256933, -9135.627345517558, -7627.353981417893, -7065.453477555929, -10134.258584291767, -27590.456913764112, -15509.920181026482, -24853.10582555602, -0.02, 0.982, -0.134, 192.0, 0.0, 0.0, 0.0, 0.0, 0.0, 0.0, 0.0, 0.0, 0.0, 1.7398226056829355E9, 0.0, 2025-02-17 17:03:25.682
13.0, -8825.027504566611, -9154.693383537935, -7616.4686818681585, -7068.314500846208, -10169.104953897591, -27594.36846904379, -15490.183590672445, -24840.432386449862, -0.02, 0.982, -0.134, 192.0, 0.0, 0.0, 0.0, 0.0, 0.0, 0.0, 0.0, 0.0, 0.0, 1.739822605682954E9, 0.0, 2025-02-17 17:03:25.682
14.0, -8776.814791776515, -9105.13956608052, -7635.534719888535, -7065.475829300383, -10138.930098882925, -27585.204253817115, -15521.207811976412, -24860.92893611538, -0.02, 0.982, -0.134, 192.0, 0.0, 0.0, 0.0, 0.0, 0.0, 0.0, 0.0, 0.0, 0.0, 1.7398226056829982E9, 0.0, 2025-02-17 17:03:25.682
15.0, -8724.422302773273, -9053.015298010743, -7655.785400365044, -7060.5360937757605, -10078.356871409043, -27576.26355603499, -15555.629498437584, -24884.286509071175, -0.02, 0.982, -0.134, 192.0, 0.0, 0.0, 0.0, 0.0, 0.0, 0.0, 0.0, 0.0, 0.0, 1.739822605683018E9, 0.0, 2025-02-17 17:03:25.683
16.0, -8781.151030200843, -9110.19106032742, -7628.896251785309, -7063.620634510593, -10107.883525834504, -27590.143989341737, -15512.691797338939, -24858.11261631401, -0.02, 0.982, -0.134, 192.0, 0.0, 0.0, 0.0, 0.0, 0.0, 0.0, 0.0, 0.0, 0.0, 1.7398226056830368E9, 0.0, 2025-02-17 17:03:25.683
17.0, -8809.98478054819, -9139.47184556387, -7610.0090277205745, -7064.872332200091, -10151.357668800078, -27595.731925455562, -15481.578169057151, -24837.258438737208, -0.02, 0.982, -0.134, 192.0, 0.0, 0.0, 0.0, 0.0, 0.0, 0.0, 0.0, 0.0, 0.0, 1.739822605683056E9, 0.0, 2025-02-17 17:03:25.683
18.0, -8769.908102739824, -9101.384473012027, -7623.487129627125, -7062.4136403100065, -10132.626906946529, -27589.473437008077, -15504.108727468101, -24852.05529356662, -0.02, 0.982, -0.134, 192.0, 0.0, 0.0, 0.0, 0.0, 0.0, 0.0, 0.0, 0.0, 0.0, 1.7398226056830752E9, 0.0, 2025-02-17 17:03:25.683
19.0, -8710.832442144447, -9040.766542049234, -7652.142066018828, -7060.401983309029, -10071.293720161168, -27581.98560261555, -15549.639230923562, -24883.414791037416, -0.02, 0.982, -0.134, 192.0, 0.0, 0.0, 0.0, 0.0, 0.0, 0.0, 0.0, 0.0, 0.0, 1.7398226056830945E9, 0.0, 2025-02-17 17:03:25.683
20.0, -8756.273538622087, -9086.252342015785, -7630.639687852823, -7062.100715887633, -10081.575522610608, -27592.490922509543, -15516.044559007236, -24863.231165794274, -0.02, 0.982, -0.134, 192.0, 0.0, 0.0, 0.0, 0.0, 0.0, 0.0, 0.0, 0.0, 0.0, 1.739822605683113E9, 0.0, 2025-02-17 17:03:25.683
21.0, -8799.322998443007, -9129.771188470268, -7607.8409085084095, -7065.341718833652, -10133.073941835635, -27599.84464643534, -15477.554855055198, -24837.839584093046, -0.024, 0.972, -0.122, 192.0, 255.0, 64.0, 30.0, 96.0, 252.0, 48.0, 0.0, 0.0, 0.0, 1.7398226056831331E9, 0.0, 2025-02-17 17:03:25.683
22.0, -8769.97515797319, -9101.384473012027, -7615.731074301133, -7063.240654854853, -10126.077845821124, -27593.07206786538, -15490.965901728381, -24846.35559873052, -0.024, 0.972, -0.122, 192.0, 0.0, 0.0, 0.0, 0.0, 0.0, 0.0, 0.0, 0.0, 0.0, 1.739822605683261E9, 0.0, 2025-02-17 17:03:25.683
23.0, -8703.322256007465, -9033.21165242334, -7645.280080471049, -7059.463210041906, -10065.348156136055, -27580.622146203776, -15538.530413929275, -24878.139779345966, -0.024, 0.972, -0.122, 192.0, 0.0, 0.0, 0.0, 0.0, 0.0, 0.0, 0.0, 0.0, 0.0, 1.7398226056832826E9, 0.0, 2025-02-17 17:03:25.683
24.0, -8731.552509254518, -9062.045402770687, -7632.3160686869705, -7060.312576331208, -10057.36858336551, -27586.74652418453, -15518.413843919498, -24866.9192036294, -0.024, 0.972, -0.122, 192.0, 0.0, 0.0, 0.0, 0.0, 0.0, 0.0, 0.0, 0.0, 0.0, 1.7398226056833029E9, 0.0, 2025-02-17 17:03:25.683
25.0, -8785.151992458343, -9116.583659241636, -7605.337513129415, -7064.000614166333, -10113.85144160407, -27595.262538822, -15472.548064297209, -24836.87845908147, -0.024, 0.972, -0.122, 192.0, 0.0, 0.0, 0.0, 0.0, 0.0, 0.0, 0.0, 0.0, 0.0, 1.7398226056833246E9, 0.0, 2025-02-17 17:03:25.683
26.0, -8769.818695762002, -9099.775147411245, -7610.0090277205745, -7064.224131610887, -10118.053569561669, -27591.350983542325, -15478.761849255783, -24841.080587039065, -0.024, 0.972, -0.122, 192.0, 0.0, 0.0, 0.0, 0.0, 0.0, 0.0, 0.0, 0.0, 0.0, 1.7398226056833477E9, 0.0, 2025-02-17 17:03:25.683
27.0, -8699.969494339168, -9030.015352966233, -7638.08281875644, -7059.083230386166, -10060.698993289352, -27577.381143257757, -15524.560573644707, -24871.098979842543, -0.024, 0.972, -0.122, 192.0, 0.0, 0.0, 0.0, 0.0, 0.0, 0.0, 0.0, 0.0, 0.0, 1.7398226056833715E9, 0.0, 2025-02-17 17:03:25.683
28.0, -8707.032645587045, -9036.966745491833, -7635.110036743884, -7058.926768174979, -10037.3190685891, -27581.024477603973, -15519.732596842361, -24869.847282153045, -0.024, 0.972, -0.122, 192.0, 0.0, 0.0, 0.0, 0.0, 0.0, 0.0, 0.0, 0.0, 0.0, 1.7398226056834104E9, 0.0, 2025-02-17 17:03:25.683
29.0, -8772.433849863273, -9101.205659056384, -7607.684446297222, -7065.051146155733, -10096.350025695567, -27594.88255916626, -15471.475180563353, -24838.979523060265, -0.024, 0.972, -0.122, 192.0, 0.0, 0.0, 0.0, 0.0, 0.0, 0.0, 0.0, 0.0, 0.0, 1.7398226056834466E9, 0.0, 2025-02-17 17:03:25.683
30.0, -8765.951843971234, -9096.310627020674, -7606.768024774555, -7065.565236278205, -10111.61626715854, -27593.496751010032, -15468.614157273074, -24836.67729338137, -0.024, 0.972, -0.122, 192.0, 0.0, 0.0, 0.0, 0.0, 0.0, 0.0, 0.0, 0.0, 0.0, 1.7398226056834905E9, 0.0, 2025-02-17 17:03:25.683
31.0, -8699.343645494419, -9031.825844267112, -7633.590118120924, -7061.5866257651605, -10063.247092157257, -27580.957422370604, -15511.909486283004, -24865.06400883961, -0.02, 0.96, -0.112, 192.0, 255.0, 96.0, 30.0, 0.0, 252.0, 128.0, 0.0, 0.0, 0.0, 1.739822605683512E9, 0.0, 2025-02-17 17:03:25.683
32.0, -8687.67603488875, -9019.711198772335, -7641.569690891468, -7062.167771120999, -10025.383237049966, -27581.627974704264, -15524.001780033324, -24875.144645588953, -0.02, 0.96, -0.112, 192.0, 0.0, 0.0, 0.0, 0.0, 0.0, 0.0, 0.0, 0.0, 0.0, 1.7398226056835344E9, 0.0, 2025-02-17 17:03:25.683
33.0, -8752.697259509237, -9085.358272237572, -7609.003199220086, -7064.514704288806, -10076.032289985693, -27591.59685273133, -15470.15642764049, -24839.381854460462, -0.02, 0.96, -0.112, 192.0, 0.0, 0.0, 0.0, 0.0, 0.0, 0.0, 0.0, 0.0, 0.0, 1.739822605683555E9, 0.0, 2025-02-17 17:03:25.683
34.0, -8755.848855477436, -9087.727557149836, -7599.056672937474, -7062.391288565552, -10099.635732130497, -27587.32766954037, -15454.398447799498, -24827.06604326559, -0.02, 0.96, -0.112, 192.0, 0.0, 0.0, 0.0, 0.0, 0.0, 0.0, 0.0, 0.0, 0.0, 1.7398226056835747E9, 0.0, 2025-02-17 17:03:25.683
35.0, -8693.420433213763, -9026.372018620017, -7619.866147025365, -7056.4233727959845, -10059.17907466639, -27572.039076332938, -15489.155410427502, -24848.926049342877, -0.02, 0.96, -0.112, 192.0, 0.0, 0.0, 0.0, 0.0, 0.0, 0.0, 0.0, 0.0, 0.0, 1.7398226056835935E9, 0.0, 2025-02-17 17:03:25.683
36.0, -8661.09981073139, -8993.44789903735, -7635.467664655169, -7054.814047195202, -10007.591248463541, -27566.45114021911, -15513.87643979507, -24866.53922397366, -0.02, 0.96, -0.112, 192.0, 0.0, 0.0, 0.0, 0.0, 0.0, 0.0, 0.0, 0.0, 0.0, 1.739822605683612E9, 0.0, 2025-02-17 17:03:25.683
37.0, -8732.021895888078, -9061.128981248019, -7608.377350375337, -7060.893721687045, -10051.713592018317, -27579.75042817002, -15466.468389805364, -24836.565534659094, -0.02, 0.96, -0.112, 192.0, 0.0, 0.0, 0.0, 0.0, 0.0, 0.0, 0.0, 0.0, 0.0, 1.7398226056836436E9, 0.0, 2025-02-17 17:03:25.683
38.0, -8751.982003686668, -9083.27956000323, -7599.12372817084, -7065.140553133554, -10092.2820082047, -27583.55022472742, -15447.089427362613, -24823.601522875015, -0.02, 0.96, -0.112, 192.0, 0.0, 0.0, 0.0, 0.0, 0.0, 0.0, 0.0, 0.0, 0.0, 1.7398226056836648E9, 0.0, 2025-02-17 17:03:25.683
39.0, -8704.77511939706, -9034.820978024123, -7620.313181914471, -7064.693518244448, -10066.532798592187, -27575.771817656972, -15479.074773678158, -24845.215659763297, -0.02, 0.96, -0.112, 192.0, 0.0, 0.0, 0.0, 0.0, 0.0, 0.0, 0.0, 0.0, 0.0, 1.7398226056836848E9, 0.0, 2025-02-17 17:03:25.683
40.0, -8653.991955994601, -8984.887180910968, -7642.776685092054, -7062.167771120999, -10007.4124345079, -27567.74754139752, -15514.54699212873, -24869.48965424176, -0.02, 0.96, -0.112, 192.0, 0.0, 0.0, 0.0, 0.0, 0.0, 0.0, 0.0, 0.0, 0.0, 1.739822605683705E9, 0.0, 2025-02-17 17:03:25.683
41.0, -8711.43593924474, -9045.013373495744, -7616.714551057166, -7064.648814755537, -10036.693219744351, -27577.917585124684, -15470.625814274052, -24840.991180061243, -0.012, 0.9380000000000001, -0.106, 192.0, 255.0, 160.0, 29.0, 80.0, 252.0, 176.0, 0.0, 0.0, 0.0, 1.739822605683726E9, 0.0, 2025-02-17 17:03:25.683
42.0, -8742.191939615243, -9075.36704246605, -7598.631989792823, -7065.92286418949, -10083.497772633764, -27580.018649103484, -15438.43930225841, -24817.834772805545, -0.012, 0.9380000000000001, -0.106, 192.0, 0.0, 0.0, 0.0, 0.0, 0.0, 0.0, 0.0, 0.0, 0.0, 1.739822605683748E9, 0.0, 2025-02-17 17:03:25.683
43.0, -8706.496203720119, -9036.8326350251, -7614.278210911538, -7065.654643256026, -10066.286929403179, -27572.866090877786, -15461.506302536287, -24832.922200312878, -0.012, 0.9380000000000001, -0.106, 192.0, 0.0, 0.0, 0.0, 0.0, 0.0, 0.0, 0.0, 0.0, 0.0, 1.7398226056837687E9, 0.0, 2025-02-17 17:03:25.683
44.0, -8642.99489772259, -8975.141820328454, -7640.9438420467195, -7061.9666054209, -10002.98678910575, -27561.198480272113, -15503.549933856719, -24860.77247390419, -0.012, 0.9380000000000001, -0.106, 192.0, 0.0, 0.0, 0.0, 0.0, 0.0, 0.0, 0.0, 0.0, 0.0, 1.739822605683788E9, 0.0, 2025-02-17 17:03:25.683
0.0, 0.0, 0.0, 0.0, 0.0, 0.0, 0.0, 0.0, 0.0, -0.012, 0.9380000000000001, -0.106, 192.0, 0.0, 0.0, 0.0, 0.0, 0.0, 0.0, 0.0, 0.0, 0.0, 1.739822605779064E9, 0.0, 2025-02-17 17:03:25.779
1.0, -6878.83876309857, -7208.526993814349, -7373.147591727686, -6826.133349672956, -8215.67424722603, -26593.9267389687, -14012.509764732094, -23876.78162774821, -0.016, 0.9580000000000001, -0.092, 192.0, 255.0, 128.0, 29.0, 240.0, 253.0, 32.0, 0.0, 0.0, 0.0, 1.7398226057951324E9, 0.0, 2025-02-17 17:03:25.795
2.0, -6948.2409296322985, -7278.309140003817, -7348.180693171107, -6827.429750851364, -8282.796535825317, -26597.34655587036, -13965.369935675853, -23840.594153475067, -0.016, 0.9580000000000001, -0.092, 192.0, 0.0, 0.0, 0.0, 0.0, 0.0, 0.0, 0.0, 0.0, 0.0, 1.7398226062644897E9, 0.0, 2025-02-17 17:03:26.264
3.0, -6934.762827725748, -7264.316947974796, -7349.767667027434, -6826.5580328176065, -8292.184268496547, -26593.479704079593, -13967.292185699009, -23841.175298830905, -0.016, 0.9580000000000001, -0.092, 192.0, 0.0, 0.0, 0.0, 0.0, 0.0, 0.0, 0.0, 0.0, 0.0, 1.7398226062645478E9, 0.0, 2025-02-17 17:03:26.264
4.0, -6858.409268666419, -7187.47165053745, -7376.500353395982, -6825.239279894743, -8232.639221267607, -26587.06475342092, -14013.850869399414, -23876.178130647913, -0.016, 0.9580000000000001, -0.092, 192.0, 0.0, 0.0, 0.0, 0.0, 0.0, 0.0, 0.0, 0.0, 0.0, 1.7398226062645774E9, 0.0, 2025-02-17 17:03:26.264
5.0, -6860.286815200665, -7189.997397660899, -7377.997920274487, -6825.507500828207, -8203.649008709075, -26589.36698309982, -14016.197802567222, -23879.352078360567, -0.016, 0.9580000000000001, -0.092, 192.0, 0.0, 0.0, 0.0, 0.0, 0.0, 0.0, 0.0, 0.0, 0.0, 1.7398226062646098E9, 0.0, 2025-02-17 17:03:26.264
6.0, -6936.550967282173, -7266.015680553399, -7350.125294938719, -6826.356867117509, -8269.452544385498, -26593.03266919049, -13965.034659509023, -23840.348284286058, -0.016, 0.9580000000000001, -0.092, 192.0, 0.0, 0.0, 0.0, 0.0, 0.0, 0.0, 0.0, 0.0, 0.0, 1.7398226062646346E9, 0.0, 2025-02-17 17:03:26.264
7.0, -6935.723952737326, -7264.942796819544, -7345.878463492211, -6824.792245005638, -8289.63616962864, -26588.78583774398, -13957.345659416398, -23833.24042954927, -0.016, 0.9580000000000001, -0.092, 192.0, 0.0, 0.0, 0.0, 0.0, 0.0, 0.0, 0.0, 0.0, 0.0, 1.739822606264654E9, 0.0, 2025-02-17 17:03:26.264
8.0, -6865.539475147662, -7194.445394807505, -7370.063050992853, -6823.49584382723, -8238.785950992817, -26582.192073129663, -13999.612808181384, -23864.82344446462, -0.014, 0.974, -0.08600000000000001, 192.0, 255.0, 144.0, 30.0, 112.0, 253.0, 80.0, 0.0, 0.0, 0.0, 1.7398226062647223E9, 0.0, 2025-02-17 17:03:26.264
9.0, -6844.931166759869, -7174.462935264461, -7380.948350542588, -6824.613431049995, -8194.127165571113, -26583.711991752625, -14018.075349101468, -23880.357906861056, -0.014, 0.974, -0.08600000000000001, 192.0, 0.0, 0.0, 0.0, 0.0, 0.0, 0.0, 0.0, 0.0, 0.0, 1.739822606264747E9, 0.0, 2025-02-17 17:03:26.264
10.0, -6923.698714220371, -7253.074020513776, -7352.919262995632, -6825.619259550484, -8252.956956977481, -26589.009355188533, -13967.023964765545, -23842.069368609118, -0.014, 0.974, -0.08600000000000001, 192.0, 0.0, 0.0, 0.0, 0.0, 0.0, 0.0, 0.0, 0.0, 0.0, 1.7398226062647648E9, 0.0, 2025-02-17 17:03:26.264
11.0, -6936.729781237815, -7266.015680553399, -7344.313841380339, -6824.904003727914, -8286.64103587163, -26586.88593946528, -13950.863653524359, -23828.568914958112, -0.014, 0.974, -0.08600000000000001, 192.0, 0.0, 0.0, 0.0, 0.0, 0.0, 0.0, 0.0, 0.0, 0.0, 1.739822606264783E9, 0.0, 2025-02-17 17:03:26.264
12.0, -6875.128373518989, -7204.838955979223, -7364.810391045856, -6823.652306038417, -8246.854930741183, -26581.566224284918, -13986.738203375126, -23855.256897837746, -0.014, 0.974, -0.08600000000000001, 192.0, 0.0, 0.0, 0.0, 0.0, 0.0, 0.0, 0.0, 0.0, 0.0, 1.7398226062648008E9, 0.0, 2025-02-17 17:03:26.264
13.0, -6832.2577276537095, -7162.191827558498, -7382.155344743174, -6823.249974638221, -8187.913380612538, -26581.007430673533, -14016.890706645336, -23879.01680219374, -0.014, 0.974, -0.08600000000000001, 192.0, 0.0, 0.0, 0.0, 0.0, 0.0, 0.0, 0.0, 0.0, 0.0, 1.739822606264819E9, 0.0, 2025-02-17 17:03:26.264
14.0, -6906.376112267508, -7235.617308094181, -7355.3779548857165, -6823.406436849408, -8234.136788146114, -26587.042401676466, -13969.1473804888, -23843.499880254258, -0.014, 0.974, -0.08600000000000001, 192.0, 0.0, 0.0, 0.0, 0.0, 0.0, 0.0, 0.0, 0.0, 0.0, 1.7398226062648363E9, 0.0, 2025-02-17 17:03:26.264
15.0, -6933.555833525162, -7262.238235740452, -7341.475169834515, -6822.557070560107, -8278.840277056728, -26586.014221431524, -13943.420522620741, -23822.735109655277, -0.014, 0.974, -0.08600000000000001, 192.0, 0.0, 0.0, 0.0, 0.0, 0.0, 0.0, 0.0, 0.0, 0.0, 1.7398226062648544E9, 0.0, 2025-02-17 17:03:26.264
16.0, -6883.398518967452, -7212.28208688284, -7357.948405498077, -6821.774759504171, -8251.839369754716, -26581.677983007194, -13971.986052034623, -23843.946915143362, -0.014, 0.974, -0.08600000000000001, 192.0, 0.0, 0.0, 0.0, 0.0, 0.0, 0.0, 0.0, 0.0, 0.0, 1.7398226062648823E9, 0.0, 2025-02-17 17:03:26.264
17.0, -6822.668829282383, -7152.602929187171, -7380.613074375758, -6820.791282748138, -8185.454688722455, -26578.30286959444, -14011.77215716507, -23874.568805047133, -0.014, 0.974, -0.08600000000000001, 192.0, 0.0, 0.0, 0.0, 0.0, 0.0, 0.0, 0.0, 0.0, 0.0, 1.739822606264902E9, 0.0, 2025-02-17 17:03:26.264
18.0, -6885.767803879715, -7216.059531695787, -7358.306033409362, -6820.903041470414, -8215.3389710592, -26583.242605119063, -13971.896645056802, -23845.377426788502, -0.008, 0.98, -0.08600000000000001, 192.0, 255.0, 192.0, 30.0, 160.0, 253.0, 80.0, 0.0, 0.0, 0.0, 1.7398226062649207E9, 0.0, 2025-02-17 17:03:26.264
19.0, -6929.957202667857, -7259.2878054723515, -7341.676335534613, -6822.400608348919, -8272.06769848677, -26584.002564430546, -13939.419560363242, -23819.80703113163, -0.008, 0.98, -0.08600000000000001, 192.0, 0.0, 0.0, 0.0, 0.0, 0.0, 0.0, 0.0, 0.0, 0.0, 1.739822606264948E9, 0.0, 2025-02-17 17:03:26.264
20.0, -6891.869830116014, -7220.4851770979385, -7353.031021717909, -6821.305372870609, -8257.20378842399, -26578.25816610553, -13958.99968850609, -23833.82157490511, -0.008, 0.98, -0.08600000000000001, 192.0, 0.0, 0.0, 0.0, 0.0, 0.0, 0.0, 0.0, 0.0, 0.0, 1.7398226062649667E9, 0.0, 2025-02-17 17:03:26.264
21.0, -6820.612468792495, -7149.428981474517, -7379.294321452895, -6819.830157736559, -8188.561581201742, -26572.11143638032, -14004.641950683827, -23868.39972357747, -0.008, 0.98, -0.08600000000000001, 192.0, 0.0, 0.0, 0.0, 0.0, 0.0, 0.0, 0.0, 0.0, 0.0, 1.739822606264986E9, 0.0, 2025-02-17 17:03:26.264
22.0, -6867.908760059925, -7197.686397753525, -7364.542170112392, -6821.01480019269, -8200.229191807413, -26576.917061438213, -13977.775153848548, -23849.512499512733, -0.008, 0.98, -0.08600000000000001, 192.0, 0.0, 0.0, 0.0, 0.0, 0.0, 0.0, 0.0, 0.0, 0.0, 1.739822606265005E9, 0.0, 2025-02-17 17:03:26.265
23.0, -6924.816301443137, -7254.660994370102, -7343.2856611353955, -6822.44531183783, -8264.199884438502, -26578.816959716914, -13936.916164984246, -23818.018891575204, -0.008, 0.98, -0.08600000000000001, 192.0, 0.0, 0.0, 0.0, 0.0, 0.0, 0.0, 0.0, 0.0, 0.0, 1.7398226062650337E9, 0.0, 2025-02-17 17:03:26.265
24.0, -6900.117623820022, -7228.956488246499, -7350.482922850004, -6822.110035671, -8261.562378592775, -26575.30773583743, -13948.628479078829, -23826.266685279214, -0.008, 0.98, -0.08600000000000001, 192.0, 0.0, 0.0, 0.0, 0.0, 0.0, 0.0, 0.0, 0.0, 0.0, 1.7398226062650604E9, 0.0, 2025-02-17 17:03:26.265
25.0, -6822.914698471392, -7152.066487320243, -7377.08149875182, -6819.740750758738, -8195.267104538334, -26568.870433434302, -13995.969473835168, -23861.62714500751, -0.008, 0.98, -0.08600000000000001, 192.0, 0.0, 0.0, 0.0, 0.0, 0.0, 0.0, 0.0, 0.0, 0.0, 1.7398226062650795E9, 0.0, 2025-02-17 17:03:26.265
26.0, -6847.434562138863, -7177.234551576919, -7368.945463770087, -6819.204308891811, -8185.074709066715, -26572.78198871398, -13981.95493006169, -23852.35117105856, -0.008, 0.98, -0.08600000000000001, 192.0, 0.0, 0.0, 0.0, 0.0, 0.0, 0.0, 0.0, 0.0, 0.0, 1.7398226062650983E9, 0.0, 2025-02-17 17:03:26.265
27.0, -6914.378036782508, -7243.932157031555, -7342.369239612728, -6819.2266606362655, -8249.96182322047, -26575.955936426635, -13933.339885871397, -23814.91199909592, -0.008, 0.98, -0.08600000000000001, 192.0, 0.0, 0.0, 0.0, 0.0, 0.0, 0.0, 0.0, 0.0, 0.0, 1.739822606265118E9, 0.0, 2025-02-17 17:03:26.265
28.0, -6904.2750482887095, -7233.2256714374635, -7346.8619402482445, -6821.372428103975, -8261.942358248516, -26576.44767480465, -13938.480787096118, -23818.66709216441, -0.008, 0.982, -0.082, 192.0, 255.0, 192.0, 30.0, 176.0, 253.0, 112.0, 0.0, 0.0, 0.0, 1.7398226062651365E9, 0.0, 2025-02-17 17:03:26.265
29.0, -6830.44723635283, -7159.397859501584, -7374.891027795199, -6821.2159658927885, -8204.699540698473, -26572.44671254715, -13986.537037675029, -23854.96632515983, -0.008, 0.982, -0.082, 192.0, 0.0, 0.0, 0.0, 0.0, 0.0, 0.0, 0.0, 0.0, 0.0, 1.7398226062651572E9, 0.0, 2025-02-17 17:03:26.265
30.0, -6830.78251251966, -7160.806019402268, -7374.667510350646, -6819.830157736559, -8174.345871728167, -26574.056038147934, -13987.408755708786, -23856.62035424952, -0.008, 0.982, -0.082, 192.0, 0.0, 0.0, 0.0, 0.0, 0.0, 0.0, 0.0, 0.0, 0.0, 1.739822606265176E9, 0.0, 2025-02-17 17:03:26.265
31.0, -6906.5102227342395, -7235.7514185609125, -7346.616071059236, -6820.657172281405, -8238.361267848166, -26578.63814576127, -13935.99974346158, -23817.683615408376, -0.008, 0.982, -0.082, 192.0, 0.0, 0.0, 0.0, 0.0, 0.0, 0.0, 0.0, 0.0, 0.0, 1.7398226062652023E9, 0.0, 2025-02-17 17:03:26.265
32.0, -6907.56075472364, -7236.62313659467, -7344.291489635884, -6821.238317637243, -8260.690660559017, -26576.917061438213, -13930.456510836662, -23812.67682465039, -0.008, 0.982, -0.082, 192.0, 0.0, 0.0, 0.0, 0.0, 0.0, 0.0, 0.0, 0.0, 0.0, 1.73982260626522E9, 0.0, 2025-02-17 17:03:26.265
33.0, -6838.49386435674, -7166.997452616389, -7368.520780625437, -6819.9866199477465, -8211.360360546156, -26570.189186357165, -13973.014232279567, -23844.461005265835, -0.008, 0.982, -0.082, 192.0, 0.0, 0.0, 0.0, 0.0, 0.0, 0.0, 0.0, 0.0, 0.0, 1.739822606265238E9, 0.0, 2025-02-17 17:03:26.265
34.0, -6817.01383793519, -7146.433847717506, -7377.997920274487, -6819.58428854755, -8165.539284412776, -26569.853910190333, -13989.934502832235, -23858.453197294857, -0.008, 0.982, -0.082, 192.0, 0.0, 0.0, 0.0, 0.0, 0.0, 0.0, 0.0, 0.0, 0.0, 1.7398226062652583E9, 0.0, 2025-02-17 17:03:26.265
35.0, -6895.110833062034, -7225.514319600382, -7350.6840885501015, -6821.551242059618, -8224.637296752608, -26575.531253281984, -13939.66542955225, -23820.969321843306, -0.008, 0.982, -0.082, 192.0, 0.0, 0.0, 0.0, 0.0, 0.0, 0.0, 0.0, 0.0, 0.0, 1.7398226062652788E9, 0.0, 2025-02-17 17:03:26.265
36.0, -6911.025275114212, -7240.869968041178, -7344.850283247267, -6823.629954293961, -8260.467143114465, -26575.486549793073, -13926.23203113461, -23810.4192984604, -0.008, 0.982, -0.082, 192.0, 0.0, 0.0, 0.0, 0.0, 0.0, 0.0, 0.0, 0.0, 0.0, 1.739822606265298E9, 0.0, 2025-02-17 17:03:26.265
37.0, -6850.742620318249, -7179.983816144922, -7365.5927021017915, -6822.3335531155535, -8222.24566009589, -26569.429227045683, -13962.441857152207, -23837.33079878459, -0.008, 0.982, -0.082, 192.0, 0.0, 0.0, 0.0, 0.0, 0.0, 0.0, 0.0, 0.0, 0.0, 1.7398226062653172E9, 0.0, 2025-02-17 17:03:26.265
38.0, -6806.530869785652, -7136.599080157171, -7381.261274964962, -6820.1654339033885, -8163.214702989424, -26566.29998282194, -13991.052090055, -23859.459025795346, -0.006, 0.986, -0.084, 192.0, 255.0, 208.0, 30.0, 208.0, 253.0, 96.0, 0.0, 0.0, 0.0, 1.739822606265335E9, 0.0, 2025-02-17 17:03:26.265
39.0, -6880.336329977075, -7210.158671159586, -7354.819161274334, -6820.858337981504, -8208.655799467064, -26572.223195102597, -13943.398170876286, -23824.3220835116, -0.006, 0.986, -0.084, 192.0, 0.0, 0.0, 0.0, 0.0, 0.0, 0.0, 0.0, 0.0, 0.0, 1.739822606265369E9, 0.0, 2025-02-17 17:03:26.265
40.0, -6905.705559933849, -7235.796122049824, -7339.97760295601, -6819.070198425079, -8250.878244743139, -26569.898613679245, -13916.66548450774, -23802.66324313441, -0.006, 0.986, -0.084, 192.0, 0.0, 0.0, 0.0, 0.0, 0.0, 0.0, 0.0, 0.0, 0.0, 1.739822606265388E9, 0.0, 2025-02-17 17:03:26.265
41.0, -6853.625995352983, -7183.560095257771, -7354.036850218398, -6815.762140245693, -8222.066846140247, -26563.01427638701, -13943.107598198367, -23821.505763710233, -0.006, 0.986, -0.084, 192.0, 0.0, 0.0, 0.0, 0.0, 0.0, 0.0, 0.0, 0.0, 0.0, 1.7398226062654068E9, 0.0, 2025-02-17 17:03:26.265
42.0, -6795.064424880079, -7125.378504440607, -7377.7967545743895, -6815.695085012328, -8157.984394786882, -26560.98026764158, -13984.167752762765, -23853.20053734786, -0.006, 0.986, -0.084, 192.0, 0.0, 0.0, 0.0, 0.0, 0.0, 0.0, 0.0, 0.0, 0.0, 1.7398226062654257E9, 0.0, 2025-02-17 17:03:26.265
43.0, -6857.6716610993935, -7188.522182526849, -7355.757934541457, -6816.477396068263, -8187.756918401351, -26566.92583166669, -13944.76162728806, -23824.56795270061, -0.006, 0.986, -0.084, 192.0, 0.0, 0.0, 0.0, 0.0, 0.0, 0.0, 0.0, 0.0, 0.0, 1.7398226062654443E9, 0.0, 2025-02-17 17:03:26.265
44.0, -6898.530649963695, -7228.8223777797675, -7336.624841287714, -6815.650381523416, -8241.021125438348, -26565.987058399565, -13909.758795471049, -23796.829437831573, -0.006, 0.986, -0.084, 192.0, 0.0, 0.0, 0.0, 0.0, 0.0, 0.0, 0.0, 0.0, 0.0, 1.739822606265463E9, 0.0, 2025-02-17 17:03:26.265
45.0, -6860.376222178486, -7190.08680463872, -7347.487789092993, -6813.996352433724, -8225.53136653082, -26560.510881008016, -13929.271868380532, -23810.888685093963, -0.006, 0.986, -0.084, 192.0, 0.0, 0.0, 0.0, 0.0, 0.0, 0.0, 0.0, 0.0, 0.0, 1.7398226062654817E9, 0.0, 2025-02-17 17:03:26.265
46.0, -6791.175221344855, -7121.131672994098, -7374.645158606191, -6813.616372777984, -8159.23609247638, -26556.06288386141, -13976.545807903507, -23846.874993667006, -0.006, 0.986, -0.084, 192.0, 0.0, 0.0, 0.0, 0.0, 0.0, 0.0, 0.0, 0.0, 0.0, 1.7398226062655072E9, 0.0, 2025-02-17 17:03:26.265
47.0, -6840.505521357718, -7171.020766618343, -7362.195236944585, -6817.326762357565, -8173.161229272036, -26563.841290931858, -13951.891833769303, -23830.468813236814, -0.006, 0.986, -0.084, 192.0, 0.0, 0.0, 0.0, 0.0, 0.0, 0.0, 0.0, 0.0, 0.0, 1.739822606265526E9, 0.0, 2025-02-17 17:03:26.265
48.0, -6896.653103429449, -7226.743665545424, -7340.73756226749, -6818.936087958346, -8236.327259102734, -26565.87529967729, -13911.055196649457, -23799.109315766018, -0.006, 0.984, -0.084, 192.0, 255.0, 208.0, 30.0, 192.0, 253.0, 96.0, 0.0, 0.0, 0.0, 1.739822606265545E9, 0.0, 2025-02-17 17:03:26.265
49.0, -6870.367451950008, -7200.4133105770725, -7346.593719314781, -6817.483224568752, -8232.795683478795, -26560.667343219204, -13921.784033988004, -23806.32892922508, -0.006, 0.984, -0.084, 192.0, 0.0, 0.0, 0.0, 0.0, 0.0, 0.0, 0.0, 0.0, 0.0, 1.739822606265574E9, 0.0, 2025-02-17 17:03:26.265
50.0, -6797.411358047886, -7127.07723701921, -7375.874504551233, -6817.885555968947, -8169.719060625918, -26556.152290839233, -13972.030755523534, -23844.438653521378, -0.006, 0.984, -0.084, 192.0, 0.0, 0.0, 0.0, 0.0, 0.0, 0.0, 0.0, 0.0, 0.0, 1.7398226062655923E9, 0.0, 2025-02-17 17:03:26.265
51.0, -6822.355904860009, -7152.468818720439, -7367.827876547322, -6817.796148991126, -8160.1972174879575, -26559.30388680743, -13958.1950257057, -23835.38619701698, -0.006, 0.984, -0.084, 192.0, 0.0, 0.0, 0.0, 0.0, 0.0, 0.0, 0.0, 0.0, 0.0, 1.7398226062656105E9, 0.0, 2025-02-17 17:03:26.265
52.0, -6891.556905693639, -7221.200432920508, -7344.6938210360795, -6821.283021126154, -8227.833596209717, -26564.713008965613, -13912.776280972515, -23801.27743497818, -0.006, 0.984, -0.084, 192.0, 0.0, 0.0, 0.0, 0.0, 0.0, 0.0, 0.0, 0.0, 0.0, 1.7398226062656283E9, 0.0, 2025-02-17 17:03:26.265
53.0, -6878.771707865204, -7208.370531603162, -7346.951347226066, -6821.126558914967, -8237.310735858768, -26561.87433741979, -13915.95022868517, -23802.95381581233, -0.006, 0.984, -0.084, 192.0, 0.0, 0.0, 0.0, 0.0, 0.0, 0.0, 0.0, 0.0, 0.0, 1.7398226062656465E9, 0.0, 2025-02-17 17:03:26.265
54.0, -6801.881706938948, -7131.257013232353, -7370.733603326512, -6816.790320490637, -8176.223418262413, -26552.77717742648, -13960.273737940042, -23835.38619701698, -0.006, 0.984, -0.084, 192.0, 0.0, 0.0, 0.0, 0.0, 0.0, 0.0, 0.0, 0.0, 0.0, 1.7398226062656713E9, 0.0, 2025-02-17 17:03:26.265
55.0, -6803.178108117356, -7133.179263255509, -7371.024176004431, -6816.075064668067, -8146.920281281506, -26554.67707570518, -13961.592490862906, -23837.66607495142, -0.006, 0.984, -0.084, 192.0, 0.0, 0.0, 0.0, 0.0, 0.0, 0.0, 0.0, 0.0, 0.0, 1.739822606265689E9, 0.0, 2025-02-17 17:03:26.265
56.0, -6877.318844475609, -7207.1635374025755, -7343.30801287985, -6817.192651890833, -8210.376883790123, -26559.30388680743, -13910.1834786157, -23798.818743088097, -0.006, 0.984, -0.084, 192.0, 0.0, 0.0, 0.0, 0.0, 0.0, 0.0, 0.0, 0.0, 0.0, 1.7398226062657068E9, 0.0, 2025-02-17 17:03:26.265
57.0, -6877.810582853625, -7207.297647869307, -7340.804617500856, -6817.527928057662, -8231.745151489396, -26557.605154228826, -13904.550839012962, -23793.7672488412, -0.006, 0.984, -0.084, 192.0, 0.0, 0.0, 0.0, 0.0, 0.0, 0.0, 0.0, 0.0, 0.0, 1.7398226062657244E9, 0.0, 2025-02-17 17:03:26.265
58.0, -6807.2461256082215, -7136.621431901626, -7363.245768933984, -6814.286925111643, -8181.029043320304, -26549.558526224915, -13945.722752299638, -23823.94210385586, -0.006, 0.982, -0.08, 192.0, 255.0, 208.0, 30.0, 176.0, 253.0, 128.0, 0.0, 0.0, 0.0, 1.7398226062657423E9, 0.0, 2025-02-17 17:03:26.265
59.0, -6788.5824189880395, -7118.829443315201, -7375.27100745094, -6816.410340834897, -8138.717191066407, -26552.330142537376, -13965.19112172021, -23840.504746497245, -0.006, 0.982, -0.08, 192.0, 0.0, 0.0, 0.0, 0.0, 0.0, 0.0, 0.0, 0.0, 0.0, 1.7398226062657611E9, 0.0, 2025-02-17 17:03:26.265
60.0, -6863.4831146577735, -7193.573676773749, -7345.677297792113, -6816.075064668067, -8194.730662671407, -26555.906421650223, -13912.195135616677, -23800.495123922246, -0.006, 0.982, -0.08, 192.0, 0.0, 0.0, 0.0, 0.0, 0.0, 0.0, 0.0, 0.0, 0.0, 1.739822606265779E9, 0.0, 2025-02-17 17:03:26.265
61.0, -6875.441297941363, -7205.218935634964, -7336.423675587616, -6814.77866348966, -8226.380732820122, -26552.57601172638, -13895.587789486384, -23786.547635382132, -0.006, 0.982, -0.08, 192.0, 0.0, 0.0, 0.0, 0.0, 0.0, 0.0, 0.0, 0.0, 0.0, 1.7398226062657964E9, 0.0, 2025-02-17 17:03:26.265
62.0, -6816.544451301629, -7145.9868128284, -7357.791943286889, -6814.219869878277, -8188.740395157385, -26547.189241312655, -13932.781092260015, -23814.442612462357, -0.006, 0.982, -0.08, 192.0, 0.0, 0.0, 0.0, 0.0, 0.0, 0.0, 0.0, 0.0, 0.0, 1.7398226062658317E9, 0.0, 2025-02-17 17:03:26.265
63.0, -6774.634930447928, -7104.010236741333, -7374.443992906094, -6813.191689633333, -8131.162301440514, -26544.887011633757, -13962.553615874484, -23837.733130184788, -0.006, 0.982, -0.08, 192.0, 0.0, 0.0, 0.0, 0.0, 0.0, 0.0, 0.0, 0.0, 0.0, 1.7398226062658505E9, 0.0, 2025-02-17 17:03:26.265
64.0, -6847.345155161042, -7177.1674963435535, -7348.650079804669, -6814.577497789562, -8177.631578163097, -26550.9666861256, -13915.458490307152, -23802.842057090053, -0.006, 0.982, -0.08, 192.0, 0.0, 0.0, 0.0, 0.0, 0.0, 0.0, 0.0, 0.0, 0.0, 1.7398226062658696E9, 0.0, 2025-02-17 17:03:26.265
65.0, -6877.363547964519, -7206.940019958022, -7338.524739566415, -6817.572631546573, -8224.234965352412, -26552.888936148756, -13893.553780740951, -23785.98884177075, -0.006, 0.982, -0.08, 192.0, 0.0, 0.0, 0.0, 0.0, 0.0, 0.0, 0.0, 0.0, 0.0, 1.7398226062658887E9, 0.0, 2025-02-17 17:03:26.265
66.0, -6828.167358418389, -7157.520312967338, -7354.4391816185935, -6816.119768156978, -8197.457575494955, -26547.39040701275, -13922.029903177012, -23806.88772283646, -0.006, 0.982, -0.08, 192.0, 0.0, 0.0, 0.0, 0.0, 0.0, 0.0, 0.0, 0.0, 0.0, 1.7398226062659078E9, 0.0, 2025-02-17 17:03:26.265
67.0, -6768.085869322524, -7097.952913993945, -7375.673338851135, -6813.5269658001625, -8131.542281096254, -26542.607133699315, -13960.81017980697, -23836.414377261925, -0.006, 0.982, -0.08, 192.0, 0.0, 0.0, 0.0, 0.0, 0.0, 0.0, 0.0, 0.0, 0.0, 1.7398226062659266E9, 0.0, 2025-02-17 17:03:26.265
68.0, -6830.4919398417405, -7160.515446724349, -7353.746277540479, -6814.39868383392, -8160.800714588251, -26548.373883768785, -13921.314647354442, -23807.647682147945, -0.006, 0.986, -0.08, 192.0, 255.0, 208.0, 30.0, 208.0, 253.0, 128.0, 0.0, 0.0, 0.0, 1.7398226062659454E9, 0.0, 2025-02-17 17:03:26.265
